#SUBSTANCE=Sulphuric acid
#DESCRIPTION=Refractive indices of 38 wt% sulphuric acid from 400 to 7500 cm-1 at 223 K
#TEMPERATURE=223 K
#CONCENTRATION=38 wt%
#DOI=10.1021/jp026576n
#REFERENCE=Spectroscopic Study of Aqueous H2SO4 at Different Temperatures and Compositions:  Variations in Dissociation and Optical Properties
##Cathrine E. Lund Myhre,†, Daniel H. Christensen,‡, Flemming M. Nicolaisen,‡ and, and Claus J. Nielsen*,†
##The Journal of Physical Chemistry A 2003 107 (12), 1979-1991 
#FORMAT=WAVN N K
7498.52083	1.38849	0.01371
7497.02072	1.38855	0.01371
7495.52061	1.38863	0.01372
7494.0205	1.38869	0.01371
7492.52039	1.38874	0.0137
7491.02027	1.38879	0.01366
7489.52016	1.38883	0.01362
7488.02005	1.38884	0.01358
7486.51994	1.38886	0.01353
7485.01983	1.38886	0.01349
7483.51971	1.38885	0.01346
7482.0196	1.38884	0.01342
7480.51949	1.38883	0.0134
7479.01938	1.38881	0.01338
7477.51927	1.3888	0.01338
7476.01916	1.38879	0.01338
7474.51904	1.38879	0.01338
7473.01893	1.3888	0.01338
7471.51882	1.38882	0.01339
7470.01871	1.38885	0.01338
7468.5186	1.38889	0.01336
7467.01848	1.38893	0.01335
7465.51837	1.38897	0.01331
7464.01826	1.389	0.01326
7462.51815	1.38903	0.01321
7461.01804	1.38903	0.01315
7459.51793	1.38903	0.01309
7458.01781	1.38901	0.01303
7456.5177	1.38899	0.01298
7455.01759	1.38895	0.01293
7453.51748	1.38892	0.0129
7452.01737	1.38888	0.01286
7450.51725	1.38883	0.01284
7449.01714	1.38879	0.01283
7447.51703	1.38875	0.01283
7446.01692	1.38873	0.01282
7444.51681	1.3887	0.01282
7443.0167	1.38869	0.01282
7441.51658	1.38866	0.01282
7440.01647	1.38865	0.01283
7438.51636	1.38863	0.01283
7437.01625	1.38862	0.01284
7435.51614	1.38863	0.01285
7434.01602	1.38863	0.01285
7432.51591	1.38865	0.01284
7431.0158	1.38866	0.01282
7429.51569	1.38866	0.01281
7428.01558	1.38866	0.01278
7426.51547	1.38866	0.01276
7425.01535	1.38864	0.01273
7423.51524	1.38862	0.01271
7422.01513	1.38859	0.01269
7420.51502	1.38856	0.01269
7419.01491	1.38853	0.01268
7417.51479	1.38849	0.01269
7416.01468	1.38847	0.0127
7414.51457	1.38847	0.01273
7413.01446	1.38847	0.01274
7411.51435	1.3885	0.01276
7410.01424	1.38852	0.01276
7408.51412	1.38854	0.01274
7407.01401	1.38857	0.01273
7405.5139	1.38858	0.01271
7404.01379	1.3886	0.01268
7402.51368	1.38861	0.01264
7401.01356	1.3886	0.01259
7399.51345	1.38859	0.01255
7398.01334	1.38855	0.01251
7396.51323	1.38852	0.01248
7395.01312	1.38848	0.01246
7393.51301	1.38845	0.01245
7392.01289	1.38842	0.01243
7390.51278	1.38839	0.01242
7389.01267	1.38836	0.01242
7387.51256	1.38833	0.01242
7386.01245	1.3883	0.01242
7384.51233	1.38827	0.01243
7383.01222	1.38825	0.01243
7381.51211	1.38823	0.01244
7380.012	1.38822	0.01244
7378.51189	1.3882	0.01245
7377.01178	1.38817	0.01246
7375.51166	1.38815	0.01247
7374.01155	1.38814	0.01249
7372.51144	1.38814	0.01251
7371.01133	1.38815	0.01252
7369.51122	1.38816	0.01252
7368.0111	1.38816	0.01252
7366.51099	1.38815	0.01252
7365.01088	1.38815	0.01252
7363.51077	1.38816	0.01253
7362.01066	1.38816	0.01252
7360.51055	1.38816	0.01252
7359.01043	1.38816	0.01251
7357.51032	1.38816	0.01251
7356.01021	1.38817	0.01251
7354.5101	1.38819	0.0125
7353.00999	1.38821	0.01249
7351.50987	1.38823	0.01245
7350.00976	1.38824	0.0124
7348.50965	1.38823	0.01236
7347.00954	1.38819	0.01232
7345.50943	1.38814	0.01229
7344.00932	1.3881	0.01227
7342.5092	1.38805	0.01226
7341.00909	1.38799	0.01226
7339.50898	1.38793	0.01227
7338.00887	1.38788	0.0123
7336.50876	1.38785	0.01234
7335.00864	1.38784	0.01238
7333.50853	1.38786	0.01242
7332.00842	1.38787	0.01244
7330.50831	1.38789	0.01246
7329.0082	1.3879	0.01246
7327.50809	1.38791	0.01247
7326.00797	1.38792	0.01248
7324.50786	1.38795	0.01248
7323.00775	1.38797	0.01247
7321.50764	1.38799	0.01246
7320.00753	1.38801	0.01243
7318.50741	1.38801	0.0124
7317.0073	1.38801	0.01238
7315.50719	1.38801	0.01235
7314.00708	1.38801	0.01232
7312.50697	1.388	0.01229
7311.00686	1.38797	0.01226
7309.50674	1.38793	0.01223
7308.00663	1.3879	0.01222
7306.50652	1.38786	0.01221
7305.00641	1.38781	0.01221
7303.5063	1.38779	0.01222
7302.00619	1.38777	0.01222
7300.50607	1.38774	0.01223
7299.00596	1.38773	0.01223
7297.50585	1.38771	0.01223
7296.00574	1.38769	0.01224
7294.50563	1.38766	0.01224
7293.00551	1.38763	0.01226
7291.5054	1.3876	0.01228
7290.00529	1.38758	0.01231
7288.50518	1.38757	0.01234
7287.00507	1.38756	0.01237
7285.50496	1.38756	0.01241
7284.00484	1.38758	0.01244
7282.50473	1.38762	0.01247
7281.00462	1.38766	0.01248
7279.50451	1.38771	0.01247
7278.0044	1.38775	0.01246
7276.50428	1.38779	0.01242
7275.00417	1.3878	0.01239
7273.50406	1.38782	0.01234
7272.00395	1.38781	0.0123
7270.50384	1.38778	0.01225
7269.00373	1.38774	0.01222
7267.50361	1.38771	0.0122
7266.0035	1.38767	0.01219
7264.50339	1.38764	0.01219
7263.00328	1.38759	0.01219
7261.50317	1.38757	0.01219
7260.00305	1.38755	0.01221
7258.50294	1.38754	0.01224
7257.00283	1.38755	0.01224
7255.50272	1.38757	0.01224
7254.00261	1.38757	0.01223
7252.5025	1.38756	0.0122
7251.00238	1.38755	0.01219
7249.50227	1.38752	0.01218
7248.00216	1.38751	0.01218
7246.50205	1.3875	0.01217
7245.00194	1.38749	0.01215
7243.50182	1.38746	0.01213
7242.00171	1.38741	0.01212
7240.5016	1.38737	0.01213
7239.00149	1.38734	0.01215
7237.50138	1.38732	0.01216
7236.00127	1.38732	0.01218
7234.50115	1.38731	0.01217
7233.00104	1.38728	0.01217
7231.50093	1.38724	0.01218
7230.00082	1.38722	0.01221
7228.50071	1.3872	0.01223
7227.00059	1.3872	0.01225
7225.50048	1.3872	0.01227
7224.00037	1.38719	0.01227
7222.50026	1.38717	0.01229
7221.00015	1.38716	0.01231
7219.50004	1.38715	0.01234
7217.99992	1.38716	0.01236
7216.49981	1.38718	0.01238
7214.9997	1.38721	0.01238
7213.49959	1.38722	0.01237
7211.99948	1.38723	0.01236
7210.49936	1.38723	0.01235
7208.99925	1.38722	0.01234
7207.49914	1.38721	0.01233
7205.99903	1.38718	0.01232
7204.49892	1.38715	0.01232
7202.99881	1.38712	0.01233
7201.49869	1.38709	0.01235
7199.99858	1.38706	0.01238
7198.49847	1.38706	0.01242
7196.99836	1.38707	0.01247
7195.49825	1.3871	0.01249
7193.99813	1.38713	0.01252
7192.49802	1.38717	0.01252
7190.99791	1.3872	0.01252
7189.4978	1.38723	0.01251
7187.99769	1.38726	0.01249
7186.49758	1.38727	0.01247
7184.99746	1.38727	0.01243
7183.49735	1.38726	0.01242
7181.99724	1.38725	0.0124
7180.49713	1.38724	0.01239
7178.99702	1.38724	0.01238
7177.4969	1.38724	0.01238
7175.99679	1.38725	0.01236
7174.49668	1.38726	0.01234
7172.99657	1.38726	0.01231
7171.49646	1.38725	0.01227
7169.99635	1.38722	0.01223
7168.49623	1.38719	0.01219
7166.99612	1.38712	0.01217
7165.49601	1.38706	0.01215
7163.9959	1.38698	0.01215
7162.49579	1.38691	0.01217
7160.99567	1.38683	0.01222
7159.49556	1.38677	0.01228
7157.99545	1.38674	0.01236
7156.49534	1.38674	0.01243
7154.99523	1.38677	0.0125
7153.49512	1.3868	0.01257
7151.995	1.38686	0.01261
7150.49489	1.38693	0.01264
7148.99478	1.38699	0.01264
7147.49467	1.38705	0.01262
7145.99456	1.38708	0.0126
7144.49444	1.3871	0.01256
7142.99433	1.3871	0.01252
7141.49422	1.38709	0.01249
7139.99411	1.38706	0.01248
7138.494	1.38704	0.01247
7136.99389	1.38701	0.01247
7135.49377	1.38699	0.01248
7133.99366	1.38699	0.01251
7132.49355	1.387	0.01252
7130.99344	1.38701	0.01253
7129.49333	1.38703	0.01253
7127.99321	1.38705	0.01252
7126.4931	1.38705	0.01252
7124.99299	1.38706	0.0125
7123.49288	1.38705	0.01248
7121.99277	1.38705	0.01247
7120.49266	1.38702	0.01246
7118.99254	1.387	0.01245
7117.49243	1.38697	0.01247
7115.99232	1.38695	0.01248
7114.49221	1.38694	0.01251
7112.9921	1.38694	0.01254
7111.49198	1.38696	0.01256
7109.99187	1.38699	0.01258
7108.49176	1.38702	0.01259
7106.99165	1.38705	0.01259
7105.49154	1.38707	0.01259
7103.99143	1.38712	0.01257
7102.49131	1.38714	0.01255
7100.9912	1.38717	0.01252
7099.49109	1.38717	0.01249
7097.99098	1.38718	0.01245
7096.49087	1.38716	0.01242
7094.99076	1.38715	0.01239
7093.49064	1.38714	0.01237
7091.99053	1.38713	0.01234
7090.49042	1.3871	0.01231
7088.99031	1.38707	0.0123
7087.4902	1.38704	0.01228
7085.99008	1.38701	0.01228
7084.48997	1.38698	0.01228
7082.98986	1.38695	0.01229
7081.48975	1.38693	0.01229
7079.98964	1.38691	0.01231
7078.48953	1.3869	0.01232
7076.98941	1.3869	0.01233
7075.4893	1.3869	0.01234
7073.98919	1.3869	0.01234
7072.48908	1.3869	0.01234
7070.98897	1.3869	0.01234
7069.48885	1.3869	0.01233
7067.98874	1.38689	0.01232
7066.48863	1.38687	0.01231
7064.98852	1.38685	0.0123
7063.48841	1.38681	0.01231
7061.9883	1.3868	0.01231
7060.48818	1.38677	0.01233
7058.98807	1.38676	0.01233
7057.48796	1.38674	0.01235
7055.98785	1.38672	0.01237
7054.48774	1.38671	0.01238
7052.98762	1.3867	0.0124
7051.48751	1.3867	0.01242
7049.9874	1.3867	0.01245
7048.48729	1.3867	0.01247
7046.98718	1.38671	0.01249
7045.48707	1.38671	0.01251
7043.98695	1.38673	0.01253
7042.48684	1.38675	0.01255
7040.98673	1.38678	0.01256
7039.48662	1.38681	0.01256
7037.98651	1.38684	0.01255
7036.48639	1.38687	0.01253
7034.98628	1.38687	0.01251
7033.48617	1.38688	0.01249
7031.98606	1.38687	0.01247
7030.48595	1.38686	0.01245
7028.98584	1.38684	0.01244
7027.48572	1.38683	0.01243
7025.98561	1.38681	0.01243
7024.4855	1.38679	0.01243
7022.98539	1.38676	0.01244
7021.48528	1.38675	0.01245
7019.98516	1.38675	0.01247
7018.48505	1.38675	0.01248
7016.98494	1.38675	0.0125
7015.48483	1.38675	0.01252
7013.98472	1.38676	0.01252
7012.48461	1.38676	0.01254
7010.98449	1.38676	0.01255
7009.48438	1.38678	0.01258
7007.98427	1.38679	0.01259
7006.48416	1.38682	0.01261
7004.98405	1.38685	0.01262
7003.48393	1.38689	0.01262
7001.98382	1.38693	0.01262
7000.48371	1.38696	0.0126
6998.9836	1.387	0.01258
6997.48349	1.38703	0.01254
6995.98338	1.38706	0.0125
6994.48326	1.38706	0.01245
6992.98315	1.38705	0.0124
6991.48304	1.38702	0.01237
6989.98293	1.38699	0.01234
6988.48282	1.38696	0.01232
6986.9827	1.38693	0.01232
6985.48259	1.3869	0.01232
6983.98248	1.38687	0.01233
6982.48237	1.38686	0.01235
6980.98226	1.38686	0.01236
6979.48215	1.38686	0.01237
6977.98203	1.38687	0.01238
6976.48192	1.38689	0.01238
6974.98181	1.38691	0.01237
6973.4817	1.38692	0.01237
6971.98159	1.38693	0.01235
6970.48147	1.38693	0.01234
6968.98136	1.38693	0.01233
6967.48125	1.38692	0.01232
6965.98114	1.38692	0.01231
6964.48103	1.38692	0.01231
6962.98092	1.38693	0.01229
6961.4808	1.38694	0.01229
6959.98069	1.38694	0.01226
6958.48058	1.38694	0.01224
6956.98047	1.38694	0.01222
6955.48036	1.38692	0.0122
6953.98024	1.38691	0.01219
6952.48013	1.38689	0.01217
6950.98002	1.38687	0.01215
6949.47991	1.38684	0.01214
6947.9798	1.38681	0.01214
6946.47969	1.38677	0.01215
6944.97957	1.38675	0.01218
6943.47946	1.38674	0.0122
6941.97935	1.38675	0.01223
6940.47924	1.38676	0.01225
6938.97913	1.38678	0.01227
6937.47901	1.3868	0.01229
6935.9789	1.38683	0.01229
6934.47879	1.38688	0.01229
6932.97868	1.38692	0.01227
6931.47857	1.38696	0.01224
6929.97846	1.38698	0.01219
6928.47834	1.38698	0.01215
6926.97823	1.38697	0.01211
6925.47812	1.38696	0.01207
6923.97801	1.38693	0.01204
6922.4779	1.3869	0.01202
6920.97778	1.38688	0.012
6919.47767	1.38685	0.012
6917.97756	1.38683	0.012
6916.47745	1.38682	0.012
6914.97734	1.38682	0.01201
6913.47723	1.38683	0.01201
6911.97711	1.38684	0.012
6910.477	1.38685	0.01199
6908.97689	1.38687	0.01196
6907.47678	1.38687	0.01193
6905.97667	1.38686	0.0119
6904.47656	1.38684	0.01187
6902.97644	1.38684	0.01185
6901.47633	1.38681	0.01182
6899.97622	1.38679	0.0118
6898.47611	1.38677	0.01177
6896.976	1.38674	0.01176
6895.47588	1.3867	0.01174
6893.97577	1.38668	0.01173
6892.47566	1.38665	0.01173
6890.97555	1.38663	0.01172
6889.47544	1.38661	0.01172
6887.97533	1.38658	0.01171
6886.47521	1.38655	0.01171
6884.9751	1.38653	0.0117
6883.47499	1.3865	0.01171
6881.97488	1.38648	0.01171
6880.47477	1.38646	0.01171
6878.97465	1.38644	0.01171
6877.47454	1.38642	0.01172
6875.97443	1.38639	0.01172
6874.47432	1.38637	0.01172
6872.97421	1.38635	0.01173
6871.4741	1.38632	0.01174
6869.97398	1.3863	0.01175
6868.47387	1.38628	0.01177
6866.97376	1.38625	0.0118
6865.47365	1.38624	0.01182
6863.97354	1.38624	0.01185
6862.47342	1.38624	0.01187
6860.97331	1.38625	0.0119
6859.4732	1.38625	0.01191
6857.97309	1.38627	0.01193
6856.47298	1.38628	0.01194
6854.97287	1.38631	0.01194
6853.47275	1.38633	0.01193
6851.97264	1.38634	0.01192
6850.47253	1.38633	0.0119
6848.97242	1.38633	0.0119
6847.47231	1.38632	0.01189
6845.97219	1.38632	0.01189
6844.47208	1.38632	0.01189
6842.97197	1.3863	0.01188
6841.47186	1.3863	0.01188
6839.97175	1.38628	0.01188
6838.47164	1.38628	0.01189
6836.97152	1.38629	0.0119
6835.47141	1.3863	0.0119
6833.9713	1.38631	0.01189
6832.47119	1.38631	0.01189
6830.97108	1.38631	0.01188
6829.47096	1.38631	0.01187
6827.97085	1.38631	0.01186
6826.47074	1.38631	0.01185
6824.97063	1.38631	0.01184
6823.47052	1.3863	0.01183
6821.97041	1.3863	0.01182
6820.47029	1.38629	0.01181
6818.97018	1.38629	0.01181
6817.47007	1.38628	0.01179
6815.96996	1.38627	0.01179
6814.46985	1.38626	0.01177
6812.96973	1.38623	0.01176
6811.46962	1.38622	0.01176
6809.96951	1.3862	0.01176
6808.4694	1.38619	0.01176
6806.96929	1.38616	0.01177
6805.46918	1.38614	0.01177
6803.96906	1.38612	0.01179
6802.46895	1.38611	0.01181
6800.96884	1.38611	0.01184
6799.46873	1.38612	0.01186
6797.96862	1.38613	0.01187
6796.4685	1.38614	0.01188
6794.96839	1.38616	0.01189
6793.46828	1.38619	0.0119
6791.96817	1.38621	0.0119
6790.46806	1.38624	0.01189
6788.96795	1.38627	0.01188
6787.46783	1.38628	0.01186
6785.96772	1.3863	0.01183
6784.46761	1.38631	0.01181
6782.9675	1.38632	0.01178
6781.46739	1.38632	0.01174
6779.96727	1.38632	0.01171
6778.46716	1.38631	0.01168
6776.96705	1.38628	0.01166
6775.46694	1.38627	0.01163
6773.96683	1.38624	0.01162
6772.46672	1.38622	0.01161
6770.9666	1.38621	0.0116
6769.46649	1.38619	0.01159
6767.96638	1.38617	0.01159
6766.46627	1.38616	0.01158
6764.96616	1.38615	0.01158
6763.46604	1.38614	0.01158
6761.96593	1.38614	0.01158
6760.46582	1.38613	0.01157
6758.96571	1.38612	0.01156
6757.4656	1.38611	0.01155
6755.96549	1.3861	0.01155
6754.46537	1.3861	0.01155
6752.96526	1.3861	0.01154
6751.46515	1.3861	0.01153
6749.96504	1.3861	0.01151
6748.46493	1.3861	0.01149
6746.96481	1.38609	0.01147
6745.4647	1.38608	0.01145
6743.96459	1.38607	0.01144
6742.46448	1.38606	0.01141
6740.96437	1.38603	0.01137
6739.46426	1.38599	0.01135
6737.96414	1.38596	0.01134
6736.46403	1.38592	0.01133
6734.96392	1.38588	0.01133
6733.46381	1.38585	0.01133
6731.9637	1.38582	0.01134
6730.46358	1.38578	0.01135
6728.96347	1.38574	0.01137
6727.46336	1.38573	0.01139
6725.96325	1.38572	0.01141
6724.46314	1.38571	0.01142
6722.96303	1.3857	0.01143
6721.46291	1.38569	0.01144
6719.9628	1.38568	0.01146
6718.46269	1.38568	0.01147
6716.96258	1.38568	0.01148
6715.46247	1.38567	0.01148
6713.96236	1.38567	0.01148
6712.46224	1.38565	0.01149
6710.96213	1.38565	0.0115
6709.46202	1.38564	0.01151
6707.96191	1.38563	0.01153
6706.4618	1.38563	0.01153
6704.96168	1.38563	0.01155
6703.46157	1.38563	0.01156
6701.96146	1.38564	0.01158
6700.46135	1.38566	0.01159
6698.96124	1.38568	0.01159
6697.46113	1.3857	0.01159
6695.96101	1.38573	0.01157
6694.4609	1.38574	0.01156
6692.96079	1.38575	0.01153
6691.46068	1.38575	0.0115
6689.96057	1.38574	0.01148
6688.46045	1.38572	0.01144
6686.96034	1.3857	0.01143
6685.46023	1.38567	0.01141
6683.96012	1.38564	0.0114
6682.46001	1.3856	0.0114
6680.9599	1.38557	0.01142
6679.45978	1.38555	0.01143
6677.95967	1.38553	0.01145
6676.45956	1.38553	0.01147
6674.95945	1.38553	0.01148
6673.45934	1.38553	0.01149
6671.95922	1.38553	0.01151
6670.45911	1.38553	0.01152
6668.959	1.38555	0.01153
6667.45889	1.38557	0.01153
6665.95878	1.38558	0.01153
6664.45867	1.38558	0.01152
6662.95855	1.38558	0.01151
6661.45844	1.38559	0.01151
6659.95833	1.38559	0.01151
6658.45822	1.38561	0.01151
6656.95811	1.38562	0.0115
6655.45799	1.38564	0.01148
6653.95788	1.38564	0.01146
6652.45777	1.38565	0.01145
6650.95766	1.38566	0.01143
6649.45755	1.38566	0.01141
6647.95744	1.38566	0.01138
6646.45732	1.38565	0.01134
6644.95721	1.38563	0.01131
6643.4571	1.38561	0.01128
6641.95699	1.38557	0.01126
6640.45688	1.38553	0.01124
6638.95676	1.3855	0.01124
6637.45665	1.38546	0.01124
6635.95654	1.38543	0.01125
6634.45643	1.3854	0.01127
6632.95632	1.38537	0.01129
6631.45621	1.38535	0.01132
6629.95609	1.38535	0.01134
6628.45598	1.38536	0.01137
6626.95587	1.38537	0.01139
6625.45576	1.3854	0.01139
6623.95565	1.38542	0.01139
6622.45553	1.38544	0.01139
6620.95542	1.38545	0.01137
6619.45531	1.38545	0.01136
6617.9552	1.38546	0.01135
6616.45509	1.38546	0.01134
6614.95498	1.38545	0.01132
6613.45486	1.38544	0.01132
6611.95475	1.38544	0.0113
6610.45464	1.38543	0.0113
6608.95453	1.38544	0.0113
6607.45442	1.38544	0.0113
6605.9543	1.38545	0.01129
6604.45419	1.38546	0.01128
6602.95408	1.38547	0.01127
6601.45397	1.38548	0.01125
6599.95386	1.3855	0.01122
6598.45375	1.3855	0.0112
6596.95363	1.3855	0.01116
6595.45352	1.3855	0.01113
6593.95341	1.38549	0.01109
6592.4533	1.38547	0.01105
6590.95319	1.38544	0.01101
6589.45307	1.38541	0.01097
6587.95296	1.38536	0.01095
6586.45285	1.38531	0.01094
6584.95274	1.38527	0.01094
6583.45263	1.38523	0.01095
6581.95252	1.38519	0.01095
6580.4524	1.38516	0.01097
6578.95229	1.38514	0.01098
6577.45218	1.38513	0.011
6575.95207	1.38513	0.01101
6574.45196	1.38513	0.01102
6572.95184	1.38514	0.01102
6571.45173	1.38513	0.01101
6569.95162	1.38513	0.011
6568.45151	1.38512	0.011
6566.9514	1.38511	0.01098
6565.45129	1.38509	0.01097
6563.95117	1.38507	0.01096
6562.45106	1.38504	0.01096
6560.95095	1.38502	0.01096
6559.45084	1.385	0.01097
6557.95073	1.38499	0.01097
6556.45061	1.38497	0.01098
6554.9505	1.38496	0.01099
6553.45039	1.38495	0.011
6551.95028	1.38494	0.01101
6550.45017	1.38495	0.01102
6548.95006	1.38495	0.01102
6547.44994	1.38496	0.01102
6545.94983	1.38496	0.01101
6544.44972	1.38497	0.01101
6542.94961	1.38497	0.01099
6541.4495	1.38497	0.01098
6539.94938	1.38495	0.01095
6538.44927	1.38494	0.01094
6536.94916	1.38491	0.01093
6535.44905	1.38489	0.01092
6533.94894	1.38486	0.01092
6532.44883	1.38484	0.01092
6530.94871	1.38481	0.01092
6529.4486	1.38479	0.01094
6527.94849	1.38479	0.01095
6526.44838	1.38478	0.01096
6524.94827	1.38477	0.01097
6523.44816	1.38477	0.01099
6521.94804	1.38477	0.01099
6520.44793	1.38478	0.01101
6518.94782	1.38481	0.01101
6517.44771	1.38482	0.01099
6515.9476	1.38483	0.01097
6514.44748	1.38483	0.01096
6512.94737	1.38483	0.01094
6511.44726	1.38483	0.01092
6509.94715	1.38483	0.01089
6508.44704	1.38481	0.01087
6506.94693	1.38478	0.01085
6505.44681	1.38473	0.01084
6503.9467	1.3847	0.01084
6502.44659	1.38468	0.01085
6500.94648	1.38467	0.01086
6499.44637	1.38465	0.01087
6497.94625	1.38465	0.01087
6496.44614	1.38464	0.01089
6494.94603	1.38464	0.01089
6493.44592	1.38466	0.0109
6491.94581	1.38468	0.0109
6490.4457	1.38469	0.01088
6488.94558	1.38469	0.01086
6487.44547	1.38469	0.01084
6485.94536	1.38468	0.01081
6484.44525	1.38466	0.01079
6482.94514	1.38464	0.01076
6481.44502	1.38461	0.01075
6479.94491	1.38458	0.01073
6478.4448	1.38455	0.01072
6476.94469	1.38452	0.01073
6475.44458	1.38448	0.01074
6473.94447	1.38446	0.01075
6472.44435	1.38443	0.01077
6470.94424	1.38443	0.01078
6469.44413	1.38443	0.01081
6467.94402	1.38443	0.01081
6466.44391	1.38444	0.01082
6464.94379	1.38446	0.01082
6463.44368	1.38447	0.01082
6461.94357	1.38448	0.01081
6460.44346	1.38449	0.01079
6458.94335	1.38449	0.01077
6457.44324	1.38449	0.01075
6455.94312	1.38447	0.01072
6454.44301	1.38446	0.0107
6452.9429	1.38444	0.01068
6451.44279	1.38442	0.01066
6449.94268	1.3844	0.01066
6448.44256	1.38438	0.01064
6446.94245	1.38437	0.01063
6445.44234	1.38434	0.01061
6443.94223	1.38431	0.0106
6442.44212	1.38428	0.01059
6440.94201	1.38425	0.01059
6439.44189	1.38422	0.01058
6437.94178	1.38418	0.01059
6436.44167	1.38415	0.0106
6434.94156	1.38412	0.01061
6433.44145	1.3841	0.01062
6431.94133	1.38407	0.01064
6430.44122	1.38406	0.01066
6428.94111	1.38404	0.01068
6427.441	1.38403	0.01071
6425.94089	1.38404	0.01072
6424.44078	1.38404	0.01073
6422.94066	1.38404	0.01074
6421.44055	1.38404	0.01075
6419.94044	1.38404	0.01075
6418.44033	1.38404	0.01075
6416.94022	1.38404	0.01076
6415.4401	1.38404	0.01076
6413.93999	1.38404	0.01076
6412.43988	1.38403	0.01076
6410.93977	1.38402	0.01077
6409.43966	1.38402	0.01077
6407.93955	1.38402	0.01078
6406.43943	1.38403	0.01079
6404.93932	1.38404	0.01079
6403.43921	1.38405	0.0108
6401.9391	1.38408	0.01079
6400.43899	1.38411	0.01078
6398.93887	1.38413	0.01075
6397.43876	1.38414	0.01072
6395.93865	1.38414	0.01068
6394.43854	1.38414	0.01065
6392.93843	1.38413	0.0106
6391.43832	1.3841	0.01057
6389.9382	1.38407	0.01053
6388.43809	1.38403	0.0105
6386.93798	1.38399	0.01047
6385.43787	1.38393	0.01046
6383.93776	1.38388	0.01046
6382.43764	1.38383	0.01047
6380.93753	1.38378	0.01049
6379.43742	1.38374	0.0105
6377.93731	1.3837	0.01054
6376.4372	1.38368	0.01057
6374.93709	1.38365	0.0106
6373.43697	1.38363	0.01064
6371.93686	1.38364	0.01069
6370.43675	1.38366	0.01073
6368.93664	1.3837	0.01076
6367.43653	1.38373	0.01077
6365.93641	1.38376	0.01077
6364.4363	1.3838	0.01076
6362.93619	1.38382	0.01076
6361.43608	1.38385	0.01074
6359.93597	1.38388	0.01071
6358.43586	1.38389	0.01068
6356.93574	1.38389	0.01064
6355.43563	1.38389	0.01061
6353.93552	1.38387	0.01056
6352.43541	1.38386	0.01055
6350.9353	1.38383	0.01052
6349.43518	1.38382	0.0105
6347.93507	1.3838	0.01047
6346.43496	1.38377	0.01045
6344.93485	1.38374	0.01043
6343.43474	1.3837	0.01041
6341.93463	1.38367	0.01041
6340.43451	1.38364	0.01041
6338.9344	1.3836	0.01041
6337.43429	1.38357	0.01041
6335.93418	1.38354	0.01042
6334.43407	1.38352	0.01042
6332.93395	1.38349	0.01043
6331.43384	1.38347	0.01045
6329.93373	1.38345	0.01047
6328.43362	1.38344	0.01048
6326.93351	1.38344	0.0105
6325.4334	1.38344	0.01051
6323.93328	1.38343	0.01051
6322.43317	1.38342	0.01052
6320.93306	1.38341	0.01053
6319.43295	1.38341	0.01054
6317.93284	1.38341	0.01055
6316.43273	1.38342	0.01055
6314.93261	1.38342	0.01055
6313.4325	1.38341	0.01054
6311.93239	1.38341	0.01055
6310.43228	1.38341	0.01055
6308.93217	1.38341	0.01055
6307.43205	1.38342	0.01055
6305.93194	1.38342	0.01055
6304.43183	1.38342	0.01053
6302.93172	1.38342	0.01052
6301.43161	1.38342	0.01052
6299.9315	1.38342	0.0105
6298.43138	1.38342	0.01049
6296.93127	1.3834	0.01047
6295.43116	1.38339	0.01046
6293.93105	1.38337	0.01044
6292.43094	1.38335	0.01044
6290.93082	1.38333	0.01043
6289.43071	1.38331	0.01043
6287.9306	1.3833	0.01043
6286.43049	1.38327	0.01043
6284.93038	1.38325	0.01044
6283.43027	1.38324	0.01046
6281.93015	1.38324	0.01047
6280.43004	1.38324	0.01048
6278.92993	1.38325	0.01048
6277.42982	1.38325	0.01048
6275.92971	1.38326	0.01048
6274.42959	1.38326	0.01048
6272.92948	1.38327	0.01048
6271.42937	1.38328	0.01047
6269.92926	1.38329	0.01045
6268.42915	1.38329	0.01044
6266.92904	1.38329	0.01042
6265.42892	1.38329	0.01041
6263.92881	1.38328	0.01039
6262.4287	1.38328	0.01037
6260.92859	1.38328	0.01036
6259.42848	1.38327	0.01032
6257.92836	1.38327	0.0103
6256.42825	1.38324	0.01028
6254.92814	1.38322	0.01027
6253.42803	1.3832	0.01025
6251.92792	1.38318	0.01023
6250.42781	1.38316	0.01023
6248.92769	1.38313	0.01022
6247.42758	1.38311	0.01021
6245.92747	1.38308	0.01021
6244.42736	1.38307	0.01021
6242.92725	1.38305	0.01021
6241.42713	1.38304	0.01022
6239.92702	1.38303	0.01022
6238.42691	1.38301	0.01022
6236.9268	1.38301	0.01022
6235.42669	1.383	0.01022
6233.92658	1.383	0.01022
6232.42646	1.38301	0.01021
6230.92635	1.383	0.01021
6229.42624	1.383	0.01019
6227.92613	1.383	0.01019
6226.42602	1.383	0.01017
6224.9259	1.383	0.01014
6223.42579	1.383	0.01012
6221.92568	1.38298	0.01008
6220.42557	1.38296	0.01005
6218.92546	1.38292	0.01002
6217.42535	1.38288	0.01001
6215.92523	1.38284	0.01
6214.42512	1.3828	0.00999
6212.92501	1.38276	0.00999
6211.4249	1.38271	0.01
6209.92479	1.38267	0.01002
6208.42467	1.38264	0.01004
6206.92456	1.38263	0.01007
6205.42445	1.38262	0.0101
6203.92434	1.38263	0.01011
6202.42423	1.38264	0.01013
6200.92412	1.38264	0.01013
6199.424	1.38266	0.01013
6197.92389	1.38268	0.01013
6196.42378	1.38268	0.01011
6194.92367	1.38268	0.01008
6193.42356	1.38267	0.01007
6191.92344	1.38265	0.01005
6190.42333	1.38264	0.01004
6188.92322	1.38262	0.01002
6187.42311	1.38261	0.01001
6185.923	1.38258	0.00999
6184.42289	1.38256	0.00998
6182.92277	1.38255	0.00998
6181.42266	1.38253	0.00997
6179.92255	1.38251	0.00996
6178.42244	1.38249	0.00994
6176.92233	1.38245	0.00994
6175.42221	1.38241	0.00994
6173.9221	1.38238	0.00995
6172.42199	1.38235	0.00996
6170.92188	1.38232	0.00998
6169.42177	1.3823	0.01
6167.92166	1.3823	0.01003
6166.42154	1.3823	0.01006
6164.92143	1.38233	0.01008
6163.42132	1.38235	0.01008
6161.92121	1.38238	0.01007
6160.4211	1.38239	0.01006
6158.92098	1.3824	0.01003
6157.42087	1.38241	0.01
6155.92076	1.38241	0.00997
6154.42065	1.38239	0.00993
6152.92054	1.38237	0.0099
6151.42043	1.38233	0.00987
6149.92031	1.38229	0.00986
6148.4202	1.38225	0.00985
6146.92009	1.38221	0.00985
6145.41998	1.38218	0.00985
6143.91987	1.38215	0.00986
6142.41975	1.38212	0.00986
6140.91964	1.3821	0.00988
6139.41953	1.38208	0.00988
6137.91942	1.38206	0.00989
6136.41931	1.38205	0.0099
6134.9192	1.38203	0.00991
6133.41908	1.38202	0.00992
6131.91897	1.38201	0.00993
6130.41886	1.38201	0.00994
6128.91875	1.38199	0.00994
6127.41864	1.38197	0.00995
6125.91853	1.38197	0.00996
6124.41841	1.38196	0.00998
6122.9183	1.38197	0.00999
6121.41819	1.38199	0.01
6119.91808	1.382	0.01
6118.41797	1.38201	0.00999
6116.91785	1.38202	0.00998
6115.41774	1.38202	0.00997
6113.91763	1.38204	0.00995
6112.41752	1.38204	0.00994
6110.91741	1.38203	0.0099
6109.4173	1.38202	0.00987
6107.91718	1.38199	0.00985
6106.41707	1.38197	0.00984
6104.91696	1.38194	0.00982
6103.41685	1.38191	0.00982
6101.91674	1.38189	0.00981
6100.41662	1.38187	0.00981
6098.91651	1.38185	0.00981
6097.4164	1.38182	0.00982
6095.91629	1.3818	0.00983
6094.41618	1.38179	0.00984
6092.91607	1.3818	0.00985
6091.41595	1.3818	0.00985
6089.91584	1.38181	0.00984
6088.41573	1.38181	0.00984
6086.91562	1.38181	0.00983
6085.41551	1.38181	0.00982
6083.91539	1.38181	0.00981
6082.41528	1.38181	0.00979
6080.91517	1.3818	0.00976
6079.41506	1.38178	0.00975
6077.91495	1.38176	0.00973
6076.41484	1.38174	0.00972
6074.91472	1.38173	0.00972
6073.41461	1.38173	0.0097
6071.9145	1.38172	0.00969
6070.41439	1.3817	0.00967
6068.91428	1.38169	0.00965
6067.41416	1.38167	0.00963
6065.91405	1.38166	0.00962
6064.41394	1.38164	0.00959
6062.91383	1.38161	0.00956
6061.41372	1.38157	0.00955
6059.91361	1.38153	0.00954
6058.41349	1.38148	0.00953
6056.91338	1.38144	0.00953
6055.41327	1.38141	0.00954
6053.91316	1.38137	0.00955
6052.41305	1.38133	0.00956
6050.91293	1.38132	0.00959
6049.41282	1.3813	0.00961
6047.91271	1.38129	0.00962
6046.4126	1.38129	0.00964
6044.91249	1.38129	0.00965
6043.41238	1.38129	0.00966
6041.91226	1.38129	0.00966
6040.41215	1.38129	0.00966
6038.91204	1.38129	0.00965
6037.41193	1.38128	0.00964
6035.91182	1.38128	0.00964
6034.4117	1.38126	0.00964
6032.91159	1.38125	0.00964
6031.41148	1.38125	0.00964
6029.91137	1.38125	0.00964
6028.41126	1.38125	0.00963
6026.91115	1.38126	0.00962
6025.41103	1.38127	0.00961
6023.91092	1.38127	0.00958
6022.41081	1.38128	0.00956
6020.9107	1.38127	0.00952
6019.41059	1.38125	0.00948
6017.91047	1.38122	0.00945
6016.41036	1.38118	0.00941
6014.91025	1.38113	0.0094
6013.41014	1.38108	0.00939
6011.91003	1.38104	0.00939
6010.40992	1.38099	0.0094
6008.9098	1.38096	0.00941
6007.40969	1.38093	0.00942
6005.90958	1.38092	0.00944
6004.40947	1.38091	0.00945
6002.90936	1.3809	0.00946
6001.40924	1.3809	0.00946
5999.90913	1.38089	0.00946
5998.40902	1.38089	0.00944
5996.90891	1.38087	0.00944
5995.4088	1.38085	0.00942
5993.90869	1.38083	0.00942
5992.40857	1.3808	0.00941
5990.90846	1.38078	0.00941
5989.40835	1.38074	0.00941
5987.90824	1.38072	0.00941
5986.40813	1.38069	0.00942
5984.90801	1.38066	0.00943
5983.4079	1.38065	0.00945
5981.90779	1.38063	0.00947
5980.40768	1.38063	0.00948
5978.90757	1.38063	0.0095
5977.40746	1.38063	0.0095
5975.90734	1.38063	0.0095
5974.40723	1.38063	0.0095
5972.90712	1.38064	0.0095
5971.40701	1.38064	0.0095
5969.9069	1.38065	0.00948
5968.40678	1.38064	0.00946
5966.90667	1.38063	0.00944
5965.40656	1.3806	0.00943
5963.90645	1.38058	0.00942
5962.40634	1.38056	0.00942
5960.90623	1.38055	0.00941
5959.40611	1.38052	0.00941
5957.906	1.3805	0.0094
5956.40589	1.38048	0.00941
5954.90578	1.38046	0.00942
5953.40567	1.38046	0.00943
5951.90555	1.38046	0.00943
5950.40544	1.38045	0.00943
5948.90533	1.38045	0.00943
5947.40522	1.38044	0.00943
5945.90511	1.38044	0.00943
5944.405	1.38044	0.00943
5942.90488	1.38045	0.00943
5941.40477	1.38046	0.00941
5939.90466	1.38046	0.0094
5938.40455	1.38047	0.00938
5936.90444	1.38047	0.00937
5935.40433	1.38048	0.00933
5933.90421	1.38048	0.0093
5932.4041	1.38048	0.00927
5930.90399	1.38047	0.00923
5929.40388	1.38045	0.00918
5927.90377	1.38042	0.00913
5926.40365	1.38038	0.0091
5924.90354	1.38032	0.00907
5923.40343	1.38027	0.00904
5921.90332	1.38021	0.00902
5920.40321	1.38015	0.00902
5918.9031	1.38007	0.00902
5917.40298	1.38002	0.00903
5915.90287	1.37997	0.00906
5914.40276	1.37993	0.00909
5912.90265	1.37991	0.00912
5911.40254	1.37988	0.00915
5909.90242	1.37988	0.00917
5908.40231	1.37987	0.00921
5906.9022	1.37987	0.00922
5905.40209	1.37988	0.00924
5903.90198	1.37989	0.00925
5902.40187	1.37991	0.00925
5900.90175	1.37991	0.00923
5899.40164	1.37991	0.00922
5897.90153	1.3799	0.00921
5896.40142	1.3799	0.00921
5894.90131	1.37989	0.00919
5893.40119	1.37989	0.00918
5891.90108	1.37988	0.00916
5890.40097	1.37987	0.00915
5888.90086	1.37985	0.00913
5887.40075	1.37983	0.00911
5885.90064	1.37983	0.0091
5884.40052	1.37981	0.00908
5882.90041	1.3798	0.00906
5881.4003	1.37977	0.00903
5879.90019	1.37974	0.00902
5878.40008	1.3797	0.009
5876.89996	1.37967	0.00899
5875.39985	1.37963	0.00898
5873.89974	1.3796	0.00898
5872.39963	1.37957	0.00898
5870.89952	1.37954	0.00898
5869.39941	1.3795	0.00898
5867.89929	1.37946	0.00899
5866.39918	1.37944	0.009
5864.89907	1.37942	0.00902
5863.39896	1.37939	0.00902
5861.89885	1.37938	0.00904
5860.39873	1.37936	0.00905
5858.89862	1.37935	0.00906
5857.39851	1.37934	0.00908
5855.8984	1.37934	0.00908
5854.39829	1.37935	0.00908
5852.89818	1.37936	0.00908
5851.39806	1.37936	0.00907
5849.89795	1.37935	0.00906
5848.39784	1.37934	0.00904
5846.89773	1.37932	0.00902
5845.39762	1.37931	0.00901
5843.8975	1.37929	0.00899
5842.39739	1.37926	0.00898
5840.89728	1.37923	0.00897
5839.39717	1.37921	0.00897
5837.89706	1.37918	0.00897
5836.39695	1.37917	0.00897
5834.89683	1.37915	0.00897
5833.39672	1.37914	0.00897
5831.89661	1.37913	0.00896
5830.3965	1.37912	0.00895
5828.89639	1.37911	0.00894
5827.39627	1.37909	0.00893
5825.89616	1.37907	0.00892
5824.39605	1.37905	0.00891
5822.89594	1.37903	0.00889
5821.39583	1.379	0.00889
5819.89572	1.37897	0.00888
5818.3956	1.37895	0.00887
5816.89549	1.37892	0.00887
5815.39538	1.37889	0.00887
5813.89527	1.37887	0.00887
5812.39516	1.37885	0.00888
5810.89504	1.37883	0.00888
5809.39493	1.37883	0.00888
5807.89482	1.37881	0.00887
5806.39471	1.37879	0.00886
5804.8946	1.37878	0.00886
5803.39449	1.37875	0.00885
5801.89437	1.37873	0.00884
5800.39426	1.37871	0.00883
5798.89415	1.37869	0.00883
5797.39404	1.37866	0.00882
5795.89393	1.37863	0.00881
5794.39381	1.37861	0.00881
5792.8937	1.37858	0.00881
5791.39359	1.37856	0.00881
5789.89348	1.37853	0.00881
5788.39337	1.37851	0.00881
5786.89326	1.37849	0.00882
5785.39314	1.37848	0.00882
5783.89303	1.37846	0.00881
5782.39292	1.37844	0.0088
5780.89281	1.37842	0.0088
5779.3927	1.37839	0.00879
5777.89258	1.37836	0.00879
5776.39247	1.37833	0.00879
5774.89236	1.37829	0.00879
5773.39225	1.37826	0.0088
5771.89214	1.37823	0.00881
5770.39203	1.3782	0.00884
5768.89191	1.37818	0.00886
5767.3918	1.37817	0.00889
5765.89169	1.37818	0.00891
5764.39158	1.37819	0.00891
5762.89147	1.3782	0.00892
5761.39135	1.37821	0.00891
5759.89124	1.37822	0.0089
5758.39113	1.37822	0.00889
5756.89102	1.37822	0.00887
5755.39091	1.37822	0.00884
5753.8908	1.3782	0.00882
5752.39068	1.37818	0.00879
5750.89057	1.37816	0.00878
5749.39046	1.37813	0.00876
5747.89035	1.3781	0.00875
5746.39024	1.37808	0.00873
5744.89013	1.37806	0.00872
5743.39001	1.37804	0.0087
5741.8899	1.378	0.00868
5740.38979	1.37797	0.00866
5738.88968	1.37793	0.00865
5737.38957	1.37789	0.00865
5735.88945	1.37785	0.00864
5734.38934	1.37781	0.00865
5732.88923	1.37777	0.00865
5731.38912	1.37773	0.00865
5729.88901	1.3777	0.00866
5728.3889	1.37767	0.00868
5726.88878	1.37765	0.00869
5725.38867	1.37763	0.0087
5723.88856	1.37761	0.0087
5722.38845	1.37759	0.0087
5720.88834	1.37756	0.0087
5719.38822	1.37753	0.0087
5717.88811	1.37751	0.00871
5716.388	1.37748	0.00872
5714.88789	1.37745	0.00873
5713.38778	1.37742	0.00874
5711.88767	1.3774	0.00876
5710.38755	1.37738	0.00877
5708.88744	1.37736	0.0088
5707.38733	1.37735	0.00881
5705.88722	1.37735	0.00883
5704.38711	1.37735	0.00884
5702.88699	1.37736	0.00885
5701.38688	1.37736	0.00884
5699.88677	1.37736	0.00884
5698.38666	1.37735	0.00883
5696.88655	1.37734	0.00882
5695.38644	1.37733	0.00881
5693.88632	1.37732	0.0088
5692.38621	1.3773	0.00879
5690.8861	1.37728	0.00878
5689.38599	1.37725	0.00877
5687.88588	1.37722	0.00876
5686.38576	1.3772	0.00876
5684.88565	1.37717	0.00876
5683.38554	1.37716	0.00876
5681.88543	1.37713	0.00876
5680.38532	1.37711	0.00877
5678.88521	1.37708	0.00877
5677.38509	1.37707	0.00878
5675.88498	1.37705	0.00879
5674.38487	1.37703	0.0088
5672.88476	1.37703	0.0088
5671.38465	1.37702	0.0088
5669.88453	1.37702	0.0088
5668.38442	1.37701	0.0088
5666.88431	1.37701	0.00879
5665.3842	1.377	0.00878
5663.88409	1.37699	0.00877
5662.38398	1.37697	0.00875
5660.88386	1.37694	0.00873
5659.38375	1.37692	0.00873
5657.88364	1.37689	0.00871
5656.38353	1.37687	0.00871
5654.88342	1.37683	0.00871
5653.3833	1.3768	0.00871
5651.88319	1.37678	0.00872
5650.38308	1.37676	0.00872
5648.88297	1.37674	0.00873
5647.38286	1.37672	0.00873
5645.88275	1.37671	0.00873
5644.38263	1.3767	0.00873
5642.88252	1.37669	0.00873
5641.38241	1.37668	0.00872
5639.8823	1.37667	0.00871
5638.38219	1.37664	0.0087
5636.88207	1.37662	0.00869
5635.38196	1.37659	0.00868
5633.88185	1.37656	0.00868
5632.38174	1.37654	0.00868
5630.88163	1.37651	0.00868
5629.38152	1.37649	0.00868
5627.8814	1.37645	0.00869
5626.38129	1.37644	0.00869
5624.88118	1.37642	0.0087
5623.38107	1.37641	0.0087
5621.88096	1.37639	0.00871
5620.38084	1.37637	0.00871
5618.88073	1.37636	0.00871
5617.38062	1.37634	0.0087
5615.88051	1.37633	0.0087
5614.3804	1.3763	0.0087
5612.88029	1.37629	0.0087
5611.38017	1.37628	0.00871
5609.88006	1.37627	0.00871
5608.37995	1.37625	0.0087
5606.87984	1.37623	0.0087
5605.37973	1.37622	0.0087
5603.87961	1.37621	0.0087
5602.3795	1.37621	0.0087
5600.87939	1.3762	0.00868
5599.37928	1.3762	0.00867
5597.87917	1.37618	0.00865
5596.37906	1.37617	0.00863
5594.87894	1.37615	0.0086
5593.37883	1.37612	0.00857
5591.87872	1.37609	0.00855
5590.37861	1.37604	0.00852
5588.8785	1.37598	0.0085
5587.37838	1.37593	0.00849
5585.87827	1.37586	0.00849
5584.37816	1.3758	0.00851
5582.87805	1.37574	0.00853
5581.37794	1.37569	0.00856
5579.87783	1.37564	0.0086
5578.37771	1.37561	0.00863
5576.8776	1.37558	0.00868
5575.37749	1.37557	0.00872
5573.87738	1.37557	0.00876
5572.37727	1.37558	0.0088
5570.87715	1.37559	0.00883
5569.37704	1.3756	0.00885
5567.87693	1.37563	0.00887
5566.37682	1.37565	0.00887
5564.87671	1.37568	0.00887
5563.3766	1.3757	0.00885
5561.87648	1.37571	0.00884
5560.37637	1.37572	0.00881
5558.87626	1.37573	0.00878
5557.37615	1.37572	0.00875
5555.87604	1.37571	0.00872
5554.37592	1.37568	0.00869
5552.87581	1.37565	0.00867
5551.3757	1.37561	0.00866
5549.87559	1.37558	0.00865
5548.37548	1.37556	0.00864
5546.87537	1.37552	0.00863
5545.37525	1.3755	0.00863
5543.87514	1.37547	0.00864
5542.37503	1.37546	0.00864
5540.87492	1.37545	0.00864
5539.37481	1.37543	0.00863
5537.8747	1.37542	0.00862
5536.37458	1.37539	0.0086
5534.87447	1.37536	0.0086
5533.37436	1.37532	0.0086
5531.87425	1.3753	0.0086
5530.37414	1.37528	0.0086
5528.87402	1.37526	0.0086
5527.37391	1.37523	0.0086
5525.8738	1.3752	0.0086
5524.37369	1.37518	0.00861
5522.87358	1.37516	0.00862
5521.37347	1.37515	0.00863
5519.87335	1.37514	0.00863
5518.37324	1.37513	0.00863
5516.87313	1.37511	0.00863
5515.37302	1.3751	0.00863
5513.87291	1.37508	0.00864
5512.37279	1.37507	0.00864
5510.87268	1.37506	0.00864
5509.37257	1.37506	0.00864
5507.87246	1.37506	0.00864
5506.37235	1.37505	0.00863
5504.87224	1.37505	0.00863
5503.37212	1.37505	0.00861
5501.87201	1.37505	0.0086
5500.3719	1.37504	0.00857
5498.87179	1.37502	0.00854
5497.37168	1.37501	0.00851
5495.87156	1.37498	0.00848
5494.37145	1.37493	0.00846
5492.87134	1.37487	0.00844
5491.37123	1.37482	0.00844
5489.87112	1.37476	0.00846
5488.37101	1.37473	0.00848
5486.87089	1.3747	0.0085
5485.37078	1.37468	0.00853
5483.87067	1.37467	0.00855
5482.37056	1.37468	0.00858
5480.87045	1.37469	0.00859
5479.37033	1.37473	0.0086
5477.87022	1.37474	0.00858
5476.37011	1.37476	0.00855
5474.87	1.37476	0.00852
5473.36989	1.37475	0.0085
5471.86978	1.37474	0.00847
5470.36966	1.37473	0.00844
5468.86955	1.3747	0.00841
5467.36944	1.37467	0.00838
5465.86933	1.37463	0.00836
5464.36922	1.37459	0.00835
5462.8691	1.37456	0.00834
5461.36899	1.37455	0.00834
5459.86888	1.37453	0.00833
5458.36877	1.37451	0.00831
5456.86866	1.3745	0.0083
5455.36855	1.37448	0.00828
5453.86843	1.37448	0.00827
5452.36832	1.37446	0.00823
5450.86821	1.37443	0.0082
5449.3681	1.3744	0.00817
5447.86799	1.37436	0.00814
5446.36787	1.37431	0.00811
5444.86776	1.37425	0.00809
5443.36765	1.3742	0.00809
5441.86754	1.37415	0.00808
5440.36743	1.37409	0.00808
5438.86732	1.37405	0.00808
5437.3672	1.374	0.00809
5435.86709	1.37396	0.0081
5434.36698	1.37392	0.00811
5432.86687	1.37388	0.00813
5431.36676	1.37384	0.00815
5429.86664	1.37381	0.00817
5428.36653	1.37378	0.0082
5426.86642	1.37377	0.00823
5425.36631	1.37378	0.00826
5423.8662	1.37379	0.00826
5422.36609	1.37381	0.00827
5420.86597	1.37384	0.00826
5419.36586	1.37385	0.00823
5417.86575	1.37386	0.00819
5416.36564	1.37385	0.00814
5414.86553	1.37381	0.00809
5413.36541	1.37375	0.00805
5411.8653	1.37367	0.00803
5410.36519	1.37359	0.00803
5408.86508	1.37354	0.00805
5407.36497	1.3735	0.00808
5405.86486	1.37347	0.00809
5404.36474	1.37344	0.00812
5402.86463	1.37343	0.00814
5401.36452	1.37344	0.00817
5399.86441	1.37347	0.00818
5398.3643	1.37349	0.00816
5396.86418	1.3735	0.00813
5395.36407	1.37347	0.00809
5393.86396	1.37344	0.00806
5392.36385	1.3734	0.00805
5390.86374	1.37336	0.00804
5389.36363	1.37335	0.00804
5387.86351	1.37332	0.00802
5386.3634	1.37329	0.00801
5384.86329	1.37326	0.00799
5383.36318	1.37323	0.00799
5381.86307	1.37321	0.00799
5380.36295	1.3732	0.00799
5378.86284	1.37319	0.00797
5377.36273	1.37316	0.00794
5375.86262	1.37313	0.00792
5374.36251	1.37308	0.00791
5372.8624	1.37304	0.00791
5371.36228	1.37301	0.00792
5369.86217	1.37299	0.00792
5368.36206	1.37297	0.00791
5366.86195	1.37296	0.00791
5365.36184	1.37294	0.0079
5363.86172	1.37292	0.00788
5362.36161	1.37291	0.00788
5360.8615	1.37289	0.00786
5359.36139	1.37288	0.00785
5357.86128	1.37286	0.00783
5356.36117	1.37285	0.0078
5354.86105	1.37282	0.00777
5353.36094	1.37279	0.00775
5351.86083	1.37276	0.00772
5350.36072	1.37273	0.0077
5348.86061	1.37272	0.00767
5347.3605	1.37269	0.00763
5345.86038	1.37264	0.00759
5344.36027	1.37258	0.00755
5342.86016	1.37251	0.00754
5341.36005	1.37246	0.00752
5339.85994	1.37242	0.00751
5338.35982	1.37237	0.00749
5336.85971	1.37231	0.00747
5335.3596	1.37224	0.00747
5333.85949	1.37219	0.00747
5332.35938	1.37214	0.00747
5330.85927	1.37211	0.00747
5329.35915	1.37207	0.00746
5327.85904	1.37201	0.00745
5326.35893	1.37196	0.00745
5324.85882	1.3719	0.00746
5323.35871	1.37186	0.00748
5321.85859	1.37182	0.00748
5320.35848	1.3718	0.00749
5318.85837	1.37177	0.00749
5317.35826	1.37175	0.00748
5315.85815	1.37173	0.00748
5314.35804	1.37171	0.00746
5312.85792	1.3717	0.00743
5311.35781	1.37168	0.0074
5309.8577	1.37164	0.00735
5308.35759	1.37158	0.00728
5306.85748	1.3715	0.00724
5305.35736	1.3714	0.0072
5303.85725	1.3713	0.00718
5302.35714	1.37119	0.00717
5300.85703	1.37108	0.00716
5299.35692	1.37096	0.00717
5297.85681	1.37084	0.0072
5296.35669	1.37073	0.00725
5294.85658	1.37063	0.00732
5293.35647	1.37056	0.00739
5291.85636	1.37051	0.00745
5290.35625	1.37046	0.00751
5288.85613	1.37042	0.00758
5287.35602	1.3704	0.00764
5285.85591	1.37037	0.00769
5284.3558	1.37036	0.00772
5282.85569	1.37033	0.00775
5281.35558	1.37028	0.00778
5279.85546	1.37024	0.00782
5278.35535	1.37019	0.00787
5276.85524	1.37015	0.00792
5275.35513	1.37013	0.00798
5273.85502	1.3701	0.00804
5272.3549	1.37009	0.00809
5270.85479	1.37009	0.00815
5269.35468	1.37011	0.00821
5267.85457	1.37013	0.00824
5266.35446	1.37017	0.00828
5264.85435	1.37018	0.00828
5263.35423	1.3702	0.00829
5261.85412	1.3702	0.00829
5260.35401	1.37021	0.00829
5258.8539	1.37021	0.00829
5257.35379	1.37021	0.00828
5255.85367	1.37021	0.00826
5254.35356	1.3702	0.00825
5252.85345	1.37017	0.00822
5251.35334	1.37013	0.00821
5249.85323	1.3701	0.0082
5248.35312	1.37007	0.00819
5246.853	1.37001	0.00817
5245.35289	1.36994	0.00817
5243.85278	1.36987	0.0082
5242.35267	1.36979	0.00824
5240.85256	1.36974	0.0083
5239.35244	1.3697	0.00836
5237.85233	1.3697	0.00842
5236.35222	1.36971	0.00848
5234.85211	1.36972	0.00853
5233.352	1.36976	0.00857
5231.85189	1.3698	0.0086
5230.35177	1.36984	0.00861
5228.85166	1.36988	0.00859
5227.35155	1.36992	0.00856
5225.85144	1.36993	0.00852
5224.35133	1.36992	0.00847
5222.85121	1.36987	0.00843
5221.3511	1.36984	0.00842
5219.85099	1.36979	0.0084
5218.35088	1.36975	0.00838
5216.85077	1.36971	0.00838
5215.35066	1.36965	0.00837
5213.85054	1.3696	0.00838
5212.35043	1.36956	0.00841
5210.85032	1.36953	0.00843
5209.35021	1.36951	0.00845
5207.8501	1.36949	0.00846
5206.34998	1.36946	0.00848
5204.84987	1.36943	0.00849
5203.34976	1.3694	0.00851
5201.84965	1.36938	0.00854
5200.34954	1.36937	0.00856
5198.84943	1.36936	0.00859
5197.34931	1.36935	0.00861
5195.8492	1.36935	0.00863
5194.34909	1.36935	0.00864
5192.84898	1.36936	0.00866
5191.34887	1.36937	0.00866
5189.84875	1.36937	0.00866
5188.34864	1.36937	0.00865
5186.84853	1.36937	0.00864
5185.34842	1.36937	0.00863
5183.84831	1.36936	0.00862
5182.3482	1.36934	0.0086
5180.84808	1.36932	0.00859
5179.34797	1.3693	0.00857
5177.84786	1.36927	0.00856
5176.34775	1.36926	0.00856
5174.84764	1.36924	0.00855
5173.34752	1.36923	0.00853
5171.84741	1.3692	0.00851
5170.3473	1.36917	0.00849
5168.84719	1.36913	0.00847
5167.34708	1.36909	0.00847
5165.84697	1.36904	0.00845
5164.34685	1.36899	0.00845
5162.84674	1.36892	0.00845
5161.34663	1.36885	0.00847
5159.84652	1.36879	0.00851
5158.34641	1.36874	0.00856
5156.8463	1.36871	0.00861
5155.34618	1.36869	0.00867
5153.84607	1.36869	0.00872
5152.34596	1.36871	0.00877
5150.84585	1.36874	0.0088
5149.34574	1.36877	0.00882
5147.84562	1.36882	0.00883
5146.34551	1.36885	0.00882
5144.8454	1.36889	0.00879
5143.34529	1.3689	0.00876
5141.84518	1.3689	0.00872
5140.34507	1.36888	0.00869
5138.84495	1.36885	0.00866
5137.34484	1.36882	0.00864
5135.84473	1.36879	0.00863
5134.34462	1.36876	0.00862
5132.84451	1.36873	0.00861
5131.34439	1.36869	0.00861
5129.84428	1.36867	0.00862
5128.34417	1.36865	0.00863
5126.84406	1.36865	0.00863
5125.34395	1.36865	0.00862
5123.84384	1.36864	0.0086
5122.34372	1.36862	0.00859
5120.84361	1.3686	0.00857
5119.3435	1.36858	0.00857
5117.84339	1.36855	0.00855
5116.34328	1.36853	0.00854
5114.84316	1.36849	0.00852
5113.34305	1.36845	0.00852
5111.84294	1.36841	0.00853
5110.34283	1.36838	0.00853
5108.84272	1.36836	0.00855
5107.34261	1.36834	0.00856
5105.84249	1.36833	0.00856
5104.34238	1.36831	0.00857
5102.84227	1.3683	0.00857
5101.34216	1.36829	0.00858
5099.84205	1.36829	0.00858
5098.34193	1.36829	0.00856
5096.84182	1.36828	0.00853
5095.34171	1.36825	0.00852
5093.8416	1.36822	0.00852
5092.34149	1.36819	0.00852
5090.84138	1.36816	0.00852
5089.34126	1.36814	0.00851
5087.84115	1.36811	0.00851
5086.34104	1.36809	0.00851
5084.84093	1.36807	0.00853
5083.34082	1.36806	0.00854
5081.8407	1.36806	0.00854
5080.34059	1.36806	0.00853
5078.84048	1.36806	0.00852
5077.34037	1.36804	0.0085
5075.84026	1.36802	0.0085
5074.34015	1.368	0.00849
5072.84003	1.36798	0.00848
5071.33992	1.36795	0.00848
5069.83981	1.36794	0.00848
5068.3397	1.36791	0.00848
5066.83959	1.36789	0.00849
5065.33947	1.36789	0.0085
5063.83936	1.36789	0.0085
5062.33925	1.36789	0.00851
5060.83914	1.3679	0.0085
5059.33903	1.36791	0.00849
5057.83892	1.36792	0.00848
5056.3388	1.36792	0.00845
5054.83869	1.36792	0.00844
5053.33858	1.36792	0.00841
5051.83847	1.36792	0.0084
5050.33836	1.36792	0.00837
5048.83824	1.36793	0.00834
5047.33813	1.36794	0.00831
5045.83802	1.36795	0.00827
5044.33791	1.36796	0.00822
5042.8378	1.36795	0.00816
5041.33769	1.36794	0.0081
5039.83757	1.36792	0.00803
5038.33746	1.36788	0.00796
5036.83735	1.36784	0.00789
5035.33724	1.36777	0.00784
5033.83713	1.36769	0.00778
5032.33701	1.36762	0.00776
5030.8369	1.36755	0.00773
5029.33679	1.36748	0.00772
5027.83668	1.36742	0.00772
5026.33657	1.36737	0.00772
5024.83646	1.36734	0.00772
5023.33634	1.3673	0.00772
5021.83623	1.36728	0.00771
5020.33612	1.36725	0.00769
5018.83601	1.36722	0.00766
5017.3359	1.36718	0.00764
5015.83578	1.36714	0.00761
5014.33567	1.3671	0.00759
5012.83556	1.36704	0.00756
5011.33545	1.36697	0.00754
5009.83534	1.3669	0.00753
5008.33523	1.36684	0.00753
5006.83511	1.36677	0.00755
5005.335	1.36673	0.00756
5003.83489	1.36669	0.00758
5002.33478	1.36666	0.0076
5000.83467	1.36663	0.0076
4999.33455	1.36661	0.00762
4997.83444	1.3666	0.00762
4996.33433	1.36659	0.00762
4994.83422	1.36658	0.00762
4993.33411	1.36656	0.0076
4991.834	1.36654	0.00759
4990.33388	1.36652	0.00757
4988.83377	1.36649	0.00755
4987.33366	1.36647	0.00753
4985.83355	1.36645	0.00751
4984.33344	1.36642	0.0075
4982.83332	1.36638	0.00747
4981.33321	1.36636	0.00747
4979.8331	1.36634	0.00744
4978.33299	1.36633	0.00742
4976.83288	1.3663	0.00739
4975.33277	1.36627	0.00735
4973.83265	1.36624	0.00731
4972.33254	1.36619	0.00728
4970.83243	1.36615	0.00723
4969.33232	1.36611	0.0072
4967.83221	1.36605	0.00715
4966.3321	1.36596	0.00711
4964.83198	1.36587	0.00708
4963.33187	1.36579	0.00708
4961.83176	1.3657	0.00709
4960.33165	1.36562	0.0071
4958.83154	1.36555	0.00712
4957.33142	1.36549	0.00714
4955.83131	1.36543	0.00718
4954.3312	1.3654	0.00722
4952.83109	1.36539	0.00726
4951.33098	1.36539	0.00728
4949.83087	1.36539	0.00728
4948.33075	1.36539	0.00727
4946.83064	1.36538	0.00727
4945.33053	1.36537	0.00724
4943.83042	1.36536	0.00721
4942.33031	1.36532	0.00718
4940.83019	1.36528	0.00714
4939.33008	1.36522	0.00712
4937.82997	1.36516	0.0071
4936.32986	1.36511	0.0071
4934.82975	1.36506	0.0071
4933.32964	1.36502	0.00711
4931.82952	1.36497	0.00711
4930.32941	1.36493	0.00712
4928.8293	1.3649	0.00712
4927.32919	1.36489	0.00712
4925.82908	1.36486	0.00712
4924.32896	1.36484	0.00712
4922.82885	1.36482	0.00711
4921.32874	1.36479	0.00709
4919.82863	1.36477	0.00709
4918.32852	1.36474	0.00707
4916.82841	1.36472	0.00706
4915.32829	1.36469	0.00705
4913.82818	1.36468	0.00703
4912.32807	1.36467	0.00701
4910.82796	1.36466	0.00698
4909.32785	1.36464	0.00694
4907.82773	1.36462	0.00689
4906.32762	1.36458	0.00684
4904.82751	1.36453	0.00678
4903.3274	1.36447	0.00673
4901.82729	1.36439	0.00669
4900.32718	1.36431	0.00666
4898.82706	1.36421	0.00663
4897.32695	1.36413	0.00663
4895.82684	1.36405	0.00664
4894.32673	1.36399	0.00666
4892.82662	1.36392	0.00667
4891.3265	1.36389	0.00669
4889.82639	1.36386	0.0067
4888.32628	1.36384	0.0067
4886.82617	1.36383	0.0067
4885.32606	1.36381	0.00667
4883.82595	1.36378	0.00664
4882.32583	1.36375	0.00661
4880.82572	1.3637	0.00657
4879.32561	1.36364	0.00654
4877.8255	1.36357	0.00651
4876.32539	1.36351	0.00647
4874.82527	1.36344	0.00645
4873.32516	1.36336	0.00642
4871.82505	1.36327	0.00642
4870.32494	1.3632	0.00642
4868.82483	1.36312	0.00642
4867.32472	1.36306	0.00643
4865.8246	1.36299	0.00644
4864.32449	1.36292	0.00645
4862.82438	1.36286	0.00645
4861.32427	1.36279	0.00647
4859.82416	1.36273	0.00649
4858.32404	1.36269	0.00652
4856.82393	1.36264	0.00654
4855.32382	1.36261	0.00655
4853.82371	1.36257	0.00656
4852.3236	1.36253	0.00657
4850.82349	1.36249	0.00657
4849.32337	1.36245	0.00657
4847.82326	1.36241	0.00658
4846.32315	1.36237	0.00658
4844.82304	1.36232	0.00658
4843.32293	1.36227	0.00659
4841.82281	1.36223	0.00659
4840.3227	1.36219	0.0066
4838.82259	1.36215	0.0066
4837.32248	1.36211	0.00661
4835.82237	1.36207	0.00661
4834.32226	1.36203	0.00661
4832.82214	1.362	0.00662
4831.32203	1.36195	0.00662
4829.82192	1.36192	0.00662
4828.32181	1.36187	0.00663
4826.8217	1.36183	0.00663
4825.32158	1.3618	0.00664
4823.82147	1.36177	0.00664
4822.32136	1.36173	0.00664
4820.82125	1.3617	0.00664
4819.32114	1.36168	0.00664
4817.82103	1.36165	0.00664
4816.32091	1.36163	0.00662
4814.8208	1.3616	0.00661
4813.32069	1.36156	0.00659
4811.82058	1.36151	0.00658
4810.32047	1.36147	0.00657
4808.82035	1.36142	0.00657
4807.32024	1.36138	0.00656
4805.82013	1.36135	0.00655
4804.32002	1.36131	0.00654
4802.81991	1.36127	0.00653
4801.3198	1.36124	0.00652
4799.81968	1.3612	0.0065
4798.31957	1.36115	0.00649
4796.81946	1.36111	0.00647
4795.31935	1.36106	0.00646
4793.81924	1.36101	0.00644
4792.31912	1.36096	0.00642
4790.81901	1.3609	0.0064
4789.3189	1.36084	0.00639
4787.81879	1.36078	0.00639
4786.31868	1.36072	0.00639
4784.81857	1.36066	0.00639
4783.31845	1.36061	0.00638
4781.81834	1.36055	0.00638
4780.31823	1.36049	0.00639
4778.81812	1.36042	0.0064
4777.31801	1.36037	0.00642
4775.81789	1.36032	0.00642
4774.31778	1.36028	0.00644
4772.81767	1.36024	0.00645
4771.31756	1.3602	0.00645
4769.81745	1.36016	0.00646
4768.31734	1.36012	0.00646
4766.81722	1.36008	0.00647
4765.31711	1.36004	0.00647
4763.817	1.35998	0.00647
4762.31689	1.35992	0.00649
4760.81678	1.35987	0.0065
4759.31667	1.35982	0.00653
4757.81655	1.35979	0.00657
4756.31644	1.35977	0.00661
4754.81633	1.35977	0.00663
4753.31622	1.35978	0.00664
4751.81611	1.35979	0.00665
4750.31599	1.35981	0.00664
4748.81588	1.35983	0.00661
4747.31577	1.35983	0.00658
4745.81566	1.35982	0.00652
4744.31555	1.3598	0.00647
4742.81544	1.35976	0.00641
4741.31532	1.3597	0.00636
4739.81521	1.35963	0.00632
4738.3151	1.35955	0.00631
4736.81499	1.35948	0.0063
4735.31488	1.35942	0.00629
4733.81476	1.35937	0.00629
4732.31465	1.35933	0.00629
4730.81454	1.3593	0.00629
4729.31443	1.35926	0.00628
4727.81432	1.35924	0.00628
4726.31421	1.35921	0.00626
4724.81409	1.35919	0.00624
4723.31398	1.35916	0.00621
4721.81387	1.35913	0.00618
4720.31376	1.35909	0.00615
4718.81365	1.35904	0.00611
4717.31353	1.35899	0.00608
4715.81342	1.35895	0.00604
4714.31331	1.3589	0.00601
4712.8132	1.35885	0.00597
4711.31309	1.35878	0.00594
4709.81298	1.3587	0.00591
4708.31286	1.35863	0.00588
4706.81275	1.35856	0.00587
4705.31264	1.35849	0.00585
4703.81253	1.35841	0.00585
4702.31242	1.35834	0.00584
4700.8123	1.35828	0.00584
4699.31219	1.35821	0.00585
4697.81208	1.35817	0.00586
4696.31197	1.35812	0.00586
4694.81186	1.35809	0.00586
4693.31175	1.35805	0.00585
4691.81163	1.35802	0.00584
4690.31152	1.35799	0.00583
4688.81141	1.35795	0.00579
4687.3113	1.35792	0.00576
4685.81119	1.35787	0.00572
4684.31107	1.35782	0.00569
4682.81096	1.35776	0.00565
4681.31085	1.35769	0.00561
4679.81074	1.35761	0.00558
4678.31063	1.35754	0.00555
4676.81052	1.35745	0.00552
4675.3104	1.35734	0.00551
4673.81029	1.35725	0.00551
4672.31018	1.35718	0.00552
4670.81007	1.3571	0.00553
4669.30996	1.35704	0.00555
4667.80984	1.35699	0.00555
4666.30973	1.35694	0.00556
4664.80962	1.35689	0.00557
4663.30951	1.35685	0.00557
4661.8094	1.35681	0.00557
4660.30929	1.35678	0.00556
4658.80917	1.35673	0.00553
4657.30906	1.35669	0.00551
4655.80895	1.35663	0.00549
4654.30884	1.35657	0.00547
4652.80873	1.35652	0.00546
4651.30861	1.35646	0.00544
4649.8085	1.35641	0.00542
4648.30839	1.35635	0.00539
4646.80828	1.35629	0.00537
4645.30817	1.35622	0.00535
4643.80806	1.35617	0.00534
4642.30794	1.35611	0.00532
4640.80783	1.35606	0.00529
4639.30772	1.356	0.00526
4637.80761	1.35593	0.00523
4636.3075	1.35585	0.0052
4634.80738	1.35576	0.00516
4633.30727	1.35568	0.00515
4631.80716	1.3556	0.00512
4630.30705	1.35551	0.00511
4628.80694	1.35541	0.00509
4627.30683	1.35532	0.00509
4625.80671	1.35523	0.00509
4624.3066	1.35515	0.0051
4622.80649	1.35508	0.00511
4621.30638	1.35501	0.00511
4619.80627	1.35494	0.00511
4618.30615	1.35487	0.0051
4616.80604	1.35479	0.0051
4615.30593	1.35472	0.0051
4613.80582	1.35464	0.0051
4612.30571	1.35455	0.0051
4610.8056	1.35447	0.00511
4609.30548	1.35439	0.00511
4607.80537	1.3543	0.00514
4606.30526	1.35424	0.00516
4604.80515	1.35417	0.00519
4603.30504	1.35412	0.0052
4601.80492	1.35408	0.00522
4600.30481	1.35403	0.00523
4598.8047	1.354	0.00523
4597.30459	1.35395	0.00523
4595.80448	1.35391	0.00522
4594.30437	1.35387	0.0052
4592.80425	1.35382	0.00518
4591.30414	1.35374	0.00515
4589.80403	1.35368	0.00514
4588.30392	1.3536	0.00512
4586.80381	1.35352	0.0051
4585.30369	1.35344	0.0051
4583.80358	1.35338	0.00509
4582.30347	1.3533	0.00508
4580.80336	1.35321	0.00508
4579.30325	1.35313	0.00507
4577.80314	1.35306	0.00508
4576.30302	1.35299	0.00508
4574.80291	1.35291	0.00508
4573.3028	1.35284	0.00508
4571.80269	1.35276	0.00509
4570.30258	1.35269	0.00509
4568.80247	1.35262	0.0051
4567.30235	1.35254	0.00511
4565.80224	1.35247	0.00511
4564.30213	1.3524	0.00512
4562.80202	1.35234	0.00513
4561.30191	1.35227	0.00513
4559.80179	1.3522	0.00514
4558.30168	1.35213	0.00514
4556.80157	1.35207	0.00515
4555.30146	1.352	0.00516
4553.80135	1.35194	0.00517
4552.30124	1.35188	0.00517
4550.80112	1.3518	0.00518
4549.30101	1.35174	0.00518
4547.8009	1.35168	0.00519
4546.30079	1.35162	0.0052
4544.80068	1.35155	0.0052
4543.30056	1.35149	0.00521
4541.80045	1.35142	0.00521
4540.30034	1.35136	0.00523
4538.80023	1.3513	0.00523
4537.30012	1.35123	0.00525
4535.80001	1.35118	0.00526
4534.29989	1.35113	0.00527
4532.79978	1.35108	0.00528
4531.29967	1.35104	0.00529
4529.79956	1.351	0.00529
4528.29945	1.35095	0.00529
4526.79933	1.35092	0.00528
4525.29922	1.35088	0.00527
4523.79911	1.35083	0.00525
4522.299	1.35079	0.00522
4520.79889	1.35073	0.00521
4519.29878	1.35068	0.00518
4517.79866	1.35063	0.00516
4516.29855	1.35057	0.00512
4514.79844	1.35051	0.00508
4513.29833	1.35044	0.00504
4511.79822	1.35036	0.005
4510.2981	1.35027	0.00496
4508.79799	1.35017	0.00493
4507.29788	1.35006	0.0049
4505.79777	1.34994	0.00488
4504.29766	1.34982	0.00488
4502.79755	1.34969	0.00489
4501.29743	1.34957	0.0049
4499.79732	1.34946	0.00494
4498.29721	1.34938	0.00499
4496.7971	1.3493	0.00503
4495.29699	1.34926	0.00507
4493.79687	1.34921	0.00509
4492.29676	1.34916	0.00512
4490.79665	1.34913	0.00512
4489.29654	1.34909	0.00512
4487.79643	1.34904	0.00511
4486.29632	1.34899	0.00508
4484.7962	1.34892	0.00507
4483.29609	1.34883	0.00505
4481.79598	1.34876	0.00503
4480.29587	1.34867	0.00503
4478.79576	1.34859	0.00503
4477.29564	1.3485	0.00503
4475.79553	1.34842	0.00503
4474.29542	1.34834	0.00504
4472.79531	1.34827	0.00505
4471.2952	1.34819	0.00506
4469.79509	1.34813	0.00507
4468.29497	1.34806	0.00507
4466.79486	1.34799	0.00508
4465.29475	1.34793	0.00509
4463.79464	1.34786	0.00509
4462.29453	1.34779	0.0051
4460.79441	1.34773	0.0051
4459.2943	1.34768	0.0051
4457.79419	1.34762	0.0051
4456.29408	1.34755	0.00509
4454.79397	1.3475	0.00508
4453.29386	1.34744	0.00507
4451.79374	1.34737	0.00505
4450.29363	1.3473	0.00504
4448.79352	1.34723	0.00502
4447.29341	1.34716	0.005
4445.7933	1.34707	0.00498
4444.29318	1.34698	0.00497
4442.79307	1.34689	0.00496
4441.29296	1.3468	0.00496
4439.79285	1.34672	0.00496
4438.29274	1.34662	0.00496
4436.79263	1.34654	0.00496
4435.29251	1.34645	0.00497
4433.7924	1.34638	0.00498
4432.29229	1.3463	0.00499
4430.79218	1.34623	0.005
4429.29207	1.34616	0.00501
4427.79195	1.3461	0.00501
4426.29184	1.34604	0.00501
4424.79173	1.34598	0.005
4423.29162	1.34591	0.005
4421.79151	1.34583	0.00499
4420.2914	1.34577	0.00498
4418.79128	1.34569	0.00497
4417.29117	1.34561	0.00497
4415.79106	1.34553	0.00496
4414.29095	1.34545	0.00495
4412.79084	1.34536	0.00495
4411.29072	1.34529	0.00496
4409.79061	1.34521	0.00497
4408.2905	1.34516	0.00497
4406.79039	1.34511	0.00497
4405.29028	1.34506	0.00495
4403.79017	1.34501	0.00493
4402.29005	1.34494	0.0049
4400.78994	1.34487	0.00487
4399.28983	1.34479	0.00483
4397.78972	1.3447	0.0048
4396.28961	1.34461	0.00477
4394.78949	1.34451	0.00474
4393.28938	1.3444	0.00472
4391.78927	1.34429	0.0047
4390.28916	1.34419	0.00469
4388.78905	1.34409	0.00468
4387.28894	1.344	0.00467
4385.78882	1.34391	0.00467
4384.28871	1.34381	0.00465
4382.7886	1.34372	0.00463
4381.28849	1.3436	0.00461
4379.78838	1.34348	0.00461
4378.28827	1.34336	0.00461
4376.78815	1.34324	0.00462
4375.28804	1.34312	0.00464
4373.78793	1.34301	0.00466
4372.28782	1.34291	0.00469
4370.78771	1.34281	0.00473
4369.28759	1.34274	0.00476
4367.78748	1.34269	0.0048
4366.28737	1.34263	0.00481
4364.78726	1.34258	0.00481
4363.28715	1.34252	0.00481
4361.78704	1.34246	0.00479
4360.28692	1.3424	0.00477
4358.78681	1.34234	0.00474
4357.2867	1.34225	0.0047
4355.78659	1.34215	0.00467
4354.28648	1.34204	0.00464
4352.78636	1.34192	0.00461
4351.28625	1.3418	0.00459
4349.78614	1.34168	0.00458
4348.28603	1.34155	0.00457
4346.78592	1.34143	0.00458
4345.28581	1.34129	0.00458
4343.78569	1.34117	0.0046
4342.28558	1.34106	0.00463
4340.78547	1.34094	0.00466
4339.28536	1.34084	0.0047
4337.78525	1.34075	0.00473
4336.28513	1.34066	0.00476
4334.78502	1.34058	0.00479
4333.28491	1.34051	0.00481
4331.7848	1.34045	0.00483
4330.28469	1.34039	0.00484
4328.78458	1.34031	0.00484
4327.28446	1.34024	0.00482
4325.78435	1.34016	0.00481
4324.28424	1.34007	0.00479
4322.78413	1.33997	0.00479
4321.28402	1.33986	0.00478
4319.7839	1.33975	0.00478
4318.28379	1.33964	0.00478
4316.78368	1.33954	0.00479
4315.28357	1.33943	0.0048
4313.78346	1.33933	0.00483
4312.28335	1.33923	0.00485
4310.78323	1.33915	0.00487
4309.28312	1.33907	0.00488
4307.78301	1.33899	0.0049
4306.2829	1.33892	0.00491
4304.78279	1.33886	0.00491
4303.28267	1.33878	0.0049
4301.78256	1.3387	0.00489
4300.28245	1.33862	0.00487
4298.78234	1.33852	0.00486
4297.28223	1.33843	0.00484
4295.78212	1.33833	0.00483
4294.282	1.33821	0.00481
4292.78189	1.3381	0.0048
4291.28178	1.33798	0.0048
4289.78167	1.33786	0.00481
4288.28156	1.33776	0.00481
4286.78144	1.33765	0.00483
4285.28133	1.33754	0.00484
4283.78122	1.33743	0.00486
4282.28111	1.33733	0.00487
4280.781	1.33724	0.00489
4279.28089	1.33715	0.0049
4277.78077	1.33706	0.00491
4276.28066	1.33696	0.00491
4274.78055	1.33687	0.00492
4273.28044	1.33677	0.00493
4271.78033	1.33667	0.00494
4270.28021	1.33659	0.00496
4268.7801	1.33649	0.00496
4267.27999	1.33641	0.00497
4265.77988	1.33632	0.00497
4264.27977	1.33624	0.00499
4262.77966	1.33616	0.00499
4261.27954	1.33609	0.00499
4259.77943	1.33602	0.00497
4258.27932	1.33594	0.00495
4256.77921	1.33586	0.00492
4255.2791	1.33575	0.00489
4253.77898	1.33565	0.00487
4252.27887	1.33554	0.00484
4250.77876	1.33542	0.00483
4249.27865	1.3353	0.0048
4247.77854	1.33518	0.00479
4246.27843	1.33506	0.00478
4244.77831	1.33493	0.00477
4243.2782	1.33482	0.00477
4241.77809	1.33471	0.00477
4240.27798	1.33459	0.00476
4238.77787	1.33448	0.00474
4237.27775	1.33435	0.00473
4235.77764	1.33421	0.00473
4234.27753	1.33407	0.00473
4232.77742	1.33394	0.00474
4231.27731	1.3338	0.00475
4229.7772	1.33368	0.00477
4228.27708	1.33354	0.00478
4226.77697	1.33342	0.0048
4225.27686	1.3333	0.00483
4223.77675	1.33319	0.00485
4222.27664	1.33309	0.00488
4220.77652	1.333	0.00489
4219.27641	1.33289	0.0049
4217.7763	1.33279	0.00491
4216.27619	1.33268	0.00492
4214.77608	1.33257	0.00492
4213.27597	1.33246	0.00493
4211.77585	1.33235	0.00493
4210.27574	1.33223	0.00494
4208.77563	1.33212	0.00494
4207.27552	1.33201	0.00494
4205.77541	1.3319	0.00495
4204.27529	1.33178	0.00496
4202.77518	1.33166	0.00497
4201.27507	1.33155	0.00498
4199.77496	1.33144	0.00499
4198.27485	1.33133	0.005
4196.77474	1.33122	0.005
4195.27462	1.33111	0.005
4193.77451	1.331	0.005
4192.2744	1.3309	0.005
4190.77429	1.33078	0.005
4189.27418	1.33067	0.005
4187.77407	1.33055	0.00499
4186.27395	1.33043	0.00498
4184.77384	1.3303	0.00497
4183.27373	1.33016	0.00497
4181.77362	1.33002	0.00497
4180.27351	1.32988	0.00498
4178.77339	1.32974	0.005
4177.27328	1.32961	0.00501
4175.77317	1.32948	0.00503
4174.27306	1.32936	0.00505
4172.77295	1.32924	0.00507
4171.27284	1.32912	0.00509
4169.77272	1.32901	0.00511
4168.27261	1.3289	0.00513
4166.7725	1.32879	0.00513
4165.27239	1.32869	0.00513
4163.77228	1.32857	0.00512
4162.27216	1.32845	0.00511
4160.77205	1.32832	0.00511
4159.27194	1.32818	0.0051
4157.77183	1.32804	0.00511
4156.27172	1.3279	0.00511
4154.77161	1.32776	0.00513
4153.27149	1.32761	0.00514
4151.77138	1.32748	0.00517
4150.27127	1.32734	0.00519
4148.77116	1.32722	0.00521
4147.27105	1.3271	0.00524
4145.77093	1.32699	0.00525
4144.27082	1.32687	0.00527
4142.77071	1.32676	0.00527
4141.2706	1.32665	0.00527
4139.77049	1.32652	0.00527
4138.27038	1.3264	0.00527
4136.77026	1.32626	0.00527
4135.27015	1.32613	0.00527
4133.77004	1.32599	0.00527
4132.26993	1.32586	0.00528
4130.76982	1.32572	0.00528
4129.2697	1.32557	0.00528
4127.76959	1.32543	0.0053
4126.26948	1.32529	0.00531
4124.76937	1.32515	0.00532
4123.26926	1.32501	0.00533
4121.76915	1.32486	0.00535
4120.26903	1.32471	0.00536
4118.76892	1.32457	0.00538
4117.26881	1.32442	0.00541
4115.7687	1.32429	0.00543
4114.26859	1.32415	0.00545
4112.76847	1.32401	0.00547
4111.26836	1.32387	0.00551
4109.76825	1.32373	0.00553
4108.26814	1.3236	0.00556
4106.76803	1.32347	0.00558
4105.26792	1.32334	0.00561
4103.7678	1.32321	0.00564
4102.26769	1.32308	0.00566
4100.76758	1.32296	0.00569
4099.26747	1.32283	0.00571
4097.76736	1.32271	0.00574
4096.26724	1.3226	0.00576
4094.76713	1.32249	0.00578
4093.26702	1.32239	0.00579
4091.76691	1.32228	0.00579
4090.2668	1.32217	0.00578
4088.76669	1.32205	0.00578
4087.26657	1.32193	0.00576
4085.76646	1.3218	0.00575
4084.26635	1.32166	0.00573
4082.76624	1.32152	0.00572
4081.26613	1.32136	0.0057
4079.76601	1.3212	0.00568
4078.2659	1.32103	0.00568
4076.76579	1.32086	0.0057
4075.26568	1.3207	0.00571
4073.76557	1.32053	0.00573
4072.26546	1.32039	0.00575
4070.76534	1.32024	0.00577
4069.26523	1.32009	0.00579
4067.76512	1.31996	0.00581
4066.26501	1.31982	0.00584
4064.7649	1.31969	0.00584
4063.26478	1.31956	0.00585
4061.76467	1.31943	0.00585
4060.26456	1.3193	0.00583
4058.76445	1.31915	0.00583
4057.26434	1.319	0.00581
4055.76423	1.31884	0.00581
4054.26411	1.31868	0.00579
4052.764	1.31851	0.00579
4051.26389	1.31835	0.00578
4049.76378	1.31817	0.00578
4048.26367	1.31799	0.00578
4046.76355	1.31782	0.00578
4045.26344	1.31764	0.00579
4043.76333	1.31746	0.0058
4042.26322	1.31728	0.00581
4040.76311	1.3171	0.00583
4039.263	1.31692	0.00584
4037.76288	1.31674	0.00586
4036.26277	1.31656	0.00589
4034.76266	1.31637	0.00591
4033.26255	1.3162	0.00594
4031.76244	1.31602	0.00599
4030.26232	1.31585	0.00602
4028.76221	1.31568	0.00605
4027.2621	1.31552	0.00609
4025.76199	1.31536	0.00612
4024.26188	1.3152	0.00615
4022.76177	1.31503	0.00619
4021.26165	1.31488	0.00622
4019.76154	1.31472	0.00625
4018.26143	1.31456	0.00627
4016.76132	1.31441	0.0063
4015.26121	1.31424	0.00632
4013.76109	1.31409	0.00635
4012.26098	1.31393	0.00636
4010.76087	1.31379	0.00638
4009.26076	1.31362	0.0064
4007.76065	1.31346	0.0064
4006.26054	1.31328	0.00641
4004.76042	1.3131	0.00642
4003.26031	1.31292	0.00645
4001.7602	1.31274	0.00647
4000.26009	1.31256	0.00649
3998.75998	1.31237	0.00652
3997.25986	1.31219	0.00656
3995.75975	1.312	0.0066
3994.25964	1.31183	0.00664
3992.75953	1.31167	0.00669
3991.25942	1.31152	0.00674
3989.75931	1.31137	0.00677
3988.25919	1.31121	0.0068
3986.75908	1.31107	0.00683
3985.25897	1.31092	0.00686
3983.75886	1.31078	0.00687
3982.25875	1.31062	0.00688
3980.75864	1.31046	0.00689
3979.25852	1.31029	0.00689
3977.75841	1.31012	0.00689
3976.2583	1.30995	0.00691
3974.75819	1.30977	0.00691
3973.25808	1.3096	0.00692
3971.75796	1.30941	0.00693
3970.25785	1.30921	0.00695
3968.75774	1.30902	0.00697
3967.25763	1.30883	0.007
3965.75752	1.30865	0.00703
3964.25741	1.30847	0.00707
3962.75729	1.3083	0.00711
3961.25718	1.30814	0.00713
3959.75707	1.30797	0.00716
3958.25696	1.30781	0.00719
3956.75685	1.30765	0.00722
3955.25673	1.3075	0.00724
3953.75662	1.30736	0.00724
3952.25651	1.30722	0.00723
3950.7564	1.30705	0.00722
3949.25629	1.30687	0.00719
3947.75618	1.30668	0.00718
3946.25606	1.30648	0.00717
3944.75595	1.30628	0.00717
3943.25584	1.30607	0.00717
3941.75573	1.30586	0.00718
3940.25562	1.30565	0.00719
3938.7555	1.30543	0.00722
3937.25539	1.30524	0.00726
3935.75528	1.30506	0.00729
3934.25517	1.3049	0.00731
3932.75506	1.30474	0.00731
3931.25495	1.30457	0.00731
3929.75483	1.30438	0.0073
3928.25472	1.30421	0.00728
3926.75461	1.30402	0.00726
3925.2545	1.30381	0.00723
3923.75439	1.30358	0.00719
3922.25427	1.30332	0.00717
3920.75416	1.30305	0.00718
3919.25405	1.30277	0.00721
3917.75394	1.30251	0.00727
3916.25383	1.30226	0.00735
3914.75372	1.30204	0.00745
3913.2536	1.30186	0.00754
3911.75349	1.30172	0.00763
3910.25338	1.30162	0.00769
3908.75327	1.30153	0.00773
3907.25316	1.30145	0.00773
3905.75304	1.30138	0.00769
3904.25293	1.3013	0.00761
3902.75282	1.30116	0.00747
3901.25271	1.30097	0.00734
3899.7526	1.30071	0.00722
3898.25249	1.3004	0.00711
3896.75237	1.30009	0.00705
3895.25226	1.29978	0.00702
3893.75215	1.29948	0.00701
3892.25204	1.29919	0.007
3890.75193	1.29888	0.00701
3889.25181	1.2986	0.00705
3887.7517	1.29834	0.0071
3886.25159	1.29812	0.00715
3884.75148	1.2979	0.00718
3883.25137	1.29769	0.0072
3881.75126	1.29747	0.0072
3880.25114	1.29724	0.0072
3878.75103	1.297	0.00721
3877.25092	1.29678	0.00724
3875.75081	1.29659	0.00724
3874.2507	1.29641	0.00722
3872.75058	1.29619	0.00717
3871.25047	1.29597	0.00713
3869.75036	1.29571	0.00708
3868.25025	1.29544	0.00706
3866.75014	1.29518	0.00706
3865.25003	1.29496	0.00704
3863.74991	1.29473	0.007
3862.2498	1.29449	0.00694
3860.74969	1.29422	0.00689
3859.24958	1.29395	0.00685
3857.74947	1.2937	0.00682
3856.24935	1.29346	0.00677
3854.74924	1.29321	0.00669
3853.24913	1.29292	0.00658
3851.74902	1.29256	0.0065
3850.24891	1.29219	0.00646
3848.7488	1.29183	0.00645
3847.24868	1.29151	0.00645
3845.74857	1.29121	0.00645
3844.24846	1.29093	0.00643
3842.74835	1.29063	0.0064
3841.24824	1.29034	0.00636
3839.74812	1.29003	0.00633
3838.24801	1.28972	0.00628
3836.7479	1.28938	0.00622
3835.24779	1.28901	0.00619
3833.74768	1.28864	0.00617
3832.24757	1.28827	0.00616
3830.74745	1.2879	0.00616
3829.24734	1.28754	0.00617
3827.74723	1.28722	0.00619
3826.24712	1.28691	0.0062
3824.74701	1.28663	0.0062
3823.24689	1.28635	0.00616
3821.74678	1.28606	0.0061
3820.24667	1.28571	0.006
3818.74656	1.28533	0.00592
3817.24645	1.28492	0.00585
3815.74634	1.28448	0.00579
3814.24622	1.28404	0.00576
3812.74611	1.2836	0.00576
3811.246	1.28318	0.00577
3809.74589	1.28278	0.00579
3808.24578	1.2824	0.00579
3806.74566	1.28204	0.00578
3805.24555	1.28166	0.00576
3803.74544	1.28126	0.00571
3802.24533	1.28085	0.00564
3800.74522	1.28039	0.00557
3799.24511	1.27988	0.00553
3797.74499	1.27935	0.0055
3796.24488	1.27879	0.00551
3794.74477	1.27822	0.00555
3793.24466	1.27766	0.00564
3791.74455	1.27713	0.00576
3790.24444	1.27664	0.00589
3788.74432	1.27617	0.00603
3787.24421	1.27572	0.00618
3785.7441	1.27528	0.00632
3784.24399	1.27486	0.00646
3782.74388	1.27444	0.00659
3781.24376	1.27404	0.00672
3779.74365	1.27363	0.00683
3778.24354	1.27323	0.00693
3776.74343	1.2728	0.00705
3775.24332	1.27239	0.00717
3773.74321	1.27199	0.0073
3772.24309	1.27162	0.00742
3770.74298	1.27125	0.00754
3769.24287	1.27089	0.00763
3767.74276	1.27051	0.00773
3766.24265	1.27013	0.00784
3764.74253	1.26977	0.00794
3763.24242	1.26945	0.00805
3761.74231	1.26914	0.00812
3760.2422	1.26884	0.00817
3758.74209	1.26855	0.00818
3757.24198	1.26825	0.00819
3755.74186	1.26796	0.00816
3754.24175	1.26768	0.00808
3752.74164	1.26736	0.00796
3751.24153	1.26701	0.00781
3749.74142	1.26658	0.00764
3748.2413	1.26611	0.00748
3746.74119	1.26562	0.00731
3745.24108	1.26511	0.00714
3743.74097	1.26454	0.00696
3742.24086	1.26391	0.0068
3740.74075	1.26326	0.00668
3739.24063	1.26259	0.00659
3737.74052	1.26195	0.00651
3736.24041	1.2613	0.00642
3734.7403	1.2606	0.00633
3733.24019	1.25985	0.00626
3731.74007	1.25907	0.00624
3730.23996	1.25829	0.00625
3728.73985	1.25753	0.0063
3727.23974	1.25677	0.00636
3725.73963	1.25602	0.00644
3724.23952	1.25525	0.00653
3722.7394	1.25452	0.00664
3721.23929	1.25379	0.00676
3719.73918	1.25309	0.00688
3718.23907	1.25239	0.00699
3716.73896	1.25169	0.00708
3715.23884	1.25099	0.00717
3713.73873	1.25028	0.00723
3712.23862	1.24953	0.00728
3710.73851	1.24872	0.00733
3709.2384	1.24788	0.00741
3707.73829	1.24701	0.00752
3706.23817	1.24613	0.00767
3704.73806	1.24526	0.00784
3703.23795	1.24441	0.00804
3701.73784	1.24355	0.00824
3700.23773	1.24269	0.00846
3698.73761	1.24184	0.00868
3697.2375	1.241	0.00893
3695.73739	1.24018	0.00918
3694.23728	1.23934	0.00941
3692.73717	1.23851	0.00964
3691.23706	1.23765	0.00988
3689.73694	1.23677	0.01012
3688.23683	1.23586	0.01038
3686.73672	1.23497	0.01066
3685.23661	1.23408	0.01096
3683.7365	1.2332	0.01126
3682.23638	1.23235	0.01156
3680.73627	1.2315	0.01184
3679.23616	1.23064	0.01208
3677.73605	1.22974	0.0123
3676.23594	1.2288	0.01252
3674.73583	1.22777	0.01273
3673.23571	1.22668	0.01297
3671.7356	1.22554	0.01326
3670.23549	1.22435	0.01359
3668.73538	1.22311	0.01398
3667.23527	1.22184	0.01446
3665.73515	1.22058	0.01503
3664.23504	1.21935	0.01568
3662.73493	1.2182	0.0164
3661.23482	1.21715	0.01715
3659.73471	1.21617	0.01788
3658.2346	1.21522	0.01858
3656.73448	1.21429	0.01925
3655.23437	1.21336	0.01991
3653.73426	1.21242	0.02055
3652.23415	1.21146	0.02115
3650.73404	1.21046	0.02174
3649.23392	1.20938	0.02233
3647.73381	1.20821	0.02294
3646.2337	1.20698	0.02364
3644.73359	1.20572	0.02443
3643.23348	1.2045	0.0253
3641.73337	1.20332	0.02624
3640.23325	1.2022	0.02722
3638.73314	1.20111	0.02823
3637.23303	1.20005	0.02927
3635.73292	1.19905	0.03034
3634.23281	1.19811	0.03142
3632.73269	1.19721	0.0325
3631.23258	1.19634	0.03355
3629.73247	1.19547	0.03456
3628.23236	1.19455	0.03557
3626.73225	1.1936	0.0366
3625.23214	1.19266	0.03768
3623.73202	1.19173	0.03878
3622.23191	1.19084	0.03991
3620.7318	1.18997	0.04104
3619.23169	1.18911	0.04218
3617.73158	1.18823	0.04331
3616.23146	1.18736	0.04447
3614.73135	1.18652	0.04567
3613.23124	1.1857	0.04685
3611.73113	1.18487	0.04804
3610.23102	1.18403	0.04924
3608.73091	1.18317	0.05046
3607.23079	1.18229	0.0517
3605.73068	1.18141	0.05299
3604.23057	1.18057	0.05434
3602.73046	1.17974	0.05572
3601.23035	1.17895	0.05714
3599.73024	1.17819	0.05858
3598.23012	1.17748	0.06004
3596.73001	1.1768	0.06151
3595.2299	1.17616	0.063
3593.72979	1.17555	0.06447
3592.22968	1.17497	0.06595
3590.72956	1.17441	0.06744
3589.22945	1.17386	0.06891
3587.72934	1.17333	0.07038
3586.22923	1.17278	0.07185
3584.72912	1.17224	0.07333
3583.22901	1.1717	0.07484
3581.72889	1.17117	0.07638
3580.22878	1.17067	0.07795
3578.72867	1.1702	0.07953
3577.22856	1.16976	0.08113
3575.72845	1.16936	0.08273
3574.22833	1.16897	0.08435
3572.72822	1.16864	0.08598
3571.22811	1.16833	0.0876
3569.728	1.16806	0.08921
3568.22789	1.1678	0.09081
3566.72778	1.16756	0.0924
3565.22766	1.1673	0.09397
3563.72755	1.16702	0.09554
3562.22744	1.16676	0.09715
3560.72733	1.16651	0.09877
3559.22722	1.16627	0.10041
3557.7271	1.16605	0.10208
3556.22699	1.16586	0.10376
3554.72688	1.1657	0.10545
3553.22677	1.16556	0.10716
3551.72666	1.16546	0.10888
3550.22655	1.1654	0.11061
3548.72643	1.16537	0.11234
3547.22632	1.16537	0.11407
3545.72621	1.16539	0.11578
3544.2261	1.16543	0.11749
3542.72599	1.16548	0.1192
3541.22587	1.16554	0.12091
3539.72576	1.16564	0.12264
3538.22565	1.16576	0.12437
3536.72554	1.16591	0.1261
3535.22543	1.16609	0.12782
3533.72532	1.16629	0.12954
3532.2252	1.16651	0.13125
3530.72509	1.16676	0.13296
3529.22498	1.16703	0.13466
3527.72487	1.16732	0.13636
3526.22476	1.16762	0.13804
3524.72464	1.16793	0.13972
3523.22453	1.16827	0.1414
3521.72442	1.16861	0.14307
3520.22431	1.16897	0.14475
3518.7242	1.16934	0.14643
3517.22409	1.16974	0.14811
3515.72397	1.17017	0.1498
3514.22386	1.17061	0.15149
3512.72375	1.1711	0.15317
3511.22364	1.1716	0.15485
3509.72353	1.17214	0.15651
3508.22341	1.1727	0.15816
3506.7233	1.17326	0.1598
3505.22319	1.17386	0.16143
3503.72308	1.17447	0.16305
3502.22297	1.17508	0.16464
3500.72286	1.17571	0.16624
3499.22274	1.17635	0.16783
3497.72263	1.177	0.1694
3496.22252	1.17766	0.17099
3494.72241	1.17834	0.17257
3493.2223	1.17904	0.17415
3491.72218	1.17977	0.17573
3490.22207	1.1805	0.1773
3488.72196	1.18127	0.17887
3487.22185	1.18205	0.18042
3485.72174	1.18285	0.18198
3484.22163	1.18367	0.18353
3482.72151	1.18452	0.18507
3481.2214	1.18538	0.1866
3479.72129	1.18626	0.18814
3478.22118	1.18717	0.18965
3476.72107	1.18811	0.19116
3475.22095	1.18906	0.19265
3473.72084	1.19005	0.19412
3472.22073	1.19104	0.19559
3470.72062	1.19206	0.19703
3469.22051	1.19309	0.19846
3467.7204	1.19415	0.19987
3466.22028	1.19522	0.20125
3464.72017	1.19629	0.20262
3463.22006	1.19738	0.20398
3461.71995	1.19848	0.20532
3460.21984	1.19958	0.20665
3458.71972	1.2007	0.20798
3457.21961	1.20184	0.20928
3455.7195	1.20299	0.21058
3454.21939	1.20415	0.21187
3452.71928	1.20533	0.21314
3451.21917	1.20653	0.21441
3449.71905	1.20774	0.21565
3448.21894	1.20897	0.21689
3446.71883	1.21023	0.2181
3445.21872	1.21149	0.21928
3443.71861	1.21276	0.22045
3442.21849	1.21404	0.2216
3440.71838	1.21533	0.22275
3439.21827	1.21663	0.22387
3437.71816	1.21794	0.22498
3436.21805	1.21926	0.22607
3434.71794	1.22058	0.22714
3433.21782	1.22192	0.2282
3431.71771	1.22326	0.22925
3430.2176	1.22463	0.2303
3428.71749	1.226	0.23132
3427.21738	1.22739	0.23233
3425.71726	1.22879	0.23331
3424.21715	1.2302	0.23429
3422.71704	1.23162	0.23524
3421.21693	1.23306	0.23619
3419.71682	1.2345	0.23711
3418.21671	1.23596	0.23801
3416.71659	1.23743	0.2389
3415.21648	1.23891	0.23977
3413.71637	1.2404	0.24062
3412.21626	1.24191	0.24145
3410.71615	1.24344	0.24226
3409.21604	1.24496	0.24305
3407.71592	1.24651	0.24381
3406.21581	1.24806	0.24456
3404.7157	1.24962	0.24528
3403.21559	1.2512	0.24597
3401.71548	1.25278	0.24664
3400.21536	1.25437	0.24728
3398.71525	1.25598	0.24788
3397.21514	1.25757	0.24846
3395.71503	1.25917	0.24901
3394.21492	1.26077	0.24953
3392.71481	1.26236	0.25002
3391.21469	1.26394	0.25048
3389.71458	1.26552	0.25093
3388.21447	1.26709	0.25135
3386.71436	1.26866	0.25176
3385.21425	1.27021	0.25215
3383.71413	1.27178	0.25253
3382.21402	1.27334	0.2529
3380.71391	1.27491	0.25324
3379.2138	1.27648	0.25359
3377.71369	1.27806	0.25389
3376.21358	1.27965	0.25418
3374.71346	1.28124	0.25444
3373.21335	1.28283	0.25467
3371.71324	1.28443	0.25487
3370.21313	1.28602	0.25503
3368.71302	1.2876	0.25517
3367.2129	1.28917	0.25526
3365.71279	1.29071	0.25532
3364.21268	1.29224	0.25537
3362.71257	1.29375	0.2554
3361.21246	1.29524	0.2554
3359.71235	1.29672	0.2554
3358.21223	1.29817	0.25536
3356.71212	1.29962	0.25533
3355.21201	1.30104	0.25528
3353.7119	1.30245	0.25523
3352.21179	1.30387	0.25516
3350.71167	1.30527	0.25508
3349.21156	1.30666	0.25498
3347.71145	1.30803	0.25487
3346.21134	1.3094	0.25474
3344.71123	1.31075	0.2546
3343.21112	1.31209	0.25444
3341.711	1.31341	0.25427
3340.21089	1.31472	0.25409
3338.71078	1.31601	0.25389
3337.21067	1.31728	0.25369
3335.71056	1.31853	0.25347
3334.21044	1.31977	0.25325
3332.71033	1.32098	0.25303
3331.21022	1.32219	0.25281
3329.71011	1.32337	0.25258
3328.21	1.32454	0.25235
3326.70989	1.32571	0.25213
3325.20977	1.32687	0.2519
3323.70966	1.32801	0.25168
3322.20955	1.32915	0.25145
3320.70944	1.33028	0.25123
3319.20933	1.33141	0.25101
3317.70921	1.33253	0.25079
3316.2091	1.33365	0.25056
3314.70899	1.33478	0.25033
3313.20888	1.3359	0.2501
3311.70877	1.33701	0.24985
3310.20866	1.33813	0.24961
3308.70854	1.33925	0.24936
3307.20843	1.34035	0.24908
3305.70832	1.34144	0.2488
3304.20821	1.34253	0.24851
3302.7081	1.34361	0.24822
3301.20798	1.34467	0.24792
3299.70787	1.34572	0.24762
3298.20776	1.34678	0.24732
3296.70765	1.34781	0.24702
3295.20754	1.34885	0.24671
3293.70743	1.34987	0.2464
3292.20731	1.35089	0.24608
3290.7072	1.3519	0.24576
3289.20709	1.3529	0.24545
3287.70698	1.35389	0.24513
3286.20687	1.35489	0.24483
3284.70675	1.35587	0.24452
3283.20664	1.35687	0.24421
3281.70653	1.35787	0.2439
3280.20642	1.35886	0.24359
3278.70631	1.35987	0.24327
3277.2062	1.36087	0.24295
3275.70608	1.36187	0.24261
3274.20597	1.36288	0.24227
3272.70586	1.36387	0.24191
3271.20575	1.36485	0.24156
3269.70564	1.36583	0.24119
3268.20552	1.3668	0.24082
3266.70541	1.36777	0.24044
3265.2053	1.36873	0.24008
3263.70519	1.3697	0.2397
3262.20508	1.37066	0.23932
3260.70497	1.37162	0.23895
3259.20485	1.3726	0.23858
3257.70474	1.37358	0.23819
3256.20463	1.37456	0.23779
3254.70452	1.37555	0.23738
3253.20441	1.37653	0.23695
3251.70429	1.37751	0.23652
3250.20418	1.37848	0.23607
3248.70407	1.37946	0.23561
3247.20396	1.38043	0.23514
3245.70385	1.3814	0.23464
3244.20374	1.38234	0.23414
3242.70362	1.38328	0.23363
3241.20351	1.38421	0.23311
3239.7034	1.38514	0.23259
3238.20329	1.38607	0.23206
3236.70318	1.38699	0.23153
3235.20306	1.3879	0.23097
3233.70295	1.3888	0.23041
3232.20284	1.3897	0.22984
3230.70273	1.39059	0.22927
3229.20262	1.39148	0.22869
3227.70251	1.39236	0.22809
3226.20239	1.39323	0.22749
3224.70228	1.39409	0.22686
3223.20217	1.39493	0.22624
3221.70206	1.39577	0.22561
3220.20195	1.3966	0.22497
3218.70183	1.39742	0.22431
3217.20172	1.39823	0.22366
3215.70161	1.39903	0.22299
3214.2015	1.39983	0.22232
3212.70139	1.40059	0.22164
3211.20128	1.40136	0.22096
3209.70116	1.40212	0.22028
3208.20105	1.40286	0.21958
3206.70094	1.40359	0.21888
3205.20083	1.40432	0.21818
3203.70072	1.40503	0.21747
3202.20061	1.40573	0.21676
3200.70049	1.40643	0.21604
3199.20038	1.40712	0.21532
3197.70027	1.4078	0.21459
3196.20016	1.40846	0.21386
3194.70005	1.40911	0.21312
3193.19993	1.40975	0.21237
3191.69982	1.41039	0.21163
3190.19971	1.41101	0.21088
3188.6996	1.41162	0.21012
3187.19949	1.41221	0.20936
3185.69938	1.41279	0.2086
3184.19926	1.41337	0.20784
3182.69915	1.41393	0.20708
3181.19904	1.41448	0.2063
3179.69893	1.41503	0.20553
3178.19882	1.41555	0.20475
3176.6987	1.41607	0.20398
3175.19859	1.41657	0.2032
3173.69848	1.41707	0.20242
3172.19837	1.41754	0.20164
3170.69826	1.41801	0.20086
3169.19815	1.41846	0.20009
3167.69803	1.4189	0.19931
3166.19792	1.41932	0.19853
3164.69781	1.41975	0.19776
3163.1977	1.42017	0.197
3161.69759	1.42058	0.19622
3160.19747	1.42098	0.19545
3158.69736	1.42138	0.19468
3157.19725	1.42177	0.1939
3155.69714	1.42214	0.19312
3154.19703	1.4225	0.19234
3152.69692	1.42284	0.19155
3151.1968	1.42318	0.19075
3149.69669	1.4235	0.18997
3148.19658	1.42379	0.18918
3146.69647	1.42407	0.1884
3145.19636	1.42434	0.18763
3143.69624	1.42459	0.18686
3142.19613	1.42483	0.1861
3140.69602	1.42506	0.18536
3139.19591	1.42528	0.18462
3137.6958	1.4255	0.1839
3136.19569	1.42571	0.18318
3134.69557	1.42592	0.18248
3133.19546	1.42612	0.18179
3131.69535	1.42634	0.1811
3130.19524	1.42656	0.18041
3128.69513	1.42678	0.17972
3127.19501	1.42701	0.17903
3125.6949	1.42722	0.17833
3124.19479	1.42744	0.17763
3122.69468	1.42766	0.17692
3121.19457	1.42786	0.17619
3119.69446	1.42805	0.17546
3118.19434	1.42822	0.17472
3116.69423	1.42836	0.17399
3115.19412	1.42848	0.17326
3113.69401	1.42859	0.17254
3112.1939	1.42869	0.17183
3110.69378	1.42878	0.17113
3109.19367	1.42886	0.17043
3107.69356	1.42893	0.16974
3106.19345	1.42899	0.16907
3104.69334	1.42904	0.16841
3103.19323	1.4291	0.16775
3101.69311	1.42916	0.1671
3100.193	1.4292	0.16645
3098.69289	1.42924	0.16582
3097.19278	1.42927	0.16518
3095.69267	1.42929	0.16456
3094.19255	1.42932	0.16396
3092.69244	1.42935	0.16335
3091.19233	1.42939	0.16275
3089.69222	1.42943	0.16215
3088.19211	1.42947	0.16155
3086.692	1.4295	0.16094
3085.19188	1.42953	0.16034
3083.69177	1.42956	0.15972
3082.19166	1.42956	0.15911
3080.69155	1.42955	0.1585
3079.19144	1.42954	0.15789
3077.69132	1.4295	0.15729
3076.19121	1.42946	0.15669
3074.6911	1.42939	0.15611
3073.19099	1.42933	0.15554
3071.69088	1.42926	0.155
3070.19077	1.4292	0.15446
3068.69065	1.42913	0.15393
3067.19054	1.42908	0.15341
3065.69043	1.42902	0.15288
3064.19032	1.42896	0.15237
3062.69021	1.4289	0.15187
3061.19009	1.42884	0.15137
3059.68998	1.42878	0.15087
3058.18987	1.42874	0.15038
3056.68976	1.42868	0.14988
3055.18965	1.42862	0.14939
3053.68954	1.42857	0.14889
3052.18942	1.42851	0.1484
3050.68931	1.42846	0.14791
3049.1892	1.42839	0.14742
3047.68909	1.42832	0.14692
3046.18898	1.42825	0.14643
3044.68886	1.42816	0.14593
3043.18875	1.42807	0.14544
3041.68864	1.42797	0.14495
3040.18853	1.42786	0.14446
3038.68842	1.42773	0.14398
3037.18831	1.4276	0.14351
3035.68819	1.42747	0.14306
3034.18808	1.42734	0.14261
3032.68797	1.42718	0.14216
3031.18786	1.42702	0.14173
3029.68775	1.42686	0.14131
3028.18763	1.4267	0.14092
3026.68752	1.42656	0.14053
3025.18741	1.42641	0.14016
3023.6873	1.42628	0.13979
3022.18719	1.42616	0.13942
3020.68708	1.42603	0.13905
3019.18696	1.42593	0.13869
3017.68685	1.42582	0.13833
3016.18674	1.42572	0.13795
3014.68663	1.42561	0.13758
3013.18652	1.42548	0.13719
3011.68641	1.42535	0.13681
3010.18629	1.4252	0.13643
3008.68618	1.42504	0.13607
3007.18607	1.42489	0.13572
3005.68596	1.42473	0.13538
3004.18585	1.42457	0.13506
3002.68573	1.42443	0.13474
3001.18562	1.42428	0.13443
2999.68551	1.42415	0.13412
2998.1854	1.42403	0.13382
2996.68529	1.42391	0.13351
2995.18518	1.4238	0.1332
2993.68506	1.42368	0.13288
2992.18495	1.42355	0.13256
2990.68484	1.42342	0.13225
2989.18473	1.42328	0.13194
2987.68462	1.42314	0.13164
2986.1845	1.423	0.13133
2984.68439	1.42286	0.13104
2983.18428	1.42272	0.13075
2981.68417	1.42258	0.13047
2980.18406	1.42244	0.13019
2978.68395	1.42231	0.12991
2977.18383	1.42217	0.12964
2975.68372	1.42203	0.12936
2974.18361	1.42189	0.12909
2972.6835	1.42175	0.12882
2971.18339	1.42161	0.12855
2969.68327	1.42147	0.12829
2968.18316	1.42132	0.12804
2966.68305	1.42117	0.1278
2965.18294	1.42102	0.12755
2963.68283	1.42088	0.12732
2962.18272	1.42075	0.12709
2960.6826	1.42062	0.12686
2959.18249	1.42048	0.12665
2957.68238	1.42036	0.12643
2956.18227	1.42024	0.1262
2954.68216	1.42012	0.12598
2953.18204	1.41999	0.12577
2951.68193	1.41987	0.12555
2950.18182	1.41974	0.12533
2948.68171	1.41961	0.12513
2947.1816	1.41949	0.12493
2945.68149	1.41936	0.12473
2944.18137	1.41924	0.12453
2942.68126	1.41911	0.12436
2941.18115	1.419	0.12418
2939.68104	1.41889	0.12402
2938.18093	1.4188	0.12387
2936.68081	1.41873	0.12371
2935.1807	1.41866	0.12355
2933.68059	1.41861	0.12339
2932.18048	1.41857	0.12323
2930.68037	1.41856	0.12307
2929.18026	1.41856	0.12288
2927.68014	1.41858	0.12267
2926.18003	1.4186	0.12245
2924.67992	1.41863	0.12219
2923.17981	1.41865	0.12192
2921.6797	1.41865	0.1216
2920.17958	1.41864	0.12127
2918.67947	1.4186	0.12092
2917.17936	1.41852	0.12055
2915.67925	1.4184	0.12017
2914.17914	1.41824	0.11979
2912.67903	1.41803	0.11944
2911.17891	1.41781	0.11911
2909.6788	1.41755	0.11881
2908.17869	1.41729	0.11854
2906.67858	1.41703	0.1183
2905.17847	1.41676	0.11808
2903.67835	1.4165	0.1179
2902.17824	1.41626	0.11773
2900.67813	1.41603	0.11759
2899.17802	1.41582	0.11746
2897.67791	1.41562	0.11733
2896.1778	1.41543	0.11721
2894.67768	1.41525	0.11709
2893.17757	1.41508	0.11699
2891.67746	1.41493	0.11688
2890.17735	1.41476	0.11677
2888.67724	1.41461	0.11666
2887.17712	1.41447	0.11657
2885.67701	1.41434	0.11646
2884.1769	1.41422	0.11636
2882.67679	1.41411	0.11626
2881.17668	1.41399	0.11615
2879.67657	1.41389	0.11604
2878.17645	1.41378	0.11593
2876.67634	1.41367	0.11582
2875.17623	1.41356	0.1157
2873.67612	1.41345	0.11559
2872.17601	1.41332	0.11547
2870.67589	1.4132	0.11537
2869.17578	1.41307	0.11528
2867.67567	1.41296	0.1152
2866.17556	1.41287	0.11513
2864.67545	1.41278	0.11507
2863.17534	1.41272	0.11501
2861.67522	1.41267	0.11495
2860.17511	1.41266	0.11487
2858.675	1.41267	0.11478
2857.17489	1.41269	0.11465
2855.67478	1.4127	0.11451
2854.17466	1.41271	0.11433
2852.67455	1.4127	0.11413
2851.17444	1.41267	0.11391
2849.67433	1.41261	0.11368
2848.17422	1.41252	0.11344
2846.67411	1.41238	0.1132
2845.17399	1.4122	0.11298
2843.67388	1.41203	0.1128
2842.17377	1.41183	0.11264
2840.67366	1.41164	0.11251
2839.17355	1.41146	0.1124
2837.67343	1.41129	0.11229
2836.17332	1.41112	0.11222
2834.67321	1.41098	0.11216
2833.1731	1.41086	0.11211
2831.67299	1.41076	0.11206
2830.17288	1.41067	0.112
2828.67276	1.41059	0.11195
2827.17265	1.41052	0.11188
2825.67254	1.41046	0.11181
2824.17243	1.4104	0.11174
2822.67232	1.41035	0.11165
2821.17221	1.4103	0.11157
2819.67209	1.41026	0.11148
2818.17198	1.41022	0.11138
2816.67187	1.41017	0.11127
2815.17176	1.41013	0.11116
2813.67165	1.41008	0.11105
2812.17153	1.41003	0.11094
2810.67142	1.40999	0.11082
2809.17131	1.40993	0.11069
2807.6712	1.40988	0.11057
2806.17109	1.40983	0.11044
2804.67098	1.40977	0.11031
2803.17086	1.40971	0.11018
2801.67075	1.40966	0.11005
2800.17064	1.40959	0.10991
2798.67053	1.40953	0.10978
2797.17042	1.40947	0.10963
2795.6703	1.40939	0.10949
2794.17019	1.40932	0.10936
2792.67008	1.40924	0.10922
2791.16997	1.40916	0.10908
2789.66986	1.40908	0.10895
2788.16975	1.40899	0.10881
2786.66963	1.4089	0.10868
2785.16952	1.40881	0.10855
2783.66941	1.40871	0.10843
2782.1693	1.40862	0.1083
2780.66919	1.40854	0.10819
2779.16907	1.40845	0.10807
2777.66896	1.40837	0.10795
2776.16885	1.40828	0.10784
2774.66874	1.4082	0.10771
2773.16863	1.40812	0.1076
2771.66852	1.40804	0.10747
2770.1684	1.40796	0.10736
2768.66829	1.40787	0.10723
2767.16818	1.4078	0.10711
2765.66807	1.4077	0.10697
2764.16796	1.40761	0.10685
2762.66784	1.40752	0.10673
2761.16773	1.40743	0.10661
2759.66762	1.40734	0.10649
2758.16751	1.40726	0.10637
2756.6674	1.40716	0.10625
2755.16729	1.40707	0.10612
2753.66717	1.40698	0.106
2752.16706	1.40688	0.10587
2750.66695	1.40678	0.10575
2749.16684	1.40668	0.10561
2747.66673	1.40657	0.10549
2746.16661	1.40646	0.10537
2744.6665	1.40634	0.10525
2743.16639	1.40623	0.10513
2741.66628	1.40611	0.10503
2740.16617	1.40599	0.10492
2738.66606	1.40587	0.10481
2737.16594	1.40575	0.10472
2735.66583	1.40563	0.10463
2734.16572	1.40552	0.10453
2732.66561	1.40541	0.10445
2731.1655	1.40531	0.10436
2729.66538	1.4052	0.10427
2728.16527	1.40511	0.10419
2726.66516	1.40502	0.10411
2725.16505	1.40492	0.10401
2723.66494	1.40483	0.10392
2722.16483	1.40474	0.10383
2720.66471	1.40464	0.10372
2719.1646	1.40455	0.10363
2717.66449	1.40445	0.10353
2716.16438	1.40435	0.10343
2714.66427	1.40425	0.10334
2713.16415	1.40415	0.10324
2711.66404	1.40404	0.10314
2710.16393	1.40394	0.10305
2708.66382	1.40384	0.10296
2707.16371	1.40373	0.10286
2705.6636	1.40363	0.10278
2704.16348	1.40352	0.10269
2702.66337	1.40343	0.1026
2701.16326	1.40334	0.10251
2699.66315	1.40324	0.10242
2698.16304	1.40313	0.10232
2696.66292	1.40303	0.10223
2695.16281	1.40293	0.10215
2693.6627	1.40283	0.10205
2692.16259	1.40273	0.10197
2690.66248	1.40263	0.10188
2689.16237	1.40253	0.10179
2687.66225	1.40244	0.1017
2686.16214	1.40235	0.10161
2684.66203	1.40226	0.10151
2683.16192	1.40217	0.10141
2681.66181	1.40208	0.10131
2680.16169	1.40198	0.1012
2678.66158	1.40188	0.10109
2677.16147	1.40177	0.10098
2675.66136	1.40166	0.10087
2674.16125	1.40155	0.10076
2672.66114	1.40143	0.10066
2671.16102	1.40131	0.10055
2669.66091	1.40119	0.10045
2668.1608	1.40106	0.10035
2666.66069	1.40094	0.10024
2665.16058	1.40081	0.10014
2663.66046	1.40069	0.10005
2662.16035	1.40056	0.09994
2660.66024	1.40045	0.09985
2659.16013	1.40032	0.09974
2657.66002	1.40019	0.09964
2656.15991	1.40005	0.09953
2654.65979	1.39992	0.09943
2653.15968	1.39977	0.09932
2651.65957	1.39962	0.09922
2650.15946	1.39946	0.09912
2648.65935	1.39931	0.09903
2647.15923	1.39914	0.09894
2645.65912	1.39898	0.09885
2644.15901	1.39882	0.09878
2642.6589	1.39865	0.0987
2641.15879	1.39847	0.09864
2639.65868	1.39831	0.09857
2638.15856	1.39815	0.09852
2636.65845	1.39799	0.09846
2635.15834	1.39783	0.09842
2633.65823	1.39768	0.09837
2632.15812	1.39753	0.09832
2630.658	1.39739	0.09828
2629.15789	1.39724	0.09823
2627.65778	1.3971	0.09818
2626.15767	1.39697	0.09813
2624.65756	1.39683	0.09808
2623.15745	1.39669	0.09802
2621.65733	1.39655	0.09797
2620.15722	1.3964	0.09792
2618.65711	1.39625	0.09786
2617.157	1.39609	0.0978
2615.65689	1.39594	0.09776
2614.15678	1.39578	0.09771
2612.65666	1.39561	0.09767
2611.15655	1.39546	0.09763
2609.65644	1.39529	0.09759
2608.15633	1.39514	0.09757
2606.65622	1.39499	0.09755
2605.1561	1.39485	0.09753
2603.65599	1.3947	0.09751
2602.15588	1.39456	0.09748
2600.65577	1.39442	0.09746
2599.15566	1.39429	0.09744
2597.65555	1.39415	0.09742
2596.15543	1.39402	0.0974
2594.65532	1.39389	0.09737
2593.15521	1.39376	0.09735
2591.6551	1.39363	0.09732
2590.15499	1.3935	0.0973
2588.65487	1.39338	0.09728
2587.15476	1.39326	0.09725
2585.65465	1.39314	0.09722
2584.15454	1.39302	0.09719
2582.65443	1.39291	0.09715
2581.15432	1.39278	0.09711
2579.6542	1.39266	0.09707
2578.15409	1.39253	0.09702
2576.65398	1.39241	0.09698
2575.15387	1.39228	0.09693
2573.65376	1.39215	0.09688
2572.15364	1.39201	0.09684
2570.65353	1.39188	0.09679
2569.15342	1.39174	0.09673
2567.65331	1.3916	0.09669
2566.1532	1.39146	0.09663
2564.65309	1.39131	0.09658
2563.15297	1.39116	0.09653
2561.65286	1.391	0.09648
2560.15275	1.39084	0.09643
2558.65264	1.39068	0.09638
2557.15253	1.39051	0.09633
2555.65241	1.39035	0.09629
2554.1523	1.39018	0.09624
2552.65219	1.39002	0.09621
2551.15208	1.38985	0.09617
2549.65197	1.38968	0.09613
2548.15186	1.3895	0.0961
2546.65174	1.38933	0.09606
2545.15163	1.38915	0.09603
2543.65152	1.38897	0.09599
2542.15141	1.38879	0.09595
2540.6513	1.38859	0.09592
2539.15118	1.3884	0.09589
2537.65107	1.3882	0.09587
2536.15096	1.38799	0.09585
2534.65085	1.38779	0.09584
2533.15074	1.3876	0.09583
2531.65063	1.38739	0.09582
2530.15051	1.38719	0.09582
2528.6504	1.38698	0.09582
2527.15029	1.38677	0.09583
2525.65018	1.38657	0.09584
2524.15007	1.38637	0.09585
2522.64995	1.38616	0.09588
2521.14984	1.38595	0.09589
2519.64973	1.38574	0.09592
2518.14962	1.38553	0.09595
2516.64951	1.38532	0.09599
2515.1494	1.38511	0.09604
2513.64928	1.3849	0.09608
2512.14917	1.3847	0.09615
2510.64906	1.3845	0.09622
2509.14895	1.38431	0.09628
2507.64884	1.38412	0.09636
2506.14872	1.38394	0.09644
2504.64861	1.38377	0.09652
2503.1485	1.38362	0.0966
2501.64839	1.38346	0.09667
2500.14828	1.38331	0.09674
2498.64817	1.38316	0.09682
2497.14805	1.38301	0.09688
2495.64794	1.38286	0.09694
2494.14783	1.38271	0.097
2492.64772	1.38257	0.09705
2491.14761	1.38242	0.09712
2489.64749	1.38227	0.09717
2488.14738	1.38212	0.09723
2486.64727	1.38197	0.09728
2485.14716	1.38181	0.09735
2483.64705	1.38165	0.09741
2482.14694	1.3815	0.09747
2480.64682	1.38134	0.09753
2479.14671	1.38119	0.0976
2477.6466	1.38103	0.09767
2476.14649	1.38088	0.09775
2474.64638	1.38073	0.09782
2473.14626	1.38058	0.09789
2471.64615	1.38044	0.09797
2470.14604	1.3803	0.09805
2468.64593	1.38017	0.09812
2467.14582	1.38003	0.09819
2465.64571	1.3799	0.09826
2464.14559	1.37976	0.09834
2462.64548	1.37963	0.0984
2461.14537	1.3795	0.09847
2459.64526	1.37936	0.09854
2458.14515	1.37923	0.09861
2456.64503	1.3791	0.09868
2455.14492	1.37897	0.09875
2453.64481	1.37884	0.09881
2452.1447	1.37871	0.09888
2450.64459	1.37858	0.09894
2449.14448	1.37846	0.099
2447.64436	1.37833	0.09905
2446.14425	1.37819	0.09911
2444.64414	1.37805	0.09916
2443.14403	1.37791	0.09921
2441.64392	1.37776	0.09927
2440.1438	1.37761	0.09932
2438.64369	1.37746	0.09938
2437.14358	1.37729	0.09944
2435.64347	1.37714	0.09951
2434.14336	1.37698	0.09958
2432.64325	1.37681	0.09965
2431.14313	1.37666	0.09973
2429.64302	1.3765	0.09981
2428.14291	1.37635	0.09989
2426.6428	1.37619	0.09996
2425.14269	1.37604	0.10005
2423.64258	1.37588	0.10013
2422.14246	1.37572	0.10022
2420.64235	1.37556	0.1003
2419.14224	1.37539	0.10039
2417.64213	1.37523	0.10048
2416.14202	1.37506	0.10059
2414.6419	1.3749	0.10069
2413.14179	1.37474	0.10079
2411.64168	1.37458	0.1009
2410.14157	1.37442	0.10101
2408.64146	1.37426	0.10113
2407.14135	1.37411	0.10124
2405.64123	1.37395	0.10137
2404.14112	1.3738	0.10149
2402.64101	1.37365	0.10162
2401.1409	1.37351	0.10175
2399.64079	1.37337	0.10189
2398.14067	1.37324	0.10201
2396.64056	1.37311	0.10215
2395.14045	1.37298	0.10227
2393.64034	1.37285	0.1024
2392.14023	1.37274	0.10252
2390.64012	1.37262	0.10263
2389.14	1.37249	0.10275
2387.63989	1.37236	0.10286
2386.13978	1.37222	0.10297
2384.63967	1.37207	0.10307
2383.13956	1.37193	0.1032
2381.63944	1.37177	0.1033
2380.13933	1.37161	0.10343
2378.63922	1.37143	0.10356
2377.13911	1.37126	0.1037
2375.639	1.37109	0.10386
2374.13889	1.37091	0.10402
2372.63877	1.37074	0.1042
2371.13866	1.37057	0.10439
2369.63855	1.37041	0.10461
2368.13844	1.37026	0.10483
2366.63833	1.37014	0.10506
2365.13821	1.37003	0.1053
2363.6381	1.36995	0.10554
2362.13799	1.36987	0.10577
2360.63788	1.36982	0.10601
2359.13777	1.36978	0.10623
2357.63766	1.36976	0.10645
2356.13754	1.36975	0.10665
2354.63743	1.36974	0.10683
2353.13732	1.36974	0.10702
2351.63721	1.36973	0.10718
2350.1371	1.36973	0.10733
2348.63698	1.36972	0.10748
2347.13687	1.36971	0.10761
2345.63676	1.36969	0.10774
2344.13665	1.36967	0.10786
2342.63654	1.36963	0.10799
2341.13643	1.36959	0.10811
2339.63631	1.36956	0.10824
2338.1362	1.36953	0.10836
2336.63609	1.3695	0.10849
2335.13598	1.36947	0.1086
2333.63587	1.36943	0.10872
2332.13575	1.36941	0.10885
2330.63564	1.36938	0.10897
2329.13553	1.36937	0.10908
2327.63542	1.36934	0.10918
2326.13531	1.36931	0.10927
2324.6352	1.36926	0.10936
2323.13508	1.36922	0.10946
2321.63497	1.36917	0.10955
2320.13486	1.36911	0.10964
2318.63475	1.36906	0.10974
2317.13464	1.36899	0.10983
2315.63452	1.36892	0.10992
2314.13441	1.36884	0.11003
2312.6343	1.36877	0.11015
2311.13419	1.3687	0.11027
2309.63408	1.36864	0.11039
2308.13397	1.36858	0.11051
2306.63385	1.36852	0.11063
2305.13374	1.36846	0.11076
2303.63363	1.3684	0.11089
2302.13352	1.36835	0.11102
2300.63341	1.3683	0.11114
2299.13329	1.36826	0.11127
2297.63318	1.36821	0.11139
2296.13307	1.36817	0.11152
2294.63296	1.36812	0.11164
2293.13285	1.36808	0.11175
2291.63274	1.36804	0.11188
2290.13262	1.36799	0.11199
2288.63251	1.36794	0.11211
2287.1324	1.3679	0.11223
2285.63229	1.36785	0.11235
2284.13218	1.3678	0.11247
2282.63206	1.36776	0.1126
2281.13195	1.36772	0.11272
2279.63184	1.36767	0.11285
2278.13173	1.36763	0.11297
2276.63162	1.3676	0.1131
2275.13151	1.36755	0.11323
2273.63139	1.36752	0.11336
2272.13128	1.36749	0.11349
2270.63117	1.36746	0.11361
2269.13106	1.36743	0.11375
2267.63095	1.3674	0.11387
2266.13083	1.36738	0.11401
2264.63072	1.36737	0.11414
2263.13061	1.36736	0.11427
2261.6305	1.36735	0.11441
2260.13039	1.36735	0.11453
2258.63028	1.36735	0.11466
2257.13016	1.36736	0.11478
2255.63005	1.36738	0.1149
2254.12994	1.3674	0.11501
2252.62983	1.36743	0.1151
2251.12972	1.36744	0.1152
2249.6296	1.36746	0.11528
2248.12949	1.36748	0.11537
2246.62938	1.3675	0.11544
2245.12927	1.36751	0.11551
2243.62916	1.36752	0.11558
2242.12905	1.36752	0.11564
2240.62893	1.36753	0.1157
2239.12882	1.36752	0.11576
2237.62871	1.36752	0.11582
2236.1286	1.36752	0.11588
2234.62849	1.36751	0.11593
2233.12838	1.36751	0.11598
2231.62826	1.36751	0.11603
2230.12815	1.36751	0.11608
2228.62804	1.36751	0.11611
2227.12793	1.3675	0.11614
2225.62782	1.36749	0.11617
2224.1277	1.36748	0.11619
2222.62759	1.36746	0.11621
2221.12748	1.36743	0.11621
2219.62737	1.36739	0.11623
2218.12726	1.36734	0.11624
2216.62715	1.36728	0.11625
2215.12703	1.36722	0.11626
2213.62692	1.36715	0.11628
2212.12681	1.36708	0.1163
2210.6267	1.367	0.11632
2209.12659	1.36693	0.11635
2207.62647	1.36685	0.11638
2206.12636	1.36676	0.11642
2204.62625	1.36667	0.11645
2203.12614	1.36658	0.11649
2201.62603	1.36649	0.11652
2200.12592	1.3664	0.11657
2198.6258	1.36632	0.11662
2197.12569	1.36622	0.11666
2195.62558	1.36613	0.11671
2194.12547	1.36603	0.11676
2192.62536	1.36594	0.1168
2191.12524	1.36584	0.11686
2189.62513	1.36575	0.11692
2188.12502	1.36564	0.11697
2186.62491	1.36553	0.11702
2185.1248	1.36542	0.11708
2183.62469	1.3653	0.11716
2182.12457	1.36519	0.11722
2180.62446	1.36507	0.1173
2179.12435	1.36496	0.11739
2177.62424	1.36485	0.11747
2176.12413	1.36475	0.11757
2174.62401	1.36464	0.11766
2173.1239	1.36455	0.11775
2171.62379	1.36444	0.11786
2170.12368	1.36436	0.11795
2168.62357	1.36427	0.11805
2167.12346	1.36418	0.11815
2165.62334	1.3641	0.11825
2164.12323	1.36402	0.11835
2162.62312	1.36394	0.11846
2161.12301	1.36387	0.11855
2159.6229	1.3638	0.11864
2158.12278	1.36372	0.11874
2156.62267	1.36365	0.11883
2155.12256	1.36358	0.11892
2153.62245	1.36351	0.11902
2152.12234	1.36345	0.11911
2150.62223	1.36339	0.1192
2149.12211	1.36332	0.11929
2147.622	1.36326	0.11937
2146.12189	1.3632	0.11946
2144.62178	1.36315	0.11955
2143.12167	1.3631	0.11963
2141.62155	1.36304	0.11971
2140.12144	1.36299	0.11978
2138.62133	1.36295	0.11985
2137.12122	1.3629	0.11992
2135.62111	1.36286	0.11998
2134.121	1.36282	0.12002
2132.62088	1.36278	0.12007
2131.12077	1.36273	0.1201
2129.62066	1.36268	0.12013
2128.12055	1.36263	0.12016
2126.62044	1.36257	0.12018
2125.12032	1.3625	0.12019
2123.62021	1.36243	0.1202
2122.1201	1.36235	0.1202
2120.61999	1.36226	0.1202
2119.11988	1.36217	0.1202
2117.61977	1.36206	0.12019
2116.11965	1.36195	0.12019
2114.61954	1.36182	0.12019
2113.11943	1.3617	0.12019
2111.61932	1.36156	0.12019
2110.11921	1.36141	0.12019
2108.61909	1.36126	0.1202
2107.11898	1.36111	0.12021
2105.61887	1.36095	0.12023
2104.11876	1.3608	0.12026
2102.61865	1.36064	0.12027
2101.11854	1.36048	0.12029
2099.61842	1.36031	0.12032
2098.11831	1.36014	0.12034
2096.6182	1.35997	0.12037
2095.11809	1.35979	0.12039
2093.61798	1.35961	0.12042
2092.11786	1.35941	0.12045
2090.61775	1.35922	0.12047
2089.11764	1.35902	0.12051
2087.61753	1.35882	0.12054
2086.11742	1.3586	0.12059
2084.61731	1.35839	0.12063
2083.11719	1.35816	0.12069
2081.61708	1.35795	0.12075
2080.11697	1.35771	0.12081
2078.61686	1.35748	0.12088
2077.11675	1.35725	0.12097
2075.61663	1.35703	0.12105
2074.11652	1.3568	0.12114
2072.61641	1.35657	0.12124
2071.1163	1.35635	0.12134
2069.61619	1.35613	0.12144
2068.11608	1.35591	0.12154
2066.61596	1.35569	0.12164
2065.11585	1.35547	0.12173
2063.61574	1.35524	0.12184
2062.11563	1.355	0.12194
2060.61552	1.35477	0.12205
2059.1154	1.35453	0.12216
2057.61529	1.35429	0.12229
2056.11518	1.35405	0.12242
2054.61507	1.35382	0.12255
2053.11496	1.35358	0.12269
2051.61485	1.35335	0.12284
2050.11473	1.35313	0.12298
2048.61462	1.35292	0.12312
2047.11451	1.35271	0.12326
2045.6144	1.35249	0.12339
2044.11429	1.35227	0.12353
2042.61418	1.35204	0.12366
2041.11406	1.35182	0.1238
2039.61395	1.35159	0.12393
2038.11384	1.35136	0.12407
2036.61373	1.35113	0.12421
2035.11362	1.35089	0.12435
2033.6135	1.35065	0.12449
2032.11339	1.35042	0.12463
2030.61328	1.35017	0.12478
2029.11317	1.34994	0.12493
2027.61306	1.34971	0.12508
2026.11295	1.34947	0.12522
2024.61283	1.34923	0.12537
2023.11272	1.34898	0.12551
2021.61261	1.34873	0.12566
2020.1125	1.34848	0.1258
2018.61239	1.34822	0.12596
2017.11227	1.34797	0.1261
2015.61216	1.34771	0.12625
2014.11205	1.34743	0.12639
2012.61194	1.34715	0.12654
2011.11183	1.34687	0.1267
2009.61172	1.34658	0.12685
2008.1116	1.34628	0.12702
2006.61149	1.34598	0.12719
2005.11138	1.34567	0.12736
2003.61127	1.34537	0.12755
2002.11116	1.34507	0.12774
2000.61104	1.34477	0.12794
1999.11093	1.34447	0.12812
1997.61082	1.34416	0.12832
1996.11071	1.34385	0.12851
1994.6106	1.34355	0.1287
1993.11049	1.34323	0.12889
1991.61037	1.34292	0.12908
1990.11026	1.34257	0.12926
1988.61015	1.34222	0.12946
1987.11004	1.34185	0.12966
1985.60993	1.34146	0.12987
1984.10981	1.34107	0.1301
1982.6097	1.34067	0.13034
1981.10959	1.34027	0.1306
1979.60948	1.33986	0.13088
1978.10937	1.33945	0.13117
1976.60926	1.33906	0.13148
1975.10914	1.33866	0.1318
1973.60903	1.33827	0.13212
1972.10892	1.33787	0.13247
1970.60881	1.33748	0.13281
1969.1087	1.3371	0.13317
1967.60858	1.33672	0.13353
1966.10847	1.33633	0.1339
1964.60836	1.33594	0.13427
1963.10825	1.33555	0.13466
1961.60814	1.33517	0.13507
1960.10803	1.33478	0.13548
1958.60791	1.3344	0.13591
1957.1078	1.33401	0.13636
1955.60769	1.33364	0.13681
1954.10758	1.33329	0.13728
1952.60747	1.33294	0.13776
1951.10735	1.33261	0.13824
1949.60724	1.33229	0.13873
1948.10713	1.33197	0.13921
1946.60702	1.33167	0.13969
1945.10691	1.33137	0.14018
1943.6068	1.33106	0.14065
1942.10668	1.33075	0.14112
1940.60657	1.33042	0.14159
1939.10646	1.33007	0.14209
1937.60635	1.32973	0.14261
1936.10624	1.32939	0.14314
1934.60612	1.32906	0.1437
1933.10601	1.32873	0.14427
1931.6059	1.32843	0.14486
1930.10579	1.32814	0.14547
1928.60568	1.32788	0.14607
1927.10557	1.32766	0.14669
1925.60545	1.32744	0.14729
1924.10534	1.32724	0.14788
1922.60523	1.32705	0.14845
1921.10512	1.32684	0.14902
1919.60501	1.32664	0.14958
1918.10489	1.32644	0.15014
1916.60478	1.32621	0.15068
1915.10467	1.32597	0.15124
1913.60456	1.32572	0.15181
1912.10445	1.32546	0.1524
1910.60434	1.32521	0.15299
1909.10422	1.32495	0.15361
1907.60411	1.3247	0.15424
1906.104	1.32445	0.15487
1904.60389	1.32422	0.15554
1903.10378	1.324	0.15622
1901.60366	1.3238	0.15691
1900.10355	1.32362	0.15761
1898.60344	1.32344	0.15831
1897.10333	1.32329	0.159
1895.60322	1.32314	0.1597
1894.10311	1.323	0.16039
1892.60299	1.32287	0.16108
1891.10288	1.32273	0.16176
1889.60277	1.3226	0.16245
1888.10266	1.32244	0.16314
1886.60255	1.32229	0.16383
1885.10243	1.32211	0.16454
1883.60232	1.32195	0.16529
1882.10221	1.3218	0.16606
1880.6021	1.32168	0.16686
1879.10199	1.3216	0.16767
1877.60188	1.32153	0.16847
1876.10176	1.3215	0.16926
1874.60165	1.32148	0.17006
1873.10154	1.32149	0.17085
1871.60143	1.32151	0.17162
1870.10132	1.32156	0.17237
1868.6012	1.32158	0.17308
1867.10109	1.32156	0.17377
1865.60098	1.3215	0.17447
1864.10087	1.32142	0.17519
1862.60076	1.32132	0.17595
1861.10065	1.32123	0.17675
1859.60053	1.32114	0.17757
1858.10042	1.32106	0.17844
1856.60031	1.32101	0.17934
1855.1002	1.32101	0.18028
1853.60009	1.32107	0.18122
1852.09997	1.32117	0.18217
1850.59986	1.3213	0.1831
1849.09975	1.32147	0.18403
1847.59964	1.32167	0.18492
1846.09953	1.32187	0.18579
1844.59942	1.32206	0.18664
1843.0993	1.32224	0.18747
1841.59919	1.32241	0.18831
1840.09908	1.32257	0.18917
1838.59897	1.32275	0.19004
1837.09886	1.32295	0.19092
1835.59875	1.32317	0.19181
1834.09863	1.32341	0.19268
1832.59852	1.32367	0.19357
1831.09841	1.32396	0.19445
1829.5983	1.32427	0.1953
1828.09819	1.32457	0.19614
1826.59807	1.32486	0.19696
1825.09796	1.32513	0.19777
1823.59785	1.32539	0.1986
1822.09774	1.32564	0.19945
1820.59763	1.32589	0.20032
1819.09752	1.32614	0.2012
1817.5974	1.32641	0.20212
1816.09729	1.3267	0.20307
1814.59718	1.32703	0.20405
1813.09707	1.32741	0.20504
1811.59696	1.32783	0.20604
1810.09684	1.32831	0.20702
1808.59673	1.32879	0.20799
1807.09662	1.3293	0.20895
1805.59651	1.32984	0.20992
1804.0964	1.33044	0.21087
1802.59629	1.33107	0.2118
1801.09617	1.33174	0.21269
1799.59606	1.33239	0.21352
1798.09595	1.33304	0.21434
1796.59584	1.33369	0.21515
1795.09573	1.33434	0.21595
1793.59561	1.33502	0.21672
1792.0955	1.33568	0.21747
1790.59539	1.33629	0.21818
1789.09528	1.33686	0.21892
1787.59517	1.33742	0.2197
1786.09506	1.338	0.22055
1784.59494	1.33865	0.22143
1783.09483	1.33935	0.22232
1781.59472	1.34009	0.22319
1780.09461	1.34089	0.22405
1778.5945	1.34172	0.22489
1777.09438	1.34259	0.22572
1775.59427	1.34353	0.22653
1774.09416	1.3445	0.22728
1772.59405	1.34549	0.22795
1771.09394	1.34643	0.22855
1769.59383	1.34733	0.22912
1768.09371	1.34817	0.22969
1766.5936	1.349	0.23027
1765.09349	1.34981	0.23089
1763.59338	1.35064	0.23154
1762.09327	1.35151	0.23221
1760.59315	1.3524	0.23289
1759.09304	1.35333	0.23357
1757.59293	1.35432	0.23427
1756.09282	1.35536	0.23497
1754.59271	1.35646	0.23565
1753.0926	1.35762	0.23629
1751.59248	1.35885	0.23688
1750.09237	1.36007	0.23738
1748.59226	1.36129	0.23782
1747.09215	1.36248	0.23825
1745.59204	1.3637	0.23865
1744.09192	1.36497	0.23902
1742.59181	1.36625	0.23932
1741.0917	1.36753	0.23956
1739.59159	1.3688	0.23972
1738.09148	1.37	0.23984
1736.59137	1.3712	0.23994
1735.09125	1.3724	0.24
1733.59114	1.37354	0.24
1732.09103	1.37459	0.23997
1730.59092	1.37557	0.23998
1729.09081	1.37654	0.24004
1727.59069	1.37753	0.24014
1726.09058	1.37856	0.24024
1724.59047	1.37965	0.24034
1723.09036	1.38074	0.24042
1721.59025	1.38186	0.24048
1720.09014	1.38303	0.24053
1718.59002	1.38426	0.24053
1717.08991	1.38549	0.24042
1715.5898	1.38663	0.24022
1714.08969	1.38767	0.24
1712.58958	1.38867	0.23981
1711.08946	1.38968	0.23965
1709.58935	1.39071	0.2395
1708.08924	1.39179	0.23934
1706.58913	1.39288	0.2391
1705.08902	1.39396	0.23882
1703.58891	1.39501	0.2385
1702.08879	1.39609	0.23816
1700.58868	1.39715	0.23776
1699.08857	1.3981	0.23727
1697.58846	1.39896	0.23676
1696.08835	1.39973	0.23626
1694.58823	1.40043	0.23576
1693.08812	1.40104	0.23532
1691.58801	1.40165	0.23496
1690.0879	1.40226	0.23465
1688.58779	1.40288	0.23441
1687.08768	1.40356	0.23421
1685.58756	1.40431	0.23402
1684.08745	1.40508	0.23379
1682.58734	1.40581	0.23352
1681.08723	1.40651	0.23328
1679.58712	1.40723	0.23305
1678.087	1.40795	0.23284
1676.58689	1.40869	0.23263
1675.08678	1.40943	0.23242
1673.58667	1.41016	0.2322
1672.08656	1.41087	0.232
1670.58645	1.41159	0.23183
1669.08633	1.41232	0.23171
1667.58622	1.41305	0.23165
1666.08611	1.41385	0.23168
1664.586	1.41479	0.23173
1663.08589	1.41584	0.23175
1661.58577	1.41695	0.23174
1660.08566	1.41816	0.23174
1658.58555	1.41952	0.23171
1657.08544	1.42104	0.23158
1655.58533	1.42272	0.23131
1654.08522	1.42447	0.23082
1652.5851	1.42614	0.23006
1651.08499	1.42762	0.22917
1649.58488	1.42902	0.22823
1648.08477	1.43042	0.22724
1646.58466	1.43177	0.22612
1645.08455	1.43299	0.22489
1643.58443	1.43406	0.22362
1642.08432	1.43503	0.22238
1640.58421	1.43597	0.22118
1639.0841	1.43697	0.22002
1637.58399	1.43803	0.2188
1636.08387	1.43908	0.21746
1634.58376	1.44001	0.216
1633.08365	1.44081	0.21452
1631.58354	1.44158	0.21306
1630.08343	1.44236	0.21158
1628.58332	1.44311	0.21004
1627.0832	1.44381	0.20841
1625.58309	1.44441	0.2067
1624.08298	1.4449	0.20494
1622.58287	1.44529	0.20316
1621.08276	1.4456	0.20138
1619.58264	1.44586	0.19959
1618.08253	1.44603	0.19774
1616.58242	1.44606	0.19585
1615.08231	1.44591	0.19394
1613.5822	1.44562	0.19209
1612.08209	1.44521	0.19033
1610.58197	1.44474	0.18863
1609.08186	1.44421	0.18701
1607.58175	1.44362	0.18545
1606.08164	1.44298	0.18394
1604.58153	1.44228	0.18249
1603.08141	1.44156	0.18114
1601.5813	1.44082	0.17983
1600.08119	1.44005	0.17857
1598.58108	1.43925	0.17736
1597.08097	1.4384	0.17618
1595.58086	1.43753	0.17507
1594.08074	1.43661	0.174
1592.58063	1.43565	0.173
1591.08052	1.43467	0.1721
1589.58041	1.43369	0.17127
1588.0803	1.43275	0.17052
1586.58018	1.43183	0.16982
1585.08007	1.43093	0.16916
1583.57996	1.43003	0.16855
1582.07985	1.42919	0.16799
1580.57974	1.42839	0.16746
1579.07963	1.42764	0.16693
1577.57951	1.4269	0.16637
1576.0794	1.42611	0.1658
1574.57929	1.42524	0.16527
1573.07918	1.42435	0.16484
1571.57907	1.42356	0.16451
1570.07895	1.42289	0.16416
1568.57884	1.42224	0.16378
1567.07873	1.4216	0.16339
1565.57862	1.42098	0.16298
1564.07851	1.42038	0.16258
1562.5784	1.41986	0.16216
1561.07828	1.41939	0.16167
1559.57817	1.41887	0.16104
1558.07806	1.41814	0.16031
1556.57795	1.4172	0.15962
1555.07784	1.41616	0.15908
1553.57772	1.41513	0.15867
1552.07761	1.41415	0.15836
1550.5775	1.41321	0.15808
1549.07739	1.41228	0.15784
1547.57728	1.41137	0.15766
1546.07717	1.41055	0.15755
1544.57705	1.40988	0.15745
1543.07694	1.4093	0.15729
1541.57683	1.40872	0.157
1540.07672	1.40802	0.15662
1538.57661	1.40715	0.15623
1537.07649	1.40617	0.1559
1535.57638	1.40516	0.15568
1534.07627	1.40417	0.15554
1532.57616	1.40318	0.15544
1531.07605	1.40218	0.15543
1529.57594	1.40124	0.15549
1528.07582	1.40039	0.15563
1526.57571	1.39966	0.15578
1525.0756	1.399	0.15592
1523.57549	1.39841	0.15602
1522.07538	1.3978	0.15607
1520.57526	1.39717	0.15609
1519.07515	1.39657	0.15611
1517.57504	1.39599	0.15609
1516.07493	1.39539	0.15601
1514.57482	1.39472	0.15593
1513.07471	1.39405	0.15585
1511.57459	1.39338	0.1558
1510.07448	1.39273	0.15575
1508.57437	1.39211	0.15565
1507.07426	1.39143	0.15547
1505.57415	1.39059	0.15527
1504.07403	1.38962	0.15515
1502.57392	1.38863	0.15516
1501.07381	1.38771	0.15525
1499.5737	1.38683	0.15536
1498.07359	1.38596	0.15549
1496.57348	1.38506	0.15561
1495.07336	1.38414	0.15581
1493.57325	1.38328	0.15609
1492.07314	1.38252	0.15642
1490.57303	1.38183	0.15672
1489.07292	1.38112	0.15697
1487.5728	1.38036	0.15722
1486.07269	1.37958	0.15751
1484.57258	1.37885	0.15784
1483.07247	1.37818	0.15821
1481.57236	1.37756	0.15856
1480.07225	1.37696	0.1589
1478.57213	1.37638	0.15924
1477.07202	1.37585	0.15957
1475.57191	1.37535	0.15986
1474.0718	1.37485	0.1601
1472.57169	1.3743	0.1603
1471.07157	1.3737	0.16051
1469.57146	1.37306	0.16075
1468.07135	1.37249	0.16102
1466.57124	1.37194	0.16128
1465.07113	1.37139	0.16151
1463.57102	1.37081	0.16172
1462.0709	1.37023	0.16195
1460.57079	1.36968	0.16219
1459.07068	1.36919	0.16241
1457.57057	1.3687	0.16254
1456.07046	1.3681	0.16261
1454.57035	1.36738	0.16267
1453.07023	1.36658	0.16279
1451.57012	1.36574	0.16298
1450.07001	1.36492	0.16326
1448.5699	1.36411	0.16356
1447.06979	1.36331	0.16389
1445.56967	1.36249	0.16427
1444.06956	1.3617	0.16471
1442.56945	1.36098	0.16521
1441.06934	1.36034	0.16573
1439.56923	1.35977	0.16622
1438.06912	1.35921	0.16668
1436.569	1.35864	0.16709
1435.06889	1.35803	0.16749
1433.56878	1.35741	0.16791
1432.06867	1.35681	0.16837
1430.56856	1.35623	0.16882
1429.06844	1.35569	0.16927
1427.56833	1.35514	0.16969
1426.06822	1.35459	0.17012
1424.56811	1.35405	0.17054
1423.068	1.35353	0.17095
1421.56789	1.35302	0.17135
1420.06777	1.35253	0.17171
1418.56766	1.35198	0.17203
1417.06755	1.35136	0.17234
1415.56744	1.35071	0.17268
1414.06733	1.35001	0.17305
1412.56721	1.34931	0.17346
1411.0671	1.3486	0.17391
1409.56699	1.34791	0.17442
1408.06688	1.34725	0.17495
1406.56677	1.34663	0.17551
1405.06666	1.34607	0.17608
1403.56654	1.34553	0.17663
1402.06643	1.34503	0.17718
1400.56632	1.34456	0.17771
1399.06621	1.34411	0.17819
1397.5661	1.34365	0.17863
1396.06598	1.34317	0.17902
1394.56587	1.34263	0.17938
1393.06576	1.34202	0.17974
1391.56565	1.34137	0.18012
1390.06554	1.3407	0.18054
1388.56543	1.34004	0.18099
1387.06531	1.33934	0.18144
1385.5652	1.33864	0.18193
1384.06509	1.33793	0.18246
1382.56498	1.33724	0.18303
1381.06487	1.33658	0.18364
1379.56475	1.33595	0.18425
1378.06464	1.33535	0.18486
1376.56453	1.33478	0.18548
1375.06442	1.33421	0.18609
1373.56431	1.33365	0.18668
1372.0642	1.33309	0.18726
1370.56408	1.33253	0.18785
1369.06397	1.33197	0.18842
1367.56386	1.33141	0.18899
1366.06375	1.33086	0.18955
1364.56364	1.3303	0.19012
1363.06352	1.32972	0.19066
1361.56341	1.32913	0.1912
1360.0633	1.32851	0.19174
1358.56319	1.32788	0.1923
1357.06308	1.32724	0.19288
1355.56297	1.32659	0.19346
1354.06285	1.32593	0.19407
1352.56274	1.32527	0.1947
1351.06263	1.32462	0.19535
1349.56252	1.32399	0.19602
1348.06241	1.32337	0.19671
1346.56229	1.32278	0.19739
1345.06218	1.32221	0.19807
1343.56207	1.32165	0.19875
1342.06196	1.32111	0.19941
1340.56185	1.32056	0.20005
1339.06174	1.32002	0.20067
1337.56162	1.31944	0.20127
1336.06151	1.31885	0.20186
1334.5614	1.31824	0.20247
1333.06129	1.31762	0.20307
1331.56118	1.317	0.20368
1330.06106	1.31636	0.20429
1328.56095	1.31572	0.20491
1327.06084	1.31507	0.20552
1325.56073	1.31443	0.20614
1324.06062	1.31378	0.20675
1322.56051	1.31313	0.20737
1321.06039	1.31248	0.20797
1319.56028	1.31181	0.20856
1318.06017	1.31112	0.20915
1316.56006	1.31041	0.20971
1315.05995	1.30968	0.21028
1313.55983	1.30892	0.21084
1312.05972	1.30813	0.21139
1310.55961	1.30732	0.21196
1309.0595	1.30648	0.21252
1307.55939	1.30561	0.2131
1306.05928	1.30471	0.21367
1304.55916	1.30378	0.21426
1303.05905	1.30283	0.21486
1301.55894	1.30186	0.21547
1300.05883	1.30085	0.2161
1298.55872	1.29982	0.21674
1297.0586	1.29877	0.21738
1295.55849	1.29768	0.21803
1294.05838	1.29656	0.2187
1292.55827	1.29539	0.21939
1291.05816	1.2942	0.22009
1289.55805	1.29297	0.22081
1288.05793	1.2917	0.22154
1286.55782	1.29038	0.2223
1285.05771	1.28902	0.22308
1283.5576	1.2876	0.2239
1282.05749	1.28614	0.22475
1280.55737	1.28464	0.22565
1279.05726	1.28309	0.22658
1277.55715	1.28149	0.22757
1276.05704	1.27984	0.2286
1274.55693	1.27815	0.2297
1273.05682	1.27642	0.23085
1271.5567	1.27464	0.23207
1270.05659	1.27283	0.23337
1268.55648	1.27097	0.23474
1267.05637	1.26908	0.23618
1265.55626	1.26714	0.23771
1264.05615	1.26517	0.23933
1262.55603	1.26318	0.24105
1261.05592	1.26116	0.24288
1259.55581	1.25911	0.24481
1258.0557	1.25705	0.24686
1256.55559	1.25499	0.24903
1255.05547	1.25292	0.25135
1253.55536	1.25088	0.25379
1252.05525	1.24884	0.25637
1250.55514	1.24686	0.2591
1249.05503	1.24492	0.26197
1247.55492	1.24305	0.26499
1246.0548	1.24126	0.26815
1244.55469	1.23955	0.27143
1243.05458	1.23795	0.27484
1241.55447	1.23647	0.27838
1240.05436	1.23512	0.28202
1238.55424	1.2339	0.28576
1237.05413	1.23282	0.28957
1235.55402	1.23187	0.29345
1234.05391	1.23107	0.29738
1232.5538	1.23041	0.30136
1231.05369	1.2299	0.30537
1229.55357	1.22953	0.30939
1228.05346	1.22928	0.31342
1226.55335	1.22916	0.31744
1225.05324	1.22918	0.32145
1223.55313	1.22931	0.32543
1222.05301	1.22956	0.32938
1220.5529	1.2299	0.33329
1219.05279	1.23033	0.33716
1217.55268	1.23082	0.34097
1216.05257	1.23139	0.34475
1214.55246	1.23201	0.34847
1213.05234	1.23268	0.35216
1211.55223	1.23338	0.35581
1210.05212	1.23411	0.35943
1208.55201	1.23487	0.36304
1207.0519	1.23564	0.36663
1205.55178	1.23644	0.37023
1204.05167	1.23726	0.37384
1202.55156	1.23811	0.37747
1201.05145	1.239	0.38114
1199.55134	1.23992	0.38483
1198.05123	1.2409	0.38856
1196.55111	1.24194	0.39234
1195.051	1.24303	0.39615
1193.55089	1.24422	0.40002
1192.05078	1.24548	0.40392
1190.55067	1.24684	0.40786
1189.05055	1.24831	0.41183
1187.55044	1.24988	0.41583
1186.05033	1.25158	0.41984
1184.55022	1.2534	0.42386
1183.05011	1.25535	0.42788
1181.55	1.25744	0.43189
1180.04988	1.25964	0.43587
1178.54977	1.26199	0.43982
1177.04966	1.26446	0.44373
1175.54955	1.26707	0.44756
1174.04944	1.26979	0.45134
1172.54932	1.27262	0.45504
1171.04921	1.27555	0.45867
1169.5491	1.27858	0.4622
1168.04899	1.28169	0.46565
1166.54888	1.28488	0.46901
1165.04877	1.28815	0.47227
1163.54865	1.29149	0.47544
1162.04854	1.29489	0.47853
1160.54843	1.29834	0.48152
1159.04832	1.30185	0.48443
1157.54821	1.30542	0.48724
1156.04809	1.30903	0.48996
1154.54798	1.3127	0.49259
1153.04787	1.3164	0.49512
1151.54776	1.32014	0.49757
1150.04765	1.3239	0.49991
1148.54754	1.3277	0.50216
1147.04742	1.33152	0.50432
1145.54731	1.33534	0.50637
1144.0472	1.33918	0.50834
1142.54709	1.343	0.51022
1141.04698	1.34683	0.51201
1139.54686	1.35065	0.51374
1138.04675	1.35445	0.51538
1136.54664	1.35823	0.51697
1135.04653	1.36199	0.51851
1133.54642	1.36572	0.52
1132.04631	1.36945	0.52147
1130.54619	1.37318	0.5229
1129.04608	1.37689	0.52433
1127.54597	1.38061	0.52574
1126.04586	1.38435	0.52714
1124.54575	1.38811	0.52854
1123.04563	1.39192	0.52994
1121.54552	1.3958	0.53133
1120.04541	1.39972	0.5327
1118.5453	1.40373	0.53405
1117.04519	1.40782	0.53536
1115.54508	1.412	0.53662
1114.04496	1.41628	0.53782
1112.54485	1.42065	0.53894
1111.04474	1.42511	0.53994
1109.54463	1.42966	0.54084
1108.04452	1.43429	0.54159
1106.5444	1.43897	0.54219
1105.04429	1.4437	0.54264
1103.54418	1.44846	0.54291
1102.04407	1.45323	0.543
1100.54396	1.45799	0.54291
1099.04385	1.46271	0.54264
1097.54373	1.46739	0.54219
1096.04362	1.47198	0.54157
1094.54351	1.47648	0.54079
1093.0434	1.48088	0.53985
1091.54329	1.48515	0.53879
1090.04317	1.48928	0.5376
1088.54306	1.49325	0.53632
1087.04295	1.49708	0.53496
1085.54284	1.50073	0.53353
1084.04273	1.5042	0.53209
1082.54262	1.5075	0.53063
1081.0425	1.51063	0.52919
1079.54239	1.51358	0.52781
1078.04228	1.51638	0.52652
1076.54217	1.51903	0.52534
1075.04206	1.52157	0.5243
1073.54194	1.52402	0.52345
1072.04183	1.52642	0.52281
1070.54172	1.52882	0.5224
1069.04161	1.53128	0.52223
1067.5415	1.53385	0.5223
1066.04139	1.53661	0.52259
1064.54127	1.53962	0.5231
1063.04116	1.54292	0.52377
1061.54105	1.54659	0.52453
1060.04094	1.55066	0.52535
1058.54083	1.55515	0.5261
1057.04072	1.56008	0.52671
1055.5406	1.56541	0.52707
1054.04049	1.57109	0.52711
1052.54038	1.57707	0.52676
1051.04027	1.58329	0.52596
1049.54016	1.58966	0.52465
1048.04004	1.59607	0.52281
1046.53993	1.60245	0.52044
1045.03982	1.6087	0.51756
1043.53971	1.61476	0.51422
1042.0396	1.62056	0.51046
1040.53949	1.6261	0.50631
1039.03937	1.63131	0.50186
1037.53926	1.6362	0.49715
1036.03915	1.64075	0.49221
1034.53904	1.64498	0.48709
1033.03893	1.64891	0.48186
1031.53881	1.65253	0.4765
1030.0387	1.65586	0.47103
1028.53859	1.65889	0.46551
1027.03848	1.66164	0.45992
1025.53837	1.66411	0.45427
1024.03826	1.6663	0.44859
1022.53814	1.66822	0.44289
1021.03803	1.66985	0.43717
1019.53792	1.67121	0.43146
1018.03781	1.67229	0.42578
1016.5377	1.67311	0.42014
1015.03758	1.67367	0.41454
1013.53747	1.67398	0.40898
1012.03736	1.67402	0.40349
1010.53725	1.6738	0.39808
1009.03714	1.67333	0.39276
1007.53703	1.67259	0.38754
1006.03691	1.67157	0.38244
1004.5368	1.67027	0.37748
1003.03669	1.66868	0.37269
1001.53658	1.6668	0.36813
1000.03647	1.66463	0.36384
998.53635	1.66222	0.35988
997.03624	1.65961	0.3563
995.53613	1.65687	0.35314
994.03602	1.65409	0.35043
992.53591	1.65134	0.34818
991.0358	1.64876	0.34637
989.53568	1.6464	0.34498
988.03557	1.64438	0.34391
986.53546	1.64275	0.34311
985.03535	1.64155	0.34244
983.53524	1.64077	0.34181
982.03512	1.64036	0.3411
980.53501	1.64027	0.34024
979.0349	1.64041	0.33914
977.53479	1.64069	0.33778
976.03468	1.64104	0.33614
974.53457	1.64134	0.33421
973.03445	1.64154	0.33204
971.53434	1.64157	0.32966
970.03423	1.64142	0.32712
968.53412	1.64105	0.32448
967.03401	1.64046	0.32179
965.53389	1.63968	0.31908
964.03378	1.6387	0.3164
962.53367	1.63755	0.31378
961.03356	1.63625	0.31121
959.53345	1.6348	0.30873
958.03334	1.63324	0.30635
956.53322	1.63155	0.30406
955.03311	1.62976	0.30188
953.533	1.62788	0.29981
952.03289	1.6259	0.29786
950.53278	1.62385	0.29603
949.03266	1.62174	0.29433
947.53255	1.61956	0.29276
946.03244	1.61733	0.29133
944.53233	1.61505	0.29003
943.03222	1.61275	0.28888
941.53211	1.61042	0.28788
940.03199	1.60807	0.28702
938.53188	1.60573	0.28633
937.03177	1.6034	0.28577
935.53166	1.60108	0.28537
934.03155	1.5988	0.28512
932.53143	1.59657	0.28503
931.03132	1.59439	0.28508
929.53121	1.59228	0.28528
928.0311	1.59025	0.28562
926.53099	1.58831	0.28609
925.03088	1.58648	0.28669
923.53076	1.58477	0.28741
922.03065	1.58319	0.28824
920.53054	1.58174	0.28917
919.03043	1.58045	0.29018
917.53032	1.57932	0.29127
916.0302	1.57836	0.29242
914.53009	1.57757	0.29361
913.02998	1.57697	0.29482
911.52987	1.57655	0.29603
910.02976	1.57631	0.29722
908.52965	1.57626	0.29837
907.02953	1.57639	0.29945
905.52942	1.57668	0.30044
904.02931	1.57712	0.30131
902.5292	1.57769	0.30206
901.02909	1.57837	0.30266
899.52897	1.57913	0.30309
898.02886	1.57996	0.30336
896.52875	1.58083	0.30344
895.02864	1.58168	0.30335
893.52853	1.58252	0.30309
892.02842	1.58331	0.30266
890.5283	1.58402	0.30208
889.02819	1.58465	0.30137
887.52808	1.58517	0.30054
886.02797	1.58556	0.2996
884.52786	1.58583	0.29861
883.02774	1.58597	0.29756
881.52763	1.58597	0.29648
880.02752	1.58587	0.29539
878.52741	1.58564	0.29431
877.0273	1.58532	0.29324
875.52719	1.58491	0.2922
874.02707	1.58442	0.29121
872.52696	1.58386	0.29024
871.02685	1.58325	0.28931
869.52674	1.58258	0.28842
868.02663	1.58187	0.28757
866.52652	1.58111	0.28675
865.0264	1.58031	0.28596
863.52629	1.57946	0.28521
862.02618	1.57856	0.2845
860.52607	1.57762	0.28383
859.02596	1.57664	0.2832
857.52584	1.57562	0.28262
856.02573	1.57457	0.28209
854.52562	1.5735	0.28162
853.02551	1.57241	0.28119
851.5254	1.57131	0.28082
850.02529	1.57019	0.28049
848.52517	1.56907	0.28021
847.02506	1.56794	0.27996
845.52495	1.56681	0.27976
844.02484	1.56568	0.27958
842.52473	1.56453	0.27942
841.02461	1.56337	0.27928
839.5245	1.56216	0.27917
838.02439	1.56092	0.2791
836.52428	1.55963	0.27907
835.02417	1.55831	0.27911
833.52406	1.55694	0.27921
832.02394	1.55555	0.27939
830.52383	1.55414	0.27968
829.02372	1.55274	0.28006
827.52361	1.55136	0.28055
826.0235	1.55003	0.28114
824.52338	1.54879	0.28182
823.02327	1.54763	0.28255
821.52316	1.54655	0.28333
820.02305	1.54553	0.28413
818.52294	1.5446	0.28493
817.02283	1.54373	0.28574
815.52271	1.5429	0.28653
814.0226	1.5421	0.2873
812.52249	1.5413	0.28805
811.02238	1.54051	0.28879
809.52227	1.53971	0.28952
808.02215	1.53889	0.29026
806.52204	1.53806	0.29102
805.02193	1.53722	0.29181
803.52182	1.53637	0.29262
802.02171	1.53553	0.29347
800.5216	1.5347	0.29436
799.02148	1.53388	0.2953
797.52137	1.53307	0.29628
796.02126	1.53228	0.29729
794.52115	1.53153	0.29836
793.02104	1.5308	0.29945
791.52092	1.53013	0.30057
790.02081	1.52947	0.30172
788.5207	1.52885	0.3029
787.02059	1.52827	0.30411
785.52048	1.52772	0.30533
784.02037	1.52721	0.30658
782.52025	1.52673	0.30784
781.02014	1.52629	0.30913
779.52003	1.52589	0.31042
778.01992	1.52551	0.31173
776.51981	1.52518	0.31305
775.01969	1.52489	0.31439
773.51958	1.52464	0.31573
772.01947	1.52442	0.31708
770.51936	1.52422	0.31843
769.01925	1.52406	0.3198
767.51914	1.52394	0.32117
766.01902	1.52385	0.32254
764.51891	1.5238	0.32393
763.0188	1.52379	0.32532
761.51869	1.52382	0.32672
760.01858	1.52389	0.32811
758.51846	1.52401	0.32949
757.01835	1.52417	0.33088
755.51824	1.52437	0.33225
754.01813	1.52462	0.33362
752.51802	1.52491	0.33497
751.01791	1.52523	0.33629
749.51779	1.52559	0.33759
748.01768	1.52598	0.33886
746.51757	1.52642	0.3401
745.01746	1.52687	0.34131
743.51735	1.52736	0.34249
742.01723	1.52788	0.34362
740.51712	1.52841	0.34471
739.01701	1.52894	0.34575
737.5169	1.52947	0.34675
736.01679	1.53	0.3477
734.51668	1.5305	0.34862
733.01656	1.53099	0.3495
731.51645	1.53147	0.35035
730.01634	1.53191	0.35119
728.51623	1.53233	0.35199
727.01612	1.53273	0.3528
725.516	1.53312	0.35358
724.01589	1.53348	0.35435
722.51578	1.53383	0.35513
721.01567	1.53416	0.35589
719.51556	1.53447	0.35665
718.01545	1.53476	0.35738
716.51533	1.53503	0.35811
715.01522	1.53527	0.35884
713.51511	1.53546	0.35956
712.015	1.53564	0.36028
710.51489	1.53577	0.361
709.01477	1.53588	0.36174
707.51466	1.53596	0.36248
706.01455	1.53598	0.36323
704.51444	1.53598	0.36401
703.01433	1.53594	0.3648
701.51422	1.53586	0.36562
700.0141	1.53575	0.36646
698.51399	1.53558	0.36734
697.01388	1.53538	0.36826
695.51377	1.53514	0.36924
694.01366	1.53488	0.37026
692.51354	1.53459	0.37136
691.01343	1.53428	0.37251
689.51332	1.53396	0.37374
688.01321	1.53364	0.37503
686.5131	1.53333	0.3764
685.01299	1.53304	0.37784
683.51287	1.53277	0.37932
682.01276	1.53252	0.38084
680.51265	1.53227	0.3824
679.01254	1.53203	0.38401
677.51243	1.53179	0.38567
676.01232	1.53155	0.38737
674.5122	1.5313	0.38913
673.01209	1.53104	0.39092
671.51198	1.53077	0.39278
670.01187	1.53046	0.39471
668.51176	1.53015	0.39674
667.01164	1.52984	0.39885
665.51153	1.52953	0.40108
664.01142	1.52922	0.40338
662.51131	1.52893	0.40581
661.0112	1.52864	0.40836
659.51109	1.52838	0.41104
658.01097	1.52815	0.41387
656.51086	1.52796	0.41684
655.01075	1.52785	0.41998
653.51064	1.52781	0.42327
652.01053	1.52787	0.42674
650.51041	1.52804	0.43038
649.0103	1.52836	0.43419
647.51019	1.52884	0.43817
646.01008	1.52952	0.4423
644.50997	1.53039	0.44658
643.00986	1.53148	0.45099
641.50974	1.5328	0.45552
640.00963	1.53435	0.46017
638.50952	1.53618	0.46492
637.00941	1.5383	0.46978
635.5093	1.54073	0.47468
634.00918	1.54347	0.47962
632.50907	1.54653	0.48458
631.00896	1.54991	0.48955
629.50885	1.55366	0.4945
628.00874	1.55779	0.4994
626.50863	1.5623	0.50419
625.00851	1.56717	0.50885
623.5084	1.5724	0.51332
622.00829	1.57799	0.51759
620.50818	1.58391	0.52163
619.00807	1.59016	0.52539
617.50795	1.59671	0.52886
616.00784	1.60354	0.53199
614.50773	1.61061	0.53476
613.00762	1.61792	0.53716
611.50751	1.62541	0.53915
610.0074	1.6331	0.54072
608.50728	1.6409	0.54187
607.00717	1.64883	0.54256
605.50706	1.65684	0.54278
604.00695	1.66489	0.54252
602.50684	1.67292	0.54176
601.00672	1.68089	0.5405
599.50661	1.68875	0.53874
598.0065	1.69645	0.53653
596.50639	1.70397	0.53387
595.00628	1.71128	0.53079
593.50617	1.71836	0.52729
592.00605	1.72516	0.52339
590.50594	1.73165	0.51912
589.00583	1.73784	0.51452
587.50572	1.7437	0.50959
586.00561	1.74921	0.50433
584.50549	1.75434	0.49877
583.00538	1.759	0.49292
581.50527	1.76318	0.48684
580.00516	1.76685	0.48057
578.50505	1.76998	0.47418
577.00494	1.77255	0.4677
575.50482	1.77454	0.46123
574.00471	1.77596	0.45483
572.5046	1.77684	0.44858
571.00449	1.77724	0.44256
569.50438	1.7772	0.43681
568.00426	1.77679	0.43139
566.50415	1.77606	0.42631
565.00404	1.77509	0.42159
563.50393	1.77393	0.41725
562.00382	1.77266	0.41326
560.50371	1.77134	0.40963
559.00359	1.76999	0.40629
557.50348	1.76863	0.40323
556.00337	1.7673	0.40041
554.50326	1.766	0.39782
553.00315	1.76474	0.39542
551.50303	1.76351	0.39318
550.00292	1.76231	0.3911
548.50281	1.76113	0.38917
547.0027	1.75999	0.38737
545.50259	1.75888	0.38571
544.00248	1.7578	0.38417
542.50236	1.75678	0.38276
541.00225	1.75581	0.38146
539.50214	1.75491	0.38027
538.00203	1.75409	0.37918
536.50192	1.75336	0.37816
535.0018	1.7527	0.37717
533.50169	1.75211	0.37623
532.00158	1.75156	0.37533
530.50147	1.75108	0.37445
529.00136	1.75066	0.37359
527.50125	1.75029	0.37271
526.00113	1.74993	0.37182
524.50102	1.74956	0.37091
523.00091	1.74917	0.37001
521.5008	1.74879	0.36915
520.00069	1.74841	0.3683
518.50057	1.74804	0.36744
517.00046	1.74764	0.36659
515.50035	1.74721	0.36576
514.00024	1.74675	0.36495
512.50013	1.74628	0.36419
511.00002	1.74582	0.36347
509.4999	1.74537	0.36277
507.99979	1.7449	0.36208
506.49968	1.7444	0.3614
504.99957	1.74386	0.36076
503.49946	1.7433	0.36016
501.99934	1.74273	0.35958
500.49923	1.74209	0.35905
498.99912	1.74142	0.35858
497.49901	1.74072	0.35818
495.9989	1.74	0.35786
494.49879	1.73928	0.35762
492.99867	1.73857	0.35746
491.49856	1.73786	0.35738
489.99845	1.73716	0.35739
488.49834	1.73649	0.3575
486.99823	1.73587	0.35771
485.49812	1.73534	0.35801
483.998	1.73488	0.35834
482.49789	1.7345	0.35871
480.99778	1.73416	0.35911
479.49767	1.73387	0.35954
477.99756	1.73366	0.36001
476.49744	1.73351	0.36049
474.99733	1.7334	0.36098
473.49722	1.73332	0.36147
471.99711	1.73326	0.36196
470.497	1.73319	0.36249
468.99689	1.73317	0.36308
467.49677	1.73319	0.36372
465.99666	1.73328	0.36439
464.49655	1.73344	0.3651
462.99644	1.73367	0.36585
461.49633	1.73398	0.36663
459.99621	1.73438	0.36741
458.4961	1.73487	0.36822
456.99599	1.73544	0.369
455.49588	1.73605	0.36979
453.99577	1.73673	0.37061
452.49566	1.73753	0.37147
450.99554	1.73849	0.37234
449.49543	1.73961	0.37319
447.99532	1.74091	0.37396
446.49521	1.74239	0.37465
444.9951	1.74405	0.37519
443.49498	1.74589	0.37556
441.99487	1.74788	0.37569
440.49476	1.74992	0.3755
438.99465	1.75193	0.37499
437.49454	1.75382	0.37415
435.99443	1.75551	0.37304
434.49431	1.75694	0.37168
432.9942	1.75807	0.37014
431.49409	1.75882	0.36847
429.99398	1.75918	0.36682
428.49387	1.75923	0.36528
426.99375	1.75904	0.36389
425.49364	1.75866	0.36269
423.99353	1.75814	0.36169
422.49342	1.75753	0.36091
420.99331	1.75688	0.36037
419.4932	1.7563	0.36007
417.99308	1.75589	0.35997
416.49297	1.75567	0.35994
414.99286	1.75556	0.35989
413.49275	1.75552	0.35979
411.99264	1.75549	0.35963
410.49252	1.75542	0.3594
408.99241	1.75526	0.35915
407.4923	1.75501	0.35891
405.99219	1.75465	0.3587
404.49208	1.75416	0.35853
402.99197	1.75356	0.35845
401.49185	1.75288	0.35851
399.99174	1.75212	0.35873
