#SUBSTANCE=Sulphuric acid
#DESCRIPTION=Refractive indices of 48 wt% sulphuric acid from 400 to 7500 cm-1 at 234 K
#TEMPERATURE=234 K
#CONCENTRATION=48 wt%
#DOI=10.1021/jp026576n
#REFERENCE=Spectroscopic Study of Aqueous H2SO4 at Different Temperatures and Compositions:  Variations in Dissociation and Optical Properties
##Cathrine E. Lund Myhre,†, Daniel H. Christensen,‡, Flemming M. Nicolaisen,‡ and, and Claus J. Nielsen*,†
##The Journal of Physical Chemistry A 2003 107 (12), 1979-1991 
#FORMAT=WAVN N K
7498.52083	1.37965	0.01137
7497.02072	1.37971	0.01138
7495.52061	1.37979	0.01138
7494.0205	1.37984	0.01138
7492.52039	1.37989	0.01136
7491.02027	1.37995	0.01132
7489.52016	1.37998	0.01127
7488.02005	1.38001	0.01123
7486.51994	1.38001	0.01118
7485.01983	1.38001	0.01114
7483.51971	1.38001	0.01111
7482.0196	1.37999	0.01107
7480.51949	1.37998	0.01105
7479.01938	1.37996	0.01103
7477.51927	1.37995	0.01103
7476.01916	1.37994	0.01103
7474.51904	1.37994	0.01103
7473.01893	1.37995	0.01104
7471.51882	1.37997	0.01104
7470.01871	1.38	0.01104
7468.5186	1.38004	0.01102
7467.01848	1.38008	0.011
7465.51837	1.38012	0.01097
7464.01826	1.38015	0.01092
7462.51815	1.38017	0.01087
7461.01804	1.38019	0.0108
7459.51793	1.38018	0.01074
7458.01781	1.38016	0.01068
7456.5177	1.38013	0.01063
7455.01759	1.3801	0.01058
7453.51748	1.38006	0.01055
7452.01737	1.38002	0.01051
7450.51725	1.37997	0.0105
7449.01714	1.37993	0.01049
7447.51703	1.3799	0.01048
7446.01692	1.37988	0.01048
7444.51681	1.37985	0.01048
7443.0167	1.37984	0.01047
7441.51658	1.37981	0.01048
7440.01647	1.3798	0.01048
7438.51636	1.37978	0.01049
7437.01625	1.37978	0.01049
7435.51614	1.37978	0.0105
7434.01602	1.37978	0.0105
7432.51591	1.3798	0.0105
7431.0158	1.37981	0.01049
7429.51569	1.37982	0.01046
7428.01558	1.37982	0.01044
7426.51547	1.37981	0.01041
7425.01535	1.37979	0.01038
7423.51524	1.37977	0.01036
7422.01513	1.37974	0.01034
7420.51502	1.37971	0.01033
7419.01491	1.37968	0.01033
7417.51479	1.37965	0.01033
7416.01468	1.37963	0.01035
7414.51457	1.37962	0.01038
7413.01446	1.37963	0.0104
7411.51435	1.37965	0.01041
7410.01424	1.37967	0.01041
7408.51412	1.3797	0.0104
7407.01401	1.37971	0.01038
7405.5139	1.37973	0.01036
7404.01379	1.37976	0.01033
7402.51368	1.37976	0.01029
7401.01356	1.37976	0.01024
7399.51345	1.37975	0.01019
7398.01334	1.37971	0.01015
7396.51323	1.37968	0.01013
7395.01312	1.37964	0.0101
7393.51301	1.37961	0.01008
7392.01289	1.37957	0.01008
7390.51278	1.37954	0.01007
7389.01267	1.37951	0.01007
7387.51256	1.37948	0.01007
7386.01245	1.37946	0.01007
7384.51233	1.37943	0.01007
7383.01222	1.37941	0.01008
7381.51211	1.37939	0.01008
7380.012	1.37938	0.01009
7378.51189	1.37936	0.01009
7377.01178	1.37933	0.0101
7375.51166	1.37931	0.01011
7374.01155	1.3793	0.01013
7372.51144	1.3793	0.01015
7371.01133	1.37932	0.01016
7369.51122	1.37932	0.01016
7368.0111	1.37932	0.01016
7366.51099	1.37932	0.01016
7365.01088	1.37932	0.01016
7363.51077	1.37932	0.01016
7362.01066	1.37932	0.01016
7360.51055	1.37932	0.01015
7359.01043	1.37932	0.01015
7357.51032	1.37932	0.01015
7356.01021	1.37933	0.01015
7354.5101	1.37935	0.01014
7353.00999	1.37937	0.01013
7351.50987	1.3794	0.0101
7350.00976	1.37941	0.01005
7348.50965	1.3794	0.01
7347.00954	1.37936	0.00995
7345.50943	1.37931	0.00992
7344.00932	1.37927	0.00989
7342.5092	1.37922	0.00988
7341.00909	1.37915	0.00988
7339.50898	1.37909	0.00989
7338.00887	1.37904	0.00993
7336.50876	1.37901	0.00998
7335.00864	1.37901	0.01002
7333.50853	1.37903	0.01005
7332.00842	1.37904	0.01008
7330.50831	1.37907	0.01009
7329.0082	1.37907	0.01009
7327.50809	1.37909	0.0101
7326.00797	1.37909	0.0101
7324.50786	1.37912	0.0101
7323.00775	1.37914	0.01009
7321.50764	1.37916	0.01008
7320.00753	1.37917	0.01006
7318.50741	1.37918	0.01003
7317.0073	1.37918	0.01001
7315.50719	1.37919	0.00998
7314.00708	1.37919	0.00994
7312.50697	1.37917	0.00991
7311.00686	1.37914	0.00987
7309.50674	1.3791	0.00985
7308.00663	1.37906	0.00984
7306.50652	1.37902	0.00983
7305.00641	1.37898	0.00983
7303.5063	1.37896	0.00984
7302.00619	1.37894	0.00984
7300.50607	1.37892	0.00985
7299.00596	1.37891	0.00986
7297.50585	1.37889	0.00986
7296.00574	1.37887	0.00985
7294.50563	1.37884	0.00986
7293.00551	1.37881	0.00987
7291.5054	1.37878	0.00989
7290.00529	1.37875	0.00992
7288.50518	1.37874	0.00995
7287.00507	1.37873	0.00998
7285.50496	1.37873	0.01002
7284.00484	1.37876	0.01006
7282.50473	1.37879	0.01008
7281.00462	1.37883	0.01009
7279.50451	1.37888	0.01009
7278.0044	1.37893	0.01008
7276.50428	1.37897	0.01004
7275.00417	1.37898	0.01
7273.50406	1.379	0.00994
7272.00395	1.37899	0.0099
7270.50384	1.37896	0.00985
7269.00373	1.37892	0.00982
7267.50361	1.37888	0.0098
7266.0035	1.37884	0.00979
7264.50339	1.3788	0.00979
7263.00328	1.37877	0.00979
7261.50317	1.37875	0.0098
7260.00305	1.37873	0.00982
7258.50294	1.37872	0.00983
7257.00283	1.37873	0.00985
7255.50272	1.37874	0.00985
7254.00261	1.37875	0.00984
7252.5025	1.37874	0.00981
7251.00238	1.37873	0.0098
7249.50227	1.37871	0.00978
7248.00216	1.3787	0.00978
7246.50205	1.37868	0.00976
7245.00194	1.37867	0.00975
7243.50182	1.37864	0.00973
7242.00171	1.37859	0.00972
7240.5016	1.37856	0.00972
7239.00149	1.37852	0.00975
7237.50138	1.37851	0.00976
7236.00127	1.3785	0.00977
7234.50115	1.37849	0.00977
7233.00104	1.37846	0.00977
7231.50093	1.37843	0.00978
7230.00082	1.37841	0.0098
7228.50071	1.37839	0.00983
7227.00059	1.37839	0.00984
7225.50048	1.37839	0.00985
7224.00037	1.37838	0.00986
7222.50026	1.37836	0.00988
7221.00015	1.37835	0.0099
7219.50004	1.37834	0.00992
7217.99992	1.37835	0.00995
7216.49981	1.37837	0.00996
7214.9997	1.3784	0.00997
7213.49959	1.37841	0.00996
7211.99948	1.37842	0.00995
7210.49936	1.37842	0.00994
7208.99925	1.37841	0.00992
7207.49914	1.3784	0.00991
7205.99903	1.37838	0.0099
7204.49892	1.37835	0.00989
7202.99881	1.37831	0.0099
7201.49869	1.37828	0.00992
7199.99858	1.37825	0.00996
7198.49847	1.37825	0.01
7196.99836	1.37826	0.01005
7195.49825	1.37829	0.01008
7193.99813	1.37832	0.01009
7192.49802	1.37836	0.0101
7190.99791	1.3784	0.0101
7189.4978	1.37842	0.01008
7187.99769	1.37845	0.01006
7186.49758	1.37846	0.01003
7184.99746	1.37846	0.01
7183.49735	1.37845	0.00998
7181.99724	1.37844	0.00996
7180.49713	1.37843	0.00996
7178.99702	1.37843	0.00995
7177.4969	1.37843	0.00995
7175.99679	1.37844	0.00993
7174.49668	1.37845	0.00991
7172.99657	1.37845	0.00988
7171.49646	1.37844	0.00984
7169.99635	1.37843	0.00979
7168.49623	1.37839	0.00975
7166.99612	1.37832	0.00973
7165.49601	1.37826	0.00971
7163.9959	1.37818	0.0097
7162.49579	1.37811	0.00972
7160.99567	1.37802	0.00977
7159.49556	1.37797	0.00984
7157.99545	1.37793	0.00992
7156.49534	1.37793	0.00999
7154.99523	1.37796	0.01007
7153.49512	1.378	0.01013
7151.995	1.37806	0.01018
7150.49489	1.37813	0.01021
7148.99478	1.3782	0.0102
7147.49467	1.37826	0.01018
7145.99456	1.37829	0.01015
7144.49444	1.37831	0.0101
7142.99433	1.37831	0.01006
7141.49422	1.37828	0.01003
7139.99411	1.37826	0.01002
7138.494	1.37823	0.01
7136.99389	1.3782	0.01002
7135.49377	1.37819	0.01003
7133.99366	1.37818	0.01005
7132.49355	1.37819	0.01006
7130.99344	1.37821	0.01008
7129.49333	1.37822	0.01008
7127.99321	1.37825	0.01007
7126.4931	1.37825	0.01006
7124.99299	1.37826	0.01004
7123.49288	1.37826	0.01002
7121.99277	1.37824	0.01
7120.49266	1.37822	0.00999
7118.99254	1.3782	0.00999
7117.49243	1.37817	0.01
7115.99232	1.37815	0.01002
7114.49221	1.37813	0.01005
7112.9921	1.37814	0.01008
7111.49198	1.37816	0.0101
7109.99187	1.37818	0.01012
7108.49176	1.37821	0.01013
7106.99165	1.37824	0.01013
7105.49154	1.37827	0.01013
7103.99143	1.37831	0.01011
7102.49131	1.37834	0.01008
7100.9912	1.37836	0.01005
7099.49109	1.37837	0.01002
7097.99098	1.37837	0.00998
7096.49087	1.37836	0.00995
7094.99076	1.37835	0.00992
7093.49064	1.37833	0.00989
7091.99053	1.37832	0.00987
7090.49042	1.3783	0.00984
7088.99031	1.37827	0.00983
7087.4902	1.37824	0.00981
7085.99008	1.37821	0.0098
7084.48997	1.37818	0.0098
7082.98986	1.37815	0.00981
7081.48975	1.37813	0.00982
7079.98964	1.37811	0.00984
7078.48953	1.3781	0.00984
7076.98941	1.3781	0.00986
7075.4893	1.3781	0.00986
7073.98919	1.3781	0.00987
7072.48908	1.3781	0.00987
7070.98897	1.3781	0.00986
7069.48885	1.3781	0.00985
7067.98874	1.37809	0.00984
7066.48863	1.37807	0.00982
7064.98852	1.37805	0.00982
7063.48841	1.37801	0.00982
7061.9883	1.378	0.00983
7060.48818	1.37798	0.00984
7058.98807	1.37797	0.00985
7057.48796	1.37795	0.00986
7055.98785	1.37793	0.00988
7054.48774	1.37792	0.00989
7052.98762	1.37791	0.00992
7051.48751	1.37791	0.00993
7049.9874	1.37791	0.00996
7048.48729	1.37791	0.00997
7046.98718	1.37791	0.01
7045.48707	1.37792	0.01001
7043.98695	1.37793	0.01004
7042.48684	1.37795	0.01006
7040.98673	1.37798	0.01007
7039.48662	1.37801	0.01007
7037.98651	1.37804	0.01006
7036.48639	1.37807	0.01003
7034.98628	1.37808	0.01001
7033.48617	1.37808	0.00999
7031.98606	1.37808	0.00997
7030.48595	1.37807	0.00995
7028.98584	1.37806	0.00993
7027.48572	1.37803	0.00992
7025.98561	1.37801	0.00992
7024.4855	1.37799	0.00992
7022.98539	1.37797	0.00994
7021.48528	1.37796	0.00995
7019.98516	1.37796	0.00997
7018.48505	1.37796	0.00998
7016.98494	1.37796	0.00999
7015.48483	1.37796	0.01001
7013.98472	1.37796	0.01001
7012.48461	1.37796	0.01003
7010.98449	1.37797	0.01004
7009.48438	1.37798	0.01006
7007.98427	1.37799	0.01008
7006.48416	1.37802	0.0101
7004.98405	1.37805	0.0101
7003.48393	1.37809	0.01011
7001.98382	1.37813	0.0101
7000.48371	1.37816	0.01009
6998.9836	1.3782	0.01006
6997.48349	1.37823	0.01002
6995.98338	1.37826	0.00998
6994.48326	1.37826	0.00993
6992.98315	1.37825	0.00988
6991.48304	1.37822	0.00984
6989.98293	1.37819	0.00982
6988.48282	1.37816	0.0098
6986.9827	1.37813	0.00979
6985.48259	1.3781	0.0098
6983.98248	1.37807	0.00981
6982.48237	1.37806	0.00983
6980.98226	1.37805	0.00984
6979.48215	1.37807	0.00986
6977.98203	1.37808	0.00986
6976.48192	1.3781	0.00986
6974.98181	1.37811	0.00986
6973.4817	1.37812	0.00984
6971.98159	1.37813	0.00982
6970.48147	1.37813	0.00981
6968.98136	1.37813	0.0098
6967.48125	1.37812	0.00979
6965.98114	1.37812	0.00978
6964.48103	1.37812	0.00978
6962.98092	1.37813	0.00977
6961.4808	1.37814	0.00975
6959.98069	1.37814	0.00974
6958.48058	1.37814	0.00971
6956.98047	1.37814	0.0097
6955.48036	1.37813	0.00967
6953.98024	1.37812	0.00965
6952.48013	1.3781	0.00963
6950.98002	1.37807	0.00962
6949.47991	1.37804	0.0096
6947.9798	1.37801	0.00961
6946.47969	1.37798	0.00961
6944.97957	1.37795	0.00964
6943.47946	1.37794	0.00966
6941.97935	1.37795	0.0097
6940.47924	1.37796	0.00971
6938.97913	1.37798	0.00973
6937.47901	1.378	0.00975
6935.9789	1.37804	0.00976
6934.47879	1.37809	0.00975
6932.97868	1.37813	0.00974
6931.47857	1.37816	0.0097
6929.97846	1.37818	0.00965
6928.47834	1.37818	0.00961
6926.97823	1.37818	0.00956
6925.47812	1.37816	0.00952
6923.97801	1.37814	0.00949
6922.4779	1.3781	0.00947
6920.97778	1.37807	0.00945
6919.47767	1.37805	0.00945
6917.97756	1.37803	0.00946
6916.47745	1.37802	0.00946
6914.97734	1.37802	0.00947
6913.47723	1.37803	0.00947
6911.97711	1.37804	0.00946
6910.477	1.37805	0.00945
6908.97689	1.37807	0.00942
6907.47678	1.37807	0.00939
6905.97667	1.37807	0.00936
6904.47656	1.37805	0.00933
6902.97644	1.37804	0.0093
6901.47633	1.37801	0.00927
6899.97622	1.37799	0.00925
6898.47611	1.37797	0.00922
6896.976	1.37794	0.00921
6895.47588	1.37791	0.00919
6893.97577	1.37788	0.00918
6892.47566	1.37786	0.00918
6890.97555	1.37783	0.00917
6889.47544	1.37781	0.00917
6887.97533	1.37778	0.00916
6886.47521	1.37776	0.00916
6884.9751	1.37773	0.00915
6883.47499	1.37771	0.00916
6881.97488	1.37769	0.00916
6880.47477	1.37767	0.00916
6878.97465	1.37765	0.00916
6877.47454	1.37763	0.00916
6875.97443	1.37761	0.00916
6874.47432	1.37758	0.00917
6872.97421	1.37756	0.00917
6871.4741	1.37754	0.00919
6869.97398	1.37752	0.00919
6868.47387	1.37749	0.00921
6866.97376	1.37747	0.00923
6865.47365	1.37746	0.00926
6863.97354	1.37745	0.00929
6862.47342	1.37746	0.00931
6860.97331	1.37747	0.00933
6859.4732	1.37747	0.00934
6857.97309	1.37749	0.00936
6856.47298	1.3775	0.00937
6854.97287	1.37753	0.00937
6853.47275	1.37755	0.00936
6851.97264	1.37755	0.00935
6850.47253	1.37755	0.00933
6848.97242	1.37754	0.00933
6847.47231	1.37754	0.00932
6845.97219	1.37754	0.00932
6844.47208	1.37753	0.00931
6842.97197	1.37753	0.0093
6841.47186	1.37751	0.0093
6839.97175	1.3775	0.00931
6838.47164	1.3775	0.00932
6836.97152	1.37751	0.00932
6835.47141	1.37751	0.00932
6833.9713	1.37752	0.00932
6832.47119	1.37753	0.00931
6830.97108	1.37753	0.0093
6829.47096	1.37753	0.00928
6827.97085	1.37753	0.00928
6826.47074	1.37753	0.00927
6824.97063	1.37753	0.00926
6823.47052	1.37752	0.00925
6821.97041	1.37751	0.00924
6820.47029	1.37751	0.00923
6818.97018	1.3775	0.00922
6817.47007	1.3775	0.00921
6815.96996	1.37749	0.0092
6814.46985	1.37748	0.00918
6812.96973	1.37745	0.00917
6811.46962	1.37744	0.00917
6809.96951	1.37742	0.00917
6808.4694	1.3774	0.00917
6806.96929	1.37738	0.00917
6805.46918	1.37736	0.00918
6803.96906	1.37734	0.0092
6802.46895	1.37733	0.00922
6800.96884	1.37733	0.00924
6799.46873	1.37734	0.00926
6797.96862	1.37735	0.00927
6796.4685	1.37736	0.00929
6794.96839	1.37737	0.0093
6793.46828	1.37741	0.00931
6791.96817	1.37743	0.00931
6790.46806	1.37746	0.00929
6788.96795	1.37749	0.00928
6787.46783	1.3775	0.00926
6785.96772	1.37752	0.00923
6784.46761	1.37753	0.00921
6782.9675	1.37754	0.00918
6781.46739	1.37754	0.00914
6779.96727	1.37753	0.0091
6778.46716	1.37752	0.00908
6776.96705	1.3775	0.00905
6775.46694	1.37748	0.00904
6773.96683	1.37746	0.00902
6772.46672	1.37744	0.009
6770.9666	1.37742	0.009
6769.46649	1.3774	0.00899
6767.96638	1.37739	0.00898
6766.46627	1.37737	0.00898
6764.96616	1.37737	0.00898
6763.46604	1.37736	0.00898
6761.96593	1.37736	0.00897
6760.46582	1.37735	0.00896
6758.96571	1.37734	0.00895
6757.4656	1.37733	0.00894
6755.96549	1.37732	0.00894
6754.46537	1.37732	0.00894
6752.96526	1.37732	0.00893
6751.46515	1.37732	0.00892
6749.96504	1.37732	0.0089
6748.46493	1.37732	0.00888
6746.96481	1.37731	0.00886
6745.4647	1.3773	0.00884
6743.96459	1.3773	0.00882
6742.46448	1.37728	0.00879
6740.96437	1.37725	0.00876
6739.46426	1.37722	0.00873
6737.96414	1.37718	0.00872
6736.46403	1.37714	0.00872
6734.96392	1.37711	0.00871
6733.46381	1.37708	0.00871
6731.9637	1.37704	0.00872
6730.46358	1.37701	0.00873
6728.96347	1.37697	0.00875
6727.46336	1.37696	0.00877
6725.96325	1.37694	0.00879
6724.46314	1.37694	0.0088
6722.96303	1.37693	0.00881
6721.46291	1.37692	0.00883
6719.9628	1.37691	0.00883
6718.46269	1.37691	0.00885
6716.96258	1.37691	0.00885
6715.46247	1.37691	0.00885
6713.96236	1.3769	0.00885
6712.46224	1.37689	0.00886
6710.96213	1.37688	0.00886
6709.46202	1.37687	0.00888
6707.96191	1.37687	0.00888
6706.4618	1.37686	0.0089
6704.96168	1.37686	0.00891
6703.46157	1.37686	0.00893
6701.96146	1.37687	0.00894
6700.46135	1.37689	0.00895
6698.96124	1.37691	0.00896
6697.46113	1.37693	0.00895
6695.96101	1.37696	0.00894
6694.4609	1.37698	0.00891
6692.96079	1.37698	0.00889
6691.46068	1.37698	0.00886
6689.96057	1.37698	0.00883
6688.46045	1.37696	0.0088
6686.96034	1.37693	0.00878
6685.46023	1.3769	0.00876
6683.96012	1.37687	0.00875
6682.46001	1.37683	0.00875
6680.9599	1.3768	0.00877
6679.45978	1.37678	0.00878
6677.95967	1.37677	0.00881
6676.45956	1.37677	0.00882
6674.95945	1.37677	0.00883
6673.45934	1.37676	0.00884
6671.95922	1.37676	0.00886
6670.45911	1.37677	0.00887
6668.959	1.37679	0.00888
6667.45889	1.37681	0.00888
6665.95878	1.37682	0.00887
6664.45867	1.37682	0.00886
6662.95855	1.37682	0.00886
6661.45844	1.37682	0.00886
6659.95833	1.37683	0.00886
6658.45822	1.37685	0.00885
6656.95811	1.37686	0.00884
6655.45799	1.37687	0.00882
6653.95788	1.37688	0.0088
6652.45777	1.37688	0.00879
6650.95766	1.37689	0.00877
6649.45755	1.37689	0.00875
6647.95744	1.37689	0.00872
6646.45732	1.37689	0.00868
6644.95721	1.37687	0.00864
6643.4571	1.37684	0.00862
6641.95699	1.37681	0.00859
6640.45688	1.37678	0.00857
6638.95676	1.37673	0.00857
6637.45665	1.3767	0.00857
6635.95654	1.37666	0.00858
6634.45643	1.37663	0.0086
6632.95632	1.37661	0.00862
6631.45621	1.37659	0.00865
6629.95609	1.37659	0.00868
6628.45598	1.3766	0.0087
6626.95587	1.37661	0.00872
6625.45576	1.37664	0.00873
6623.95565	1.37666	0.00872
6622.45553	1.37668	0.00872
6620.95542	1.37669	0.0087
6619.45531	1.37669	0.00869
6617.9552	1.3767	0.00867
6616.45509	1.3767	0.00866
6614.95498	1.37669	0.00864
6613.45486	1.37668	0.00863
6611.95475	1.37668	0.00862
6610.45464	1.37667	0.00862
6608.95453	1.37667	0.00862
6607.45442	1.37668	0.00861
6605.9543	1.37668	0.00861
6604.45419	1.3767	0.0086
6602.95408	1.3767	0.00859
6601.45397	1.37672	0.00857
6599.95386	1.37674	0.00854
6598.45375	1.37674	0.00851
6596.95363	1.37674	0.00848
6595.45352	1.37674	0.00844
6593.95341	1.37673	0.00841
6592.4533	1.37671	0.00836
6590.95319	1.37668	0.00832
6589.45307	1.37665	0.00829
6587.95296	1.3766	0.00826
6586.45285	1.37655	0.00825
6584.95274	1.37651	0.00825
6583.45263	1.37647	0.00826
6581.95252	1.37643	0.00826
6580.4524	1.3764	0.00828
6578.95229	1.37638	0.0083
6577.45218	1.37637	0.00832
6575.95207	1.37637	0.00833
6574.45196	1.37638	0.00834
6572.95184	1.37638	0.00833
6571.45173	1.37638	0.00832
6569.95162	1.37637	0.00831
6568.45151	1.37637	0.0083
6566.9514	1.37635	0.00828
6565.45129	1.37634	0.00828
6563.95117	1.37631	0.00827
6562.45106	1.37629	0.00826
6560.95095	1.37627	0.00827
6559.45084	1.37625	0.00827
6557.95073	1.37624	0.00827
6556.45061	1.37622	0.00828
6554.9505	1.37621	0.00829
6553.45039	1.37619	0.0083
6551.95028	1.37619	0.00831
6550.45017	1.3762	0.00832
6548.95006	1.3762	0.00832
6547.44994	1.37621	0.00832
6545.94983	1.37621	0.00831
6544.44972	1.37622	0.00831
6542.94961	1.37623	0.00829
6541.4495	1.37622	0.00827
6539.94938	1.37621	0.00824
6538.44927	1.37619	0.00823
6536.94916	1.37616	0.00821
6535.44905	1.37614	0.00821
6533.94894	1.37612	0.0082
6532.44883	1.37609	0.0082
6530.94871	1.37607	0.00821
6529.4486	1.37604	0.00823
6527.94849	1.37604	0.00823
6526.44838	1.37603	0.00825
6524.94827	1.37603	0.00825
6523.44816	1.37602	0.00827
6521.94804	1.37602	0.00827
6520.44793	1.37604	0.00829
6518.94782	1.37606	0.00828
6517.44771	1.37607	0.00828
6515.9476	1.37608	0.00825
6514.44748	1.37608	0.00824
6512.94737	1.37609	0.00822
6511.44726	1.37609	0.0082
6509.94715	1.37608	0.00817
6508.44704	1.37606	0.00814
6506.94693	1.37603	0.00811
6505.44681	1.37599	0.0081
6503.9467	1.37596	0.00811
6502.44659	1.37593	0.00812
6500.94648	1.37592	0.00813
6499.44637	1.37591	0.00814
6497.94625	1.3759	0.00815
6496.44614	1.3759	0.00816
6494.94603	1.3759	0.00817
6493.44592	1.37592	0.00817
6491.94581	1.37594	0.00817
6490.4457	1.37594	0.00815
6488.94558	1.37595	0.00812
6487.44547	1.37595	0.0081
6485.94536	1.37594	0.00807
6484.44525	1.37592	0.00805
6482.94514	1.3759	0.00802
6481.44502	1.37587	0.00801
6479.94491	1.37584	0.00799
6478.4448	1.37581	0.00798
6476.94469	1.37578	0.00798
6475.44458	1.37574	0.00799
6473.94447	1.37572	0.008
6472.44435	1.37569	0.00803
6470.94424	1.37569	0.00804
6469.44413	1.37569	0.00806
6467.94402	1.37569	0.00808
6466.44391	1.3757	0.00808
6464.94379	1.37572	0.00808
6463.44368	1.37573	0.00808
6461.94357	1.37575	0.00806
6460.44346	1.37575	0.00804
6458.94335	1.37576	0.00801
6457.44324	1.37575	0.00799
6455.94312	1.37574	0.00797
6454.44301	1.37573	0.00794
6452.9429	1.3757	0.00793
6451.44279	1.37568	0.00791
6449.94268	1.37566	0.0079
6448.44256	1.37564	0.00789
6446.94245	1.37563	0.00788
6445.44234	1.3756	0.00786
6443.94223	1.37558	0.00785
6442.44212	1.37555	0.00783
6440.94201	1.37552	0.00783
6439.44189	1.37549	0.00782
6437.94178	1.37545	0.00783
6436.44167	1.37542	0.00783
6434.94156	1.37539	0.00785
6433.44145	1.37537	0.00786
6431.94133	1.37534	0.00788
6430.44122	1.37533	0.0079
6428.94111	1.37531	0.00792
6427.441	1.37531	0.00793
6425.94089	1.37531	0.00795
6424.44078	1.37531	0.00797
6422.94066	1.37531	0.00797
6421.44055	1.37531	0.00798
6419.94044	1.37531	0.00798
6418.44033	1.37532	0.00798
6416.94022	1.37532	0.00798
6415.4401	1.37532	0.00798
6413.93999	1.37531	0.00798
6412.43988	1.3753	0.00798
6410.93977	1.37529	0.00799
6409.43966	1.37529	0.00799
6407.93955	1.37529	0.008
6406.43943	1.3753	0.00801
6404.93932	1.37531	0.00801
6403.43921	1.37533	0.00802
6401.9391	1.37535	0.00801
6400.43899	1.37538	0.008
6398.93887	1.3754	0.00797
6397.43876	1.37542	0.00794
6395.93865	1.37542	0.0079
6394.43854	1.37541	0.00786
6392.93843	1.3754	0.00781
6391.43832	1.37537	0.00778
6389.9382	1.37534	0.00774
6388.43809	1.3753	0.00771
6386.93798	1.37526	0.00768
6385.43787	1.37521	0.00767
6383.93776	1.37516	0.00767
6382.43764	1.37511	0.00767
6380.93753	1.37506	0.00769
6379.43742	1.37501	0.00771
6377.93731	1.37498	0.00774
6376.4372	1.37496	0.00777
6374.93709	1.37493	0.00781
6373.43697	1.37492	0.00784
6371.93686	1.37492	0.00789
6370.43675	1.37494	0.00793
6368.93664	1.37498	0.00796
6367.43653	1.37502	0.00797
6365.93641	1.37505	0.00797
6364.4363	1.37508	0.00796
6362.93619	1.37511	0.00796
6361.43608	1.37514	0.00793
6359.93597	1.37515	0.0079
6358.43586	1.37517	0.00787
6356.93574	1.37517	0.00783
6355.43563	1.37517	0.0078
6353.93552	1.37515	0.00777
6352.43541	1.37514	0.00773
6350.9353	1.37512	0.00771
6349.43518	1.3751	0.00769
6347.93507	1.37508	0.00766
6346.43496	1.37505	0.00763
6344.93485	1.37502	0.00762
6343.43474	1.37499	0.0076
6341.93463	1.37495	0.00759
6340.43451	1.37492	0.00759
6338.9344	1.37488	0.00759
6337.43429	1.37485	0.0076
6335.93418	1.37483	0.0076
6334.43407	1.3748	0.00761
6332.93395	1.37478	0.00761
6331.43384	1.37476	0.00763
6329.93373	1.37474	0.00765
6328.43362	1.37473	0.00766
6326.93351	1.37473	0.00768
6325.4334	1.37472	0.00768
6323.93328	1.37472	0.00769
6322.43317	1.37471	0.00769
6320.93306	1.3747	0.0077
6319.43295	1.3747	0.00772
6317.93284	1.3747	0.00772
6316.43273	1.37471	0.00772
6314.93261	1.37471	0.00772
6313.4325	1.3747	0.00771
6311.93239	1.3747	0.00771
6310.43228	1.3747	0.00772
6308.93217	1.3747	0.00772
6307.43205	1.37471	0.00772
6305.93194	1.37471	0.0077
6304.43183	1.37471	0.0077
6302.93172	1.37471	0.00768
6301.43161	1.37471	0.00768
6299.9315	1.37471	0.00766
6298.43138	1.37471	0.00765
6296.93127	1.3747	0.00763
6295.43116	1.37469	0.00762
6293.93105	1.37466	0.0076
6292.43094	1.37465	0.00759
6290.93082	1.37462	0.00759
6289.43071	1.3746	0.00758
6287.9306	1.37459	0.00758
6286.43049	1.37457	0.00758
6284.93038	1.37455	0.00759
6283.43027	1.37453	0.00761
6281.93015	1.37453	0.00762
6280.43004	1.37454	0.00763
6278.92993	1.37454	0.00763
6277.42982	1.37455	0.00763
6275.92971	1.37455	0.00763
6274.42959	1.37456	0.00763
6272.92948	1.37457	0.00762
6271.42937	1.37458	0.00762
6269.92926	1.37459	0.0076
6268.42915	1.37459	0.00758
6266.92904	1.37459	0.00756
6265.42892	1.37458	0.00755
6263.92881	1.37458	0.00753
6262.4287	1.37458	0.00751
6260.92859	1.37458	0.00749
6259.42848	1.37457	0.00747
6257.92836	1.37456	0.00744
6256.42825	1.37454	0.00742
6254.92814	1.37452	0.0074
6253.42803	1.3745	0.00738
6251.92792	1.37448	0.00737
6250.42781	1.37445	0.00736
6248.92769	1.37443	0.00735
6247.42758	1.3744	0.00735
6245.92747	1.37438	0.00735
6244.42736	1.37437	0.00735
6242.92725	1.37435	0.00735
6241.42713	1.37434	0.00735
6239.92702	1.37432	0.00735
6238.42691	1.37432	0.00735
6236.9268	1.37431	0.00735
6235.42669	1.3743	0.00735
6233.92658	1.3743	0.00735
6232.42646	1.3743	0.00734
6230.92635	1.3743	0.00733
6229.42624	1.3743	0.00732
6227.92613	1.3743	0.00731
6226.42602	1.3743	0.00729
6224.9259	1.37431	0.00726
6223.42579	1.3743	0.00724
6221.92568	1.37428	0.0072
6220.42557	1.37426	0.00717
6218.92546	1.37423	0.00714
6217.42535	1.37418	0.00713
6215.92523	1.37414	0.00711
6214.42512	1.37411	0.0071
6212.92501	1.37406	0.0071
6211.4249	1.37401	0.00711
6209.92479	1.37398	0.00713
6208.42467	1.37395	0.00715
6206.92456	1.37393	0.00718
6205.42445	1.37393	0.00721
6203.92434	1.37393	0.00722
6202.42423	1.37394	0.00724
6200.92412	1.37395	0.00725
6199.424	1.37397	0.00724
6197.92389	1.37399	0.00724
6196.42378	1.374	0.00721
6194.92367	1.37399	0.00719
6193.42356	1.37398	0.00717
6191.92344	1.37396	0.00714
6190.42333	1.37395	0.00714
6188.92322	1.37393	0.00712
6187.42311	1.37392	0.00711
6185.923	1.37389	0.00709
6184.42289	1.37387	0.00709
6182.92277	1.37386	0.00708
6181.42266	1.37384	0.00706
6179.92255	1.37383	0.00706
6178.42244	1.3738	0.00704
6176.92233	1.37376	0.00703
6175.42221	1.37373	0.00703
6173.9221	1.37369	0.00703
6172.42199	1.37366	0.00705
6170.92188	1.37364	0.00706
6169.42177	1.37362	0.00709
6167.92166	1.37361	0.00712
6166.42154	1.37362	0.00715
6164.92143	1.37365	0.00717
6163.42132	1.37367	0.00717
6161.92121	1.3737	0.00716
6160.4211	1.37371	0.00714
6158.92098	1.37372	0.00712
6157.42087	1.37373	0.00708
6155.92076	1.37373	0.00705
6154.42065	1.37371	0.00701
6152.92054	1.37368	0.00698
6151.42043	1.37365	0.00695
6149.92031	1.3736	0.00694
6148.4202	1.37356	0.00692
6146.92009	1.37353	0.00692
6145.41998	1.3735	0.00692
6143.91987	1.37347	0.00693
6142.41975	1.37344	0.00694
6140.91964	1.37342	0.00695
6139.41953	1.37341	0.00696
6137.91942	1.37339	0.00696
6136.41931	1.37338	0.00697
6134.9192	1.37336	0.00698
6133.41908	1.37335	0.00699
6131.91897	1.37334	0.007
6130.41886	1.37333	0.007
6128.91875	1.37332	0.007
6127.41864	1.3733	0.00702
6125.91853	1.37329	0.00702
6124.41841	1.37329	0.00704
6122.9183	1.3733	0.00705
6121.41819	1.37331	0.00706
6119.91808	1.37332	0.00706
6118.41797	1.37333	0.00705
6116.91785	1.37335	0.00704
6115.41774	1.37335	0.00703
6113.91763	1.37337	0.00701
6112.41752	1.37337	0.00699
6110.91741	1.37336	0.00695
6109.4173	1.37335	0.00692
6107.91718	1.37332	0.0069
6106.41707	1.3733	0.00688
6104.91696	1.37327	0.00687
6103.41685	1.37324	0.00686
6101.91674	1.37322	0.00686
6100.41662	1.3732	0.00685
6098.91651	1.37317	0.00685
6097.4164	1.37315	0.00686
6095.91629	1.37313	0.00687
6094.41618	1.37313	0.00689
6092.91607	1.37313	0.00689
6091.41595	1.37313	0.00689
6089.91584	1.37314	0.00688
6088.41573	1.37314	0.00688
6086.91562	1.37314	0.00687
6085.41551	1.37314	0.00686
6083.91539	1.37315	0.00684
6082.41528	1.37315	0.00682
6080.91517	1.37313	0.00679
6079.41506	1.37311	0.00678
6077.91495	1.37309	0.00676
6076.41484	1.37307	0.00675
6074.91472	1.37306	0.00675
6073.41461	1.37306	0.00673
6071.9145	1.37305	0.00672
6070.41439	1.37303	0.0067
6068.91428	1.37302	0.00669
6067.41416	1.37301	0.00666
6065.91405	1.373	0.00664
6064.41394	1.37298	0.00661
6062.91383	1.37294	0.00659
6061.41372	1.37291	0.00657
6059.91361	1.37286	0.00656
6058.41349	1.37282	0.00655
6056.91338	1.37279	0.00655
6055.41327	1.37274	0.00656
6053.91316	1.37271	0.00657
6052.41305	1.37268	0.00658
6050.91293	1.37266	0.00661
6049.41282	1.37264	0.00663
6047.91271	1.37263	0.00664
6046.4126	1.37263	0.00666
6044.91249	1.37263	0.00667
6043.41238	1.37263	0.00667
6041.91226	1.37264	0.00667
6040.41215	1.37264	0.00667
6038.91204	1.37264	0.00666
6037.41193	1.37263	0.00665
6035.91182	1.37262	0.00664
6034.4117	1.37261	0.00664
6032.91159	1.37259	0.00664
6031.41148	1.37259	0.00664
6029.91137	1.37259	0.00664
6028.41126	1.37259	0.00664
6026.91115	1.3726	0.00663
6025.41103	1.37261	0.00662
6023.91092	1.37262	0.00659
6022.41081	1.37263	0.00656
6020.9107	1.37262	0.00652
6019.41059	1.3726	0.00648
6017.91047	1.37257	0.00643
6016.41036	1.37253	0.0064
6014.91025	1.37248	0.00639
6013.41014	1.37243	0.00638
6011.91003	1.37238	0.00638
6010.40992	1.37234	0.00639
6008.9098	1.37231	0.00641
6007.40969	1.37228	0.00642
6005.90958	1.37227	0.00644
6004.40947	1.37226	0.00644
6002.90936	1.37225	0.00645
6001.40924	1.37225	0.00645
5999.90913	1.37225	0.00645
5998.40902	1.37225	0.00644
5996.90891	1.37223	0.00642
5995.4088	1.37221	0.0064
5993.90869	1.37218	0.0064
5992.40857	1.37216	0.00639
5990.90846	1.37214	0.00639
5989.40835	1.3721	0.00639
5987.90824	1.37208	0.00639
5986.40813	1.37205	0.0064
5984.90801	1.37202	0.0064
5983.4079	1.37201	0.00642
5981.90779	1.37199	0.00644
5980.40768	1.37199	0.00645
5978.90757	1.37199	0.00647
5977.40746	1.37199	0.00647
5975.90734	1.37199	0.00647
5974.40723	1.372	0.00647
5972.90712	1.372	0.00647
5971.40701	1.37201	0.00646
5969.9069	1.37201	0.00644
5968.40678	1.372	0.00642
5966.90667	1.37199	0.0064
5965.40656	1.37196	0.00638
5963.90645	1.37194	0.00638
5962.40634	1.37192	0.00637
5960.90623	1.37191	0.00637
5959.40611	1.37189	0.00636
5957.906	1.37187	0.00636
5956.40589	1.37184	0.00636
5954.90578	1.37183	0.00638
5953.40567	1.37182	0.00638
5951.90555	1.37182	0.00638
5950.40544	1.37182	0.00638
5948.90533	1.37181	0.00638
5947.40522	1.37181	0.00638
5945.90511	1.37181	0.00638
5944.405	1.37181	0.00638
5942.90488	1.37182	0.00637
5941.40477	1.37182	0.00636
5939.90466	1.37183	0.00635
5938.40455	1.37184	0.00633
5936.90444	1.37184	0.00631
5935.40433	1.37184	0.00628
5933.90421	1.37184	0.00625
5932.4041	1.37185	0.00621
5930.90399	1.37184	0.00617
5929.40388	1.37182	0.00612
5927.90377	1.37178	0.00607
5926.40365	1.37175	0.00603
5924.90354	1.37169	0.006
5923.40343	1.37164	0.00597
5921.90332	1.37158	0.00595
5920.40321	1.37152	0.00595
5918.9031	1.37145	0.00595
5917.40298	1.37139	0.00596
5915.90287	1.37134	0.00599
5914.40276	1.37131	0.00602
5912.90265	1.37128	0.00605
5911.40254	1.37126	0.00608
5909.90242	1.37125	0.0061
5908.40231	1.37125	0.00613
5906.9022	1.37125	0.00615
5905.40209	1.37126	0.00617
5903.90198	1.37127	0.00617
5902.40187	1.37129	0.00617
5900.90175	1.37129	0.00615
5899.40164	1.37129	0.00614
5897.90153	1.37128	0.00613
5896.40142	1.37128	0.00612
5894.90131	1.37127	0.0061
5893.40119	1.37127	0.00609
5891.90108	1.37126	0.00607
5890.40097	1.37125	0.00606
5888.90086	1.37123	0.00604
5887.40075	1.37122	0.00602
5885.90064	1.37121	0.00601
5884.40052	1.37119	0.00599
5882.90041	1.37118	0.00597
5881.4003	1.37115	0.00594
5879.90019	1.37112	0.00592
5878.40008	1.37109	0.0059
5876.89996	1.37105	0.00589
5875.39985	1.37102	0.00589
5873.89974	1.37099	0.00588
5872.39963	1.37096	0.00588
5870.89952	1.37092	0.00588
5869.39941	1.37088	0.00588
5867.89929	1.37085	0.00589
5866.39918	1.37083	0.0059
5864.89907	1.37081	0.00591
5863.39896	1.37079	0.00592
5861.89885	1.37077	0.00593
5860.39873	1.37075	0.00594
5858.89862	1.37074	0.00595
5857.39851	1.37073	0.00597
5855.8984	1.37073	0.00597
5854.39829	1.37074	0.00597
5852.89818	1.37075	0.00597
5851.39806	1.37075	0.00595
5849.89795	1.37075	0.00594
5848.39784	1.37074	0.00592
5846.89773	1.37072	0.0059
5845.39762	1.37071	0.00588
5843.8975	1.37069	0.00586
5842.39739	1.37065	0.00585
5840.89728	1.37062	0.00584
5839.39717	1.3706	0.00584
5837.89706	1.37058	0.00584
5836.39695	1.37057	0.00584
5834.89683	1.37055	0.00584
5833.39672	1.37054	0.00584
5831.89661	1.37053	0.00583
5830.3965	1.37052	0.00582
5828.89639	1.37051	0.00581
5827.39627	1.37049	0.0058
5825.89616	1.37047	0.00579
5824.39605	1.37045	0.00577
5822.89594	1.37042	0.00576
5821.39583	1.3704	0.00575
5819.89572	1.37038	0.00574
5818.3956	1.37035	0.00573
5816.89549	1.37031	0.00573
5815.39538	1.3703	0.00573
5813.89527	1.37027	0.00573
5812.39516	1.37026	0.00573
5810.89504	1.37024	0.00574
5809.39493	1.37022	0.00573
5807.89482	1.37022	0.00573
5806.39471	1.3702	0.00572
5804.8946	1.37019	0.00571
5803.39449	1.37016	0.0057
5801.89437	1.37014	0.00569
5800.39426	1.37012	0.00568
5798.89415	1.3701	0.00567
5797.39404	1.37007	0.00566
5795.89393	1.37005	0.00566
5794.39381	1.37002	0.00565
5792.8937	1.36999	0.00565
5791.39359	1.36997	0.00565
5789.89348	1.36995	0.00566
5788.39337	1.36993	0.00566
5786.89326	1.36991	0.00566
5785.39314	1.36989	0.00566
5783.89303	1.36988	0.00565
5782.39292	1.36986	0.00565
5780.89281	1.36984	0.00563
5779.3927	1.36981	0.00563
5777.89258	1.36978	0.00562
5776.39247	1.36976	0.00562
5774.89236	1.36971	0.00562
5773.39225	1.36968	0.00563
5771.89214	1.36965	0.00563
5770.39203	1.36962	0.00566
5768.89191	1.3696	0.00569
5767.3918	1.36959	0.00571
5765.89169	1.3696	0.00573
5764.39158	1.36961	0.00574
5762.89147	1.36963	0.00574
5761.39135	1.36963	0.00574
5759.89124	1.36964	0.00572
5758.39113	1.36965	0.00571
5756.89102	1.36965	0.00568
5755.39091	1.36965	0.00565
5753.8908	1.36963	0.00563
5752.39068	1.3696	0.0056
5750.89057	1.36958	0.00559
5749.39046	1.36956	0.00557
5747.89035	1.36953	0.00556
5746.39024	1.36951	0.00554
5744.89013	1.36949	0.00553
5743.39001	1.36946	0.0055
5741.8899	1.36943	0.00548
5740.38979	1.3694	0.00547
5738.88968	1.36936	0.00545
5737.38957	1.36932	0.00545
5735.88945	1.36928	0.00544
5734.38934	1.36924	0.00544
5732.88923	1.3692	0.00545
5731.38912	1.36917	0.00545
5729.88901	1.36913	0.00546
5728.3889	1.3691	0.00548
5726.88878	1.36909	0.00548
5725.38867	1.36906	0.00549
5723.88856	1.36905	0.00549
5722.38845	1.36903	0.00549
5720.88834	1.369	0.00549
5719.38822	1.36898	0.00549
5717.88811	1.36895	0.00549
5716.388	1.36892	0.0055
5714.88789	1.36889	0.00551
5713.38778	1.36887	0.00552
5711.88767	1.36884	0.00554
5710.38755	1.36882	0.00555
5708.88744	1.36881	0.00558
5707.38733	1.3688	0.00559
5705.88722	1.36879	0.00561
5704.38711	1.3688	0.00562
5702.88699	1.3688	0.00562
5701.38688	1.36881	0.00561
5699.88677	1.36881	0.00561
5698.38666	1.3688	0.00559
5696.88655	1.36879	0.00559
5695.38644	1.36877	0.00557
5693.88632	1.36877	0.00557
5692.38621	1.36875	0.00555
5690.8861	1.36873	0.00554
5689.38599	1.3687	0.00553
5687.88588	1.36867	0.00552
5686.38576	1.36865	0.00552
5684.88565	1.36862	0.00552
5683.38554	1.36861	0.00552
5681.88543	1.36858	0.00552
5680.38532	1.36856	0.00552
5678.88521	1.36854	0.00552
5677.38509	1.36852	0.00553
5675.88498	1.3685	0.00554
5674.38487	1.36849	0.00555
5672.88476	1.36848	0.00555
5671.38465	1.36848	0.00555
5669.88453	1.36847	0.00555
5668.38442	1.36847	0.00554
5666.88431	1.36846	0.00554
5665.3842	1.36845	0.00552
5663.88409	1.36845	0.00551
5662.38398	1.36843	0.00549
5660.88386	1.3684	0.00547
5659.38375	1.36838	0.00546
5657.88364	1.36835	0.00545
5656.38353	1.36832	0.00544
5654.88342	1.3683	0.00544
5653.3833	1.36826	0.00544
5651.88319	1.36824	0.00545
5650.38308	1.36822	0.00545
5648.88297	1.3682	0.00546
5647.38286	1.36819	0.00546
5645.88275	1.36818	0.00546
5644.38263	1.36816	0.00546
5642.88252	1.36816	0.00545
5641.38241	1.36814	0.00544
5639.8823	1.36813	0.00543
5638.38219	1.36811	0.00541
5636.88207	1.36808	0.00541
5635.38196	1.36806	0.0054
5633.88185	1.36803	0.00539
5632.38174	1.368	0.00539
5630.88163	1.36798	0.00539
5629.38152	1.36795	0.00539
5627.8814	1.36792	0.0054
5626.38129	1.36791	0.0054
5624.88118	1.36789	0.00541
5623.38107	1.36788	0.00541
5621.88096	1.36786	0.00541
5620.38084	1.36786	0.00541
5618.88073	1.36784	0.00541
5617.38062	1.36782	0.0054
5615.88051	1.3678	0.0054
5614.3804	1.36778	0.0054
5612.88029	1.36777	0.0054
5611.38017	1.36775	0.0054
5609.88006	1.36774	0.0054
5608.37995	1.36772	0.00539
5606.87984	1.3677	0.00539
5605.37973	1.3677	0.00539
5603.87961	1.36769	0.00539
5602.3795	1.36768	0.00539
5600.87939	1.36768	0.00537
5599.37928	1.36767	0.00536
5597.87917	1.36766	0.00533
5596.37906	1.36765	0.00531
5594.87894	1.36763	0.00529
5593.37883	1.36761	0.00526
5591.87872	1.36757	0.00523
5590.37861	1.36752	0.0052
5588.8785	1.36747	0.00518
5587.37838	1.36741	0.00517
5585.87827	1.36735	0.00517
5584.37816	1.36728	0.00518
5582.87805	1.36723	0.0052
5581.37794	1.36717	0.00523
5579.87783	1.36713	0.00526
5578.37771	1.3671	0.0053
5576.8776	1.36707	0.00535
5575.37749	1.36707	0.00539
5573.87738	1.36707	0.00543
5572.37727	1.36707	0.00546
5570.87715	1.36709	0.00549
5569.37704	1.3671	0.00551
5567.87693	1.36712	0.00552
5566.37682	1.36715	0.00553
5564.87671	1.36717	0.00553
5563.3766	1.3672	0.00551
5561.87648	1.36721	0.00549
5560.37637	1.36722	0.00546
5558.87626	1.36722	0.00543
5557.37615	1.36722	0.0054
5555.87604	1.3672	0.00536
5554.37592	1.36717	0.00533
5552.87581	1.36714	0.00531
5551.3757	1.36711	0.0053
5549.87559	1.36708	0.00529
5548.37548	1.36705	0.00528
5546.87537	1.36702	0.00527
5545.37525	1.36699	0.00527
5543.87514	1.36697	0.00527
5542.37503	1.36696	0.00528
5540.87492	1.36694	0.00527
5539.37481	1.36693	0.00526
5537.8747	1.36692	0.00525
5536.37458	1.36689	0.00523
5534.87447	1.36686	0.00523
5533.37436	1.36683	0.00523
5531.87425	1.36681	0.00523
5530.37414	1.36678	0.00522
5528.87402	1.36676	0.00522
5527.37391	1.36673	0.00522
5525.8738	1.36671	0.00523
5524.37369	1.36669	0.00523
5522.87358	1.36667	0.00524
5521.37347	1.36666	0.00524
5519.87335	1.36664	0.00525
5518.37324	1.36664	0.00525
5516.87313	1.36662	0.00524
5515.37302	1.36661	0.00524
5513.87291	1.36659	0.00525
5512.37279	1.36658	0.00525
5510.87268	1.36657	0.00525
5509.37257	1.36657	0.00525
5507.87246	1.36656	0.00524
5506.37235	1.36656	0.00524
5504.87224	1.36655	0.00523
5503.37212	1.36656	0.00522
5501.87201	1.36656	0.0052
5500.3719	1.36655	0.00517
5498.87179	1.36653	0.00514
5497.37168	1.36652	0.00511
5495.87156	1.36649	0.00508
5494.37145	1.36644	0.00505
5492.87134	1.36639	0.00503
5491.37123	1.36633	0.00503
5489.87112	1.36627	0.00504
5488.37101	1.36624	0.00506
5486.87089	1.36621	0.00509
5485.37078	1.36619	0.00512
5483.87067	1.36618	0.00514
5482.37056	1.36619	0.00517
5480.87045	1.36621	0.00519
5479.37033	1.36625	0.00518
5477.87022	1.36627	0.00516
5476.37011	1.36628	0.00513
5474.87	1.36628	0.0051
5473.36989	1.36627	0.00507
5471.86978	1.36625	0.00504
5470.36966	1.36624	0.00501
5468.86955	1.36622	0.00498
5467.36944	1.36618	0.00495
5465.86933	1.36614	0.00493
5464.36922	1.36611	0.00492
5462.8691	1.36608	0.00492
5461.36899	1.36607	0.00491
5459.86888	1.36605	0.0049
5458.36877	1.36603	0.00489
5456.86866	1.36602	0.00488
5455.36855	1.366	0.00486
5453.86843	1.366	0.00484
5452.36832	1.36598	0.0048
5450.86821	1.36596	0.00477
5449.3681	1.36592	0.00473
5447.86799	1.36589	0.0047
5446.36787	1.36583	0.00467
5444.86776	1.36578	0.00465
5443.36765	1.36572	0.00465
5441.86754	1.36567	0.00464
5440.36743	1.36562	0.00464
5438.86732	1.36558	0.00465
5437.3672	1.36553	0.00465
5435.86709	1.36549	0.00466
5434.36698	1.36546	0.00467
5432.86687	1.36542	0.00468
5431.36676	1.36538	0.0047
5429.86664	1.36535	0.00472
5428.36653	1.36531	0.00475
5426.86642	1.3653	0.00479
5425.36631	1.36531	0.00481
5423.8662	1.36533	0.00482
5422.36609	1.36535	0.00483
5420.86597	1.36538	0.00482
5419.36586	1.36539	0.00479
5417.86575	1.36541	0.00474
5416.36564	1.3654	0.00468
5414.86553	1.36536	0.00462
5413.36541	1.36529	0.00458
5411.8653	1.36521	0.00456
5410.36519	1.36513	0.00456
5408.86508	1.36508	0.00459
5407.36497	1.36503	0.00461
5405.86486	1.365	0.00464
5404.36474	1.36498	0.00467
5402.86463	1.36498	0.00469
5401.36452	1.36499	0.00472
5399.86441	1.36501	0.00472
5398.3643	1.36504	0.0047
5396.86418	1.36505	0.00466
5395.36407	1.36503	0.00462
5393.86396	1.36498	0.00459
5392.36385	1.36495	0.00458
5390.86374	1.36491	0.00457
5389.36363	1.36489	0.00457
5387.86351	1.36487	0.00455
5386.3634	1.36484	0.00454
5384.86329	1.36481	0.00453
5383.36318	1.36478	0.00453
5381.86307	1.36476	0.00453
5380.36295	1.36476	0.00452
5378.86284	1.36475	0.0045
5377.36273	1.36472	0.00447
5375.86262	1.36468	0.00445
5374.36251	1.36463	0.00444
5372.8624	1.36459	0.00445
5371.36228	1.36457	0.00445
5369.86217	1.36455	0.00445
5368.36206	1.36453	0.00445
5366.86195	1.36452	0.00445
5365.36184	1.3645	0.00444
5363.86172	1.36448	0.00442
5362.36161	1.36447	0.00442
5360.8615	1.36445	0.0044
5359.36139	1.36444	0.00439
5357.86128	1.36442	0.00436
5356.36117	1.36441	0.00434
5354.86105	1.36438	0.00431
5353.36094	1.36435	0.00428
5351.86083	1.36432	0.00427
5350.36072	1.3643	0.00425
5348.86061	1.36428	0.00422
5347.3605	1.36426	0.00418
5345.86038	1.36421	0.00414
5344.36027	1.36415	0.0041
5342.86016	1.36408	0.00409
5341.36005	1.36403	0.00408
5339.85994	1.36399	0.00407
5338.35982	1.36394	0.00405
5336.85971	1.36388	0.00404
5335.3596	1.36381	0.00404
5333.85949	1.36377	0.00405
5332.35938	1.36372	0.00406
5330.85927	1.36369	0.00406
5329.35915	1.36365	0.00405
5327.85904	1.36359	0.00405
5326.35893	1.36353	0.00405
5324.85882	1.36348	0.00406
5323.35871	1.36344	0.00409
5321.85859	1.3634	0.00411
5320.35848	1.36337	0.00413
5318.85837	1.36336	0.00414
5317.35826	1.36333	0.00415
5315.85815	1.36332	0.00416
5314.35804	1.3633	0.00416
5312.85792	1.36328	0.00416
5311.35781	1.36327	0.00414
5309.8577	1.36324	0.00412
5308.35759	1.36319	0.00411
5306.85748	1.36314	0.0041
5305.35736	1.3631	0.00411
5303.85725	1.36306	0.00412
5302.35714	1.36304	0.00412
5300.85703	1.36301	0.00412
5299.35692	1.36298	0.00412
5297.85681	1.36295	0.00412
5296.35669	1.36293	0.00411
5294.85658	1.36291	0.0041
5293.35647	1.36287	0.00408
5291.85636	1.36281	0.00406
5290.35625	1.36275	0.00406
5288.85613	1.36269	0.00407
5287.35602	1.36264	0.00409
5285.85591	1.36259	0.0041
5284.3558	1.36255	0.00413
5282.85569	1.36251	0.00415
5281.35558	1.36249	0.00418
5279.85546	1.36247	0.00421
5278.35535	1.36247	0.00422
5276.85524	1.36247	0.00423
5275.35513	1.36247	0.00422
5273.85502	1.36246	0.0042
5272.3549	1.36243	0.00417
5270.85479	1.3624	0.00415
5269.35468	1.36236	0.00413
5267.85457	1.36231	0.00411
5266.35446	1.36226	0.00409
5264.85435	1.3622	0.00408
5263.35423	1.36212	0.00408
5261.85412	1.36204	0.00409
5260.35401	1.36199	0.00412
5258.8539	1.36194	0.00415
5257.35379	1.3619	0.00416
5255.85367	1.36183	0.00418
5254.35356	1.36177	0.0042
5252.85345	1.36172	0.00424
5251.35334	1.36167	0.00428
5249.85323	1.36163	0.00432
5248.35312	1.36159	0.00436
5246.853	1.36154	0.00441
5245.35289	1.36151	0.00447
5243.85278	1.36149	0.00454
5242.35267	1.36151	0.00461
5240.85256	1.36152	0.00466
5239.35244	1.36156	0.0047
5237.85233	1.36158	0.00471
5236.35222	1.36161	0.00473
5234.85211	1.36164	0.00473
5233.352	1.36166	0.00472
5231.85189	1.36167	0.0047
5230.35177	1.36166	0.00468
5228.85166	1.36164	0.00466
5227.35155	1.36163	0.00465
5225.85144	1.3616	0.00464
5224.35133	1.36155	0.00464
5222.85121	1.36153	0.00466
5221.3511	1.36152	0.00467
5219.85099	1.36151	0.00468
5218.35088	1.36151	0.00468
5216.85077	1.3615	0.00468
5215.35066	1.36148	0.00469
5213.85054	1.36147	0.00469
5212.35043	1.36147	0.00469
5210.85032	1.36147	0.00468
5209.35021	1.36145	0.00466
5207.8501	1.36142	0.00465
5206.34998	1.36138	0.00465
5204.84987	1.36135	0.00466
5203.34976	1.36134	0.00468
5201.84965	1.36133	0.00469
5200.34954	1.36133	0.00469
5198.84943	1.36131	0.00468
5197.34931	1.3613	0.00468
5195.8492	1.36129	0.00468
5194.34909	1.36128	0.00468
5192.84898	1.36127	0.00467
5191.34887	1.36126	0.00465
5189.84875	1.36123	0.00464
5188.34864	1.3612	0.00463
5186.84853	1.36117	0.00463
5185.34842	1.36113	0.00465
5183.84831	1.36111	0.00466
5182.3482	1.36109	0.00467
5180.84808	1.36109	0.00468
5179.34797	1.36108	0.00469
5177.84786	1.36108	0.0047
5176.34775	1.36108	0.00471
5174.84764	1.36108	0.0047
5173.34752	1.36108	0.0047
5171.84741	1.36109	0.00468
5170.3473	1.36108	0.00466
5168.84719	1.36106	0.00464
5167.34708	1.36103	0.00463
5165.84697	1.36102	0.00462
5164.34685	1.36099	0.00461
5162.84674	1.36098	0.00461
5161.34663	1.36095	0.0046
5159.84652	1.36094	0.0046
5158.34641	1.36093	0.00461
5156.8463	1.36093	0.00461
5155.34618	1.36093	0.0046
5153.84607	1.36094	0.00459
5152.34596	1.36095	0.00456
5150.84585	1.36095	0.00453
5149.34574	1.36093	0.00449
5147.84562	1.36091	0.00445
5146.34551	1.36088	0.00441
5144.8454	1.36084	0.00437
5143.34529	1.36079	0.00435
5141.84518	1.36073	0.00433
5140.34507	1.36067	0.00432
5138.84495	1.36061	0.00433
5137.34484	1.36057	0.00435
5135.84473	1.36054	0.00438
5134.34462	1.36053	0.0044
5132.84451	1.36053	0.00441
5131.34439	1.36053	0.0044
5129.84428	1.36052	0.0044
5128.34417	1.36051	0.00439
5126.84406	1.3605	0.00438
5125.34395	1.36048	0.00436
5123.84384	1.36047	0.00434
5122.34372	1.36044	0.00433
5120.84361	1.36041	0.00433
5119.3435	1.36039	0.00433
5117.84339	1.36037	0.00433
5116.34328	1.36036	0.00433
5114.84316	1.36036	0.00432
5113.34305	1.36037	0.00431
5111.84294	1.36037	0.00429
5110.34283	1.36036	0.00425
5108.84272	1.36035	0.00422
5107.34261	1.36032	0.00419
5105.84249	1.36029	0.00416
5104.34238	1.36025	0.00413
5102.84227	1.36021	0.00412
5101.34216	1.36017	0.0041
5099.84205	1.36014	0.00409
5098.34193	1.3601	0.00408
5096.84182	1.36007	0.00409
5095.34171	1.36006	0.00408
5093.8416	1.36004	0.00408
5092.34149	1.36004	0.00407
5090.84138	1.36003	0.00405
5089.34126	1.36002	0.00403
5087.84115	1.36001	0.004
5086.34104	1.36	0.00397
5084.84093	1.35998	0.00394
5083.34082	1.35995	0.0039
5081.8407	1.35992	0.00386
5080.34059	1.35988	0.00383
5078.84048	1.35985	0.0038
5077.34037	1.35981	0.00376
5075.84026	1.35976	0.00372
5074.34015	1.3597	0.00369
5072.84003	1.35964	0.00367
5071.33992	1.35957	0.00366
5069.83981	1.35951	0.00365
5068.3397	1.35946	0.00365
5066.83959	1.3594	0.00365
5065.33947	1.35935	0.00366
5063.83936	1.3593	0.00368
5062.33925	1.35925	0.0037
5060.83914	1.35923	0.00373
5059.33903	1.35922	0.00375
5057.83892	1.35922	0.00375
5056.3388	1.35921	0.00375
5054.83869	1.35921	0.00375
5053.33858	1.35921	0.00373
5051.83847	1.35921	0.00372
5050.33836	1.35921	0.00368
5048.83824	1.3592	0.00364
5047.33813	1.35916	0.00359
5045.83802	1.35912	0.00355
5044.33791	1.35907	0.00351
5042.8378	1.35901	0.00349
5041.33769	1.35896	0.00347
5039.83757	1.35891	0.00345
5038.33746	1.35885	0.00344
5036.83735	1.35879	0.00344
5035.33724	1.35874	0.00344
5033.83713	1.3587	0.00345
5032.33701	1.35867	0.00346
5030.8369	1.35864	0.00347
5029.33679	1.35861	0.00347
5027.83668	1.35859	0.00346
5026.33657	1.35856	0.00346
5024.83646	1.35854	0.00346
5023.33634	1.35852	0.00345
5021.83623	1.3585	0.00344
5020.33612	1.35849	0.00343
5018.83601	1.35848	0.00341
5017.3359	1.35846	0.00338
5015.83578	1.35844	0.00334
5014.33567	1.35841	0.00331
5012.83556	1.35836	0.00328
5011.33545	1.35832	0.00325
5009.83534	1.35828	0.00321
5008.33523	1.35822	0.00318
5006.83511	1.35815	0.00316
5005.335	1.35808	0.00315
5003.83489	1.35801	0.00315
5002.33478	1.35795	0.00317
5000.83467	1.35792	0.00317
4999.33455	1.35788	0.00318
4997.83444	1.35785	0.00319
4996.33433	1.35781	0.0032
4994.83422	1.35779	0.0032
4993.33411	1.35777	0.0032
4991.834	1.35776	0.00319
4990.33388	1.35774	0.00316
4988.83377	1.3577	0.00313
4987.33366	1.35766	0.00311
4985.83355	1.35761	0.00309
4984.33344	1.35755	0.00308
4982.83332	1.35751	0.00308
4981.33321	1.35745	0.00308
4979.8331	1.3574	0.0031
4978.33299	1.35737	0.00311
4976.83288	1.35734	0.00313
4975.33277	1.35733	0.00314
4973.83265	1.35733	0.00314
4972.33254	1.35733	0.00313
4970.83243	1.35733	0.00312
4969.33232	1.35733	0.00308
4967.83221	1.35732	0.00304
4966.3321	1.35729	0.003
4964.83198	1.35726	0.00296
4963.33187	1.35721	0.00292
4961.83176	1.35715	0.00289
4960.33165	1.3571	0.00286
4958.83154	1.35704	0.00284
4957.33142	1.35699	0.00283
4955.83131	1.35694	0.00283
4954.3312	1.3569	0.00283
4952.83109	1.35687	0.00282
4951.33098	1.35686	0.00282
4949.83087	1.35684	0.00279
4948.33075	1.35683	0.00276
4946.83064	1.35681	0.00272
4945.33053	1.35678	0.00267
4943.83042	1.35674	0.00262
4942.33031	1.3567	0.00257
4940.83019	1.35665	0.00252
4939.33008	1.35658	0.00246
4937.82997	1.35651	0.0024
4936.32986	1.35642	0.00236
4934.82975	1.35634	0.00232
4933.32964	1.35623	0.00229
4931.82952	1.35613	0.00227
4930.32941	1.35602	0.00226
4928.8293	1.35591	0.00227
4927.32919	1.35581	0.00228
4925.82908	1.35571	0.00231
4924.32896	1.35564	0.00234
4922.82885	1.35556	0.00239
4921.32874	1.3555	0.00244
4919.82863	1.35546	0.0025
4918.32852	1.35543	0.00253
4916.82841	1.35542	0.00256
4915.32829	1.35541	0.00258
4913.82818	1.35541	0.00259
4912.32807	1.3554	0.00259
4910.82796	1.35539	0.00258
4909.32785	1.35539	0.00256
4907.82773	1.35537	0.00251
4906.32762	1.35533	0.00248
4904.82751	1.35527	0.00244
4903.3274	1.35521	0.0024
4901.82729	1.35515	0.00238
4900.32718	1.35509	0.00235
4898.82706	1.35501	0.00232
4897.32695	1.35493	0.0023
4895.82684	1.35484	0.0023
4894.32673	1.35476	0.00231
4892.82662	1.35468	0.00232
4891.3265	1.35461	0.00233
4889.82639	1.35455	0.00233
4888.32628	1.35448	0.00235
4886.82617	1.3544	0.00237
4885.32606	1.35433	0.0024
4883.82595	1.35427	0.00243
4882.32583	1.35422	0.00246
4880.82572	1.35418	0.00249
4879.32561	1.35414	0.00252
4877.8255	1.3541	0.00255
4876.32539	1.35406	0.00259
4874.82527	1.35404	0.00262
4873.32516	1.35403	0.00263
4871.82505	1.35401	0.00264
4870.32494	1.354	0.00265
4868.82483	1.35397	0.00264
4867.32472	1.35395	0.00264
4865.8246	1.35392	0.00263
4864.32449	1.35389	0.00263
4862.82438	1.35384	0.00262
4861.32427	1.3538	0.00262
4859.82416	1.35377	0.00261
4858.32404	1.35374	0.00261
4856.82393	1.3537	0.0026
4855.32382	1.35366	0.00259
4853.82371	1.35362	0.00258
4852.3236	1.35357	0.00258
4850.82349	1.35354	0.00258
4849.32337	1.35349	0.00257
4847.82326	1.35345	0.00257
4846.32315	1.35342	0.00257
4844.82304	1.35337	0.00256
4843.32293	1.35334	0.00256
4841.82281	1.35331	0.00255
4840.3227	1.35328	0.00254
4838.82259	1.35325	0.00253
4837.32248	1.35321	0.0025
4835.82237	1.35317	0.00247
4834.32226	1.35313	0.00244
4832.82214	1.35306	0.00241
4831.32203	1.353	0.00238
4829.82192	1.35294	0.00236
4828.32181	1.35286	0.00234
4826.8217	1.35277	0.00231
4825.32158	1.35268	0.00231
4823.82147	1.35259	0.00231
4822.32136	1.35248	0.00232
4820.82125	1.35239	0.00235
4819.32114	1.35231	0.00238
4817.82103	1.35223	0.00243
4816.32091	1.35217	0.00248
4814.8208	1.35211	0.00252
4813.32069	1.35208	0.00258
4811.82058	1.35205	0.00262
4810.32047	1.35204	0.00265
4808.82035	1.35203	0.00268
4807.32024	1.35202	0.0027
4805.82013	1.35201	0.0027
4804.32002	1.35199	0.00269
4802.81991	1.35197	0.00269
4801.3198	1.35194	0.00267
4799.81968	1.3519	0.00265
4798.31957	1.35185	0.00264
4796.81946	1.3518	0.00261
4795.31935	1.35174	0.00261
4793.81924	1.35168	0.0026
4792.31912	1.35161	0.00259
4790.81901	1.35154	0.0026
4789.3189	1.35147	0.00261
4787.81879	1.3514	0.00261
4786.31868	1.35133	0.00263
4784.81857	1.35125	0.00266
4783.31845	1.35119	0.00269
4781.81834	1.35112	0.00273
4780.31823	1.35107	0.00278
4778.81812	1.35102	0.00282
4777.31801	1.35097	0.00287
4775.81789	1.35094	0.00292
4774.31778	1.35092	0.00296
4772.81767	1.35091	0.003
4771.31756	1.3509	0.00303
4769.81745	1.35089	0.00306
4768.31734	1.35089	0.00307
4766.81722	1.35087	0.00308
4765.31711	1.35086	0.00308
4763.817	1.35083	0.00309
4762.31689	1.35079	0.00311
4760.81678	1.35076	0.00312
4759.31667	1.35073	0.00314
4757.81655	1.35071	0.00317
4756.31644	1.35069	0.00319
4754.81633	1.35068	0.00323
4753.31622	1.35068	0.00325
4751.81611	1.35069	0.00327
4750.31599	1.35072	0.00327
4748.81588	1.35073	0.00327
4747.31577	1.35074	0.00325
4745.81566	1.35074	0.00323
4744.31555	1.35074	0.00321
4742.81544	1.35072	0.00317
4741.31532	1.35071	0.00314
4739.81521	1.35068	0.00311
4738.3151	1.35065	0.00309
4736.81499	1.35062	0.00307
4735.31488	1.35059	0.00305
4733.81476	1.35056	0.00304
4732.31465	1.35053	0.00302
4730.81454	1.35051	0.00301
4729.31443	1.35048	0.00299
4727.81432	1.35046	0.00298
4726.31421	1.35044	0.00295
4724.81409	1.35042	0.00292
4723.31398	1.35039	0.00289
4721.81387	1.35035	0.00285
4720.31376	1.35032	0.00282
4718.81365	1.35027	0.00279
4717.31353	1.35022	0.00276
4715.81342	1.35017	0.00273
4714.31331	1.35012	0.00271
4712.8132	1.35005	0.0027
4711.31309	1.35001	0.00269
4709.81298	1.34996	0.00268
4708.31286	1.34991	0.00268
4706.81275	1.34988	0.00267
4705.31264	1.34985	0.00266
4703.81253	1.34981	0.00265
4702.31242	1.34977	0.00263
4700.8123	1.34974	0.00262
4699.31219	1.34971	0.00259
4697.81208	1.34968	0.00257
4696.31197	1.34963	0.00254
4694.81186	1.34958	0.00251
4693.31175	1.34954	0.0025
4691.81163	1.34949	0.00248
4690.31152	1.34944	0.00246
4688.81141	1.3494	0.00244
4687.3113	1.34936	0.00242
4685.81119	1.34931	0.0024
4684.31107	1.34928	0.00238
4682.81096	1.34924	0.00235
4681.31085	1.3492	0.00231
4679.81074	1.34916	0.00227
4678.31063	1.34909	0.00223
4676.81052	1.34902	0.00219
4675.3104	1.34894	0.00215
4673.81029	1.34886	0.00213
4672.31018	1.34878	0.00211
4670.81007	1.3487	0.0021
4669.30996	1.34862	0.00209
4667.80984	1.34854	0.0021
4666.30973	1.34846	0.0021
4664.80962	1.34839	0.00212
4663.30951	1.34834	0.00214
4661.8094	1.3483	0.00215
4660.30929	1.34825	0.00216
4658.80917	1.34822	0.00217
4657.30906	1.34819	0.00216
4655.80895	1.34816	0.00215
4654.30884	1.34812	0.00214
4652.80873	1.34809	0.00212
4651.30861	1.34806	0.0021
4649.8085	1.34802	0.00207
4648.30839	1.34798	0.00203
4646.80828	1.34791	0.00199
4645.30817	1.34784	0.00196
4643.80806	1.34777	0.00195
4642.30794	1.3477	0.00193
4640.80783	1.34764	0.00191
4639.30772	1.34759	0.0019
4637.80761	1.34752	0.00188
4636.3075	1.34746	0.00187
4634.80738	1.34741	0.00184
4633.30727	1.34736	0.00182
4631.80716	1.3473	0.00179
4630.30705	1.34724	0.00175
4628.80694	1.34716	0.00171
4627.30683	1.34707	0.00167
4625.80671	1.34696	0.00164
4624.3066	1.34685	0.00162
4622.80649	1.34674	0.00161
4621.30638	1.34663	0.00162
4619.80627	1.34652	0.00164
4618.30615	1.34642	0.00167
4616.80604	1.34633	0.00171
4615.30593	1.34625	0.00175
4613.80582	1.34619	0.00179
4612.30571	1.34613	0.00182
4610.8056	1.34608	0.00185
4609.30548	1.34604	0.00188
4607.80537	1.346	0.00191
4606.30526	1.34597	0.00192
4604.80515	1.34593	0.00193
4603.30504	1.3459	0.00194
4601.80492	1.34586	0.00194
4600.30481	1.34582	0.00193
4598.8047	1.34578	0.00193
4597.30459	1.34573	0.00191
4595.80448	1.34568	0.00191
4594.30437	1.34564	0.00189
4592.80425	1.34558	0.00189
4591.30414	1.34552	0.00187
4589.80403	1.34546	0.00187
4588.30392	1.34541	0.00185
4586.80381	1.34535	0.00184
4585.30369	1.34529	0.00183
4583.80358	1.34522	0.00181
4582.30347	1.34515	0.0018
4580.80336	1.34507	0.00179
4579.30325	1.34499	0.00179
4577.80314	1.34491	0.0018
4576.30302	1.34484	0.00181
4574.80291	1.34477	0.00183
4573.3028	1.34471	0.00185
4571.80269	1.34465	0.00187
4570.30258	1.3446	0.00189
4568.80247	1.34456	0.0019
4567.30235	1.34452	0.00191
4565.80224	1.34449	0.00192
4564.30213	1.34445	0.00191
4562.80202	1.34442	0.00188
4561.30191	1.34437	0.00187
4559.80179	1.34432	0.00184
4558.30168	1.34424	0.00182
4556.80157	1.34417	0.00179
4555.30146	1.34409	0.00179
4553.80135	1.34401	0.00178
4552.30124	1.34393	0.00178
4550.80112	1.34385	0.00178
4549.30101	1.34377	0.00178
4547.8009	1.34369	0.0018
4546.30079	1.34361	0.00182
4544.80068	1.34354	0.00183
4543.30056	1.34348	0.00186
4541.80045	1.34342	0.00187
4540.30034	1.34336	0.00189
4538.80023	1.3433	0.00191
4537.30012	1.34324	0.00194
4535.80001	1.3432	0.00195
4534.29989	1.34315	0.00198
4532.79978	1.34311	0.00199
4531.29967	1.34308	0.002
4529.79956	1.34305	0.002
4528.29945	1.343	0.002
4526.79933	1.34297	0.002
4525.29922	1.34292	0.00199
4523.79911	1.34287	0.00198
4522.299	1.34283	0.00198
4520.79889	1.34277	0.00196
4519.29878	1.34272	0.00196
4517.79866	1.34266	0.00195
4516.29855	1.34261	0.00195
4514.79844	1.34255	0.00194
4513.29833	1.34251	0.00193
4511.79822	1.34245	0.00193
4510.2981	1.34239	0.00191
4508.79799	1.34233	0.00191
4507.29788	1.34227	0.0019
4505.79777	1.34221	0.00189
4504.29766	1.34214	0.00188
4502.79755	1.34208	0.00188
4501.29743	1.34202	0.00188
4499.79732	1.34196	0.00188
4498.29721	1.3419	0.00187
4496.7971	1.34183	0.00187
4495.29699	1.34178	0.00187
4493.79687	1.34172	0.00187
4492.29676	1.34166	0.00186
4490.79665	1.34159	0.00186
4489.29654	1.34153	0.00186
4487.79643	1.34147	0.00186
4486.29632	1.34141	0.00187
4484.7962	1.34134	0.00187
4483.29609	1.34129	0.00188
4481.79598	1.34124	0.00188
4480.29587	1.34119	0.00189
4478.79576	1.34114	0.00189
4477.29564	1.3411	0.00189
4475.79553	1.34106	0.00188
4474.29542	1.34101	0.00188
4472.79531	1.34097	0.00186
4471.2952	1.34093	0.00184
4469.79509	1.34088	0.00182
4468.29497	1.34083	0.00179
4466.79486	1.34077	0.00177
4465.29475	1.34071	0.00174
4463.79464	1.34064	0.00171
4462.29453	1.34056	0.00169
4460.79441	1.34049	0.00166
4459.2943	1.3404	0.00163
4457.79419	1.34031	0.00163
4456.29408	1.34022	0.00162
4454.79397	1.34014	0.00162
4453.29386	1.34005	0.00162
4451.79374	1.33995	0.00163
4450.29363	1.33987	0.00165
4448.79352	1.3398	0.00167
4447.29341	1.33974	0.00169
4445.7933	1.33969	0.00172
4444.29318	1.33963	0.00173
4442.79307	1.33958	0.00175
4441.29296	1.33955	0.00177
4439.79285	1.33952	0.00177
4438.29274	1.33949	0.00176
4436.79263	1.33946	0.00175
4435.29251	1.33942	0.00173
4433.7924	1.33938	0.00171
4432.29229	1.33935	0.00168
4430.79218	1.3393	0.00164
4429.29207	1.33925	0.0016
4427.79195	1.33919	0.00155
4426.29184	1.33912	0.00152
4424.79173	1.33904	0.00148
4423.29162	1.33896	0.00144
4421.79151	1.33887	0.00141
4420.2914	1.33877	0.00137
4418.79128	1.33867	0.00136
4417.29117	1.33857	0.00135
4415.79106	1.33847	0.00135
4414.29095	1.3384	0.00135
4412.79084	1.33832	0.00135
4411.29072	1.33824	0.00135
4409.79061	1.33816	0.00135
4408.2905	1.33809	0.00135
4406.79039	1.33803	0.00135
4405.29028	1.33797	0.00134
4403.79017	1.3379	0.00132
4402.29005	1.33783	0.0013
4400.78994	1.33774	0.00128
4399.28983	1.33766	0.00127
4397.78972	1.33758	0.00126
4396.28961	1.33749	0.00125
4394.78949	1.33742	0.00124
4393.28938	1.33734	0.00123
4391.78927	1.33725	0.00122
4390.28916	1.33717	0.00122
4388.78905	1.33708	0.00122
4387.28894	1.33701	0.00122
4385.78882	1.33695	0.00122
4384.28871	1.33688	0.00121
4382.7886	1.3368	0.0012
4381.28849	1.33673	0.00118
4379.78838	1.33666	0.00117
4378.28827	1.33658	0.00115
4376.78815	1.3365	0.00113
4375.28804	1.33641	0.00111
4373.78793	1.33631	0.00109
4372.28782	1.33622	0.00109
4370.78771	1.33612	0.00108
4369.28759	1.33603	0.00108
4367.78748	1.33594	0.00109
4366.28737	1.33584	0.0011
4364.78726	1.33577	0.00111
4363.28715	1.3357	0.00112
4361.78704	1.33564	0.00112
4360.28692	1.33557	0.00112
4358.78681	1.33551	0.0011
4357.2867	1.33544	0.00108
4355.78659	1.33536	0.00107
4354.28648	1.33527	0.00104
4352.78636	1.33518	0.00103
4351.28625	1.33509	0.00101
4349.78614	1.335	1.00E-03
4348.28603	1.33489	1.00E-03
4346.78592	1.3348	9.90E-04
4345.28581	1.33471	1.00E-03
4343.78569	1.33461	0.00101
4342.28558	1.33453	0.00101
4340.78547	1.33445	0.00102
4339.28536	1.33438	0.00102
4337.78525	1.3343	0.00102
4336.28513	1.33423	0.00102
4334.78502	1.33416	0.00102
4333.28491	1.3341	1.00E-03
4331.7848	1.33403	9.90E-04
4330.28469	1.33396	9.60E-04
4328.78458	1.33388	9.30E-04
4327.28446	1.33379	8.90E-04
4325.78435	1.33369	8.60E-04
4324.28424	1.33359	8.30E-04
4322.78413	1.33347	8.10E-04
4321.28402	1.33334	7.90E-04
4319.7839	1.33321	7.80E-04
4318.28379	1.33307	7.90E-04
4316.78368	1.33295	8.10E-04
4315.28357	1.33284	8.30E-04
4313.78346	1.33273	8.80E-04
4312.28335	1.33263	9.10E-04
4310.78323	1.33255	9.50E-04
4309.28312	1.33247	9.80E-04
4307.78301	1.33242	0.00101
4306.2829	1.33236	0.00103
4304.78279	1.33231	0.00103
4303.28267	1.33226	0.00102
4301.78256	1.33219	0.00101
4300.28245	1.33212	9.90E-04
4298.78234	1.33205	9.80E-04
4297.28223	1.33197	9.50E-04
4295.78212	1.33189	9.40E-04
4294.282	1.33179	9.10E-04
4292.78189	1.3317	8.90E-04
4291.28178	1.3316	8.90E-04
4289.78167	1.33151	8.70E-04
4288.28156	1.33142	8.70E-04
4286.78144	1.33133	8.50E-04
4285.28133	1.33123	8.40E-04
4283.78122	1.33113	8.30E-04
4282.28111	1.33103	8.20E-04
4280.781	1.33093	8.10E-04
4279.28089	1.33083	8.00E-04
4277.78077	1.33072	8.00E-04
4276.28066	1.33062	8.00E-04
4274.78055	1.33052	8.00E-04
4273.28044	1.33041	8.10E-04
4271.78033	1.33032	8.10E-04
4270.28021	1.33023	8.20E-04
4268.7801	1.33014	8.20E-04
4267.27999	1.33006	8.10E-04
4265.77988	1.32997	8.10E-04
4264.27977	1.32988	7.90E-04
4262.77966	1.32978	7.80E-04
4261.27954	1.32969	7.70E-04
4259.77943	1.32959	7.60E-04
4258.27932	1.32948	7.50E-04
4256.77921	1.32937	7.40E-04
4255.2791	1.32927	7.40E-04
4253.77898	1.32917	7.40E-04
4252.27887	1.32908	7.40E-04
4250.77876	1.32898	7.30E-04
4249.27865	1.32888	7.10E-04
4247.77854	1.32879	7.00E-04
4246.27843	1.32868	6.80E-04
4244.77831	1.32857	6.80E-04
4243.2782	1.32845	6.60E-04
4241.77809	1.32834	6.50E-04
4240.27798	1.32821	6.40E-04
4238.77787	1.32808	6.40E-04
4237.27775	1.32795	6.50E-04
4235.77764	1.32784	6.70E-04
4234.27753	1.32774	6.70E-04
4232.77742	1.32764	6.80E-04
4231.27731	1.32754	6.80E-04
4229.7772	1.32743	6.70E-04
4228.27708	1.32731	6.70E-04
4226.77697	1.3272	6.60E-04
4225.27686	1.32708	6.60E-04
4223.77675	1.32696	6.50E-04
4222.27664	1.32683	6.50E-04
4220.77652	1.32669	6.50E-04
4219.27641	1.32656	6.70E-04
4217.7763	1.32642	6.80E-04
4216.27619	1.3263	7.10E-04
4214.77608	1.32616	7.40E-04
4213.27597	1.32605	7.70E-04
4211.77585	1.32593	8.10E-04
4210.27574	1.32582	8.40E-04
4208.77563	1.32571	8.80E-04
4207.27552	1.32562	9.20E-04
4205.77541	1.32551	9.60E-04
4204.27529	1.32543	9.90E-04
4202.77518	1.32536	0.00102
4201.27507	1.32528	0.00103
4199.77496	1.3252	0.00105
4198.27485	1.32511	0.00106
4196.77474	1.32503	0.00107
4195.27462	1.32495	0.00107
4193.77451	1.32487	0.00107
4192.2744	1.32477	0.00105
4190.77429	1.32468	0.00105
4189.27418	1.32457	0.00104
4187.77407	1.32447	0.00104
4186.27395	1.32436	0.00104
4184.77384	1.32426	0.00103
4183.27373	1.32416	0.00103
4181.77362	1.32405	0.00103
4180.27351	1.32393	0.00103
4178.77339	1.32383	0.00103
4177.27328	1.32372	0.00103
4175.77317	1.32362	0.00103
4174.27306	1.32351	0.00103
4172.77295	1.32339	0.00102
4171.27284	1.32328	0.00103
4169.77272	1.32316	0.00103
4168.27261	1.32305	0.00104
4166.7725	1.32294	0.00104
4165.27239	1.32284	0.00104
4163.77228	1.32272	0.00104
4162.27216	1.32261	0.00103
4160.77205	1.32249	0.00104
4159.27194	1.32238	0.00104
4157.77183	1.32227	0.00104
4156.27172	1.32215	0.00104
4154.77161	1.32204	0.00103
4153.27149	1.32191	0.00103
4151.77138	1.32178	0.00103
4150.27127	1.32166	0.00104
4148.77116	1.32154	0.00105
4147.27105	1.32141	0.00105
4145.77093	1.32129	0.00106
4144.27082	1.32117	0.00108
4142.77071	1.32104	0.00109
4141.2706	1.32093	0.00111
4139.77049	1.32083	0.00112
4138.27038	1.32073	0.00112
4136.77026	1.32062	0.00112
4135.27015	1.32051	0.00112
4133.77004	1.3204	0.00112
4132.26993	1.32029	0.00111
4130.76982	1.32018	0.00109
4129.2697	1.32005	0.00108
4127.76959	1.31992	0.00106
4126.26948	1.31978	0.00105
4124.76937	1.31964	0.00105
4123.26926	1.3195	0.00105
4121.76915	1.31936	0.00106
4120.26903	1.31923	0.00106
4118.76892	1.31909	0.00106
4117.26881	1.31896	0.00107
4115.7687	1.31882	0.00107
4114.26859	1.31869	0.00107
4112.76847	1.31854	0.00107
4111.26836	1.3184	0.00106
4109.76825	1.31825	0.00106
4108.26814	1.31808	0.00107
4106.76803	1.31792	0.00108
4105.26792	1.31776	0.00111
4103.7678	1.31759	0.00114
4102.26769	1.31744	0.00117
4100.76758	1.31729	0.00122
4099.26747	1.31715	0.00127
4097.76736	1.31703	0.00131
4096.26724	1.3169	0.00136
4094.76713	1.31679	0.0014
4093.26702	1.31667	0.00143
4091.76691	1.31656	0.00146
4090.2668	1.31645	0.00148
4088.76669	1.31634	0.00149
4087.26657	1.31622	0.0015
4085.76646	1.31611	0.0015
4084.26635	1.31598	0.0015
4082.76624	1.31584	0.00151
4081.26613	1.31569	0.00152
4079.76601	1.31555	0.00153
4078.2659	1.3154	0.00155
4076.76579	1.31525	0.00157
4075.26568	1.31511	0.00159
4073.76557	1.31496	0.00162
4072.26546	1.31482	0.00166
4070.76534	1.31468	0.0017
4069.26523	1.31455	0.00174
4067.76512	1.31442	0.00177
4066.26501	1.31429	0.0018
4064.7649	1.31417	0.00183
4063.26478	1.31404	0.00186
4061.76467	1.31392	0.00188
4060.26456	1.31379	0.00191
4058.76445	1.31367	0.00194
4057.26434	1.31354	0.00198
4055.76423	1.31344	0.002
4054.26411	1.31332	0.00202
4052.764	1.3132	0.00203
4051.26389	1.31309	0.00205
4049.76378	1.31297	0.00206
4048.26367	1.31285	0.00206
4046.76355	1.31272	0.00206
4045.26344	1.31259	0.00206
4043.76333	1.31245	0.00206
4042.26322	1.3123	0.00207
4040.76311	1.31215	0.00208
4039.263	1.312	0.00209
4037.76288	1.31185	0.00211
4036.26277	1.3117	0.00214
4034.76266	1.31155	0.00217
4033.26255	1.31141	0.00221
4031.76244	1.31128	0.00225
4030.26232	1.31115	0.00228
4028.76221	1.31104	0.00231
4027.2621	1.31093	0.00233
4025.76199	1.31082	0.00234
4024.26188	1.3107	0.00236
4022.76177	1.31059	0.00236
4021.26165	1.31048	0.00235
4019.76154	1.31035	0.00234
4018.26143	1.31023	0.00232
4016.76132	1.31008	0.00229
4015.26121	1.30992	0.00228
4013.76109	1.30976	0.00226
4012.26098	1.30959	0.00226
4010.76087	1.30942	0.00225
4009.26076	1.30924	0.00225
4007.76065	1.30905	0.00226
4006.26054	1.30887	0.00228
4004.76042	1.30868	0.00232
4003.26031	1.30852	0.00237
4001.7602	1.30836	0.0024
4000.26009	1.30822	0.00244
3998.75998	1.30807	0.00247
3997.25986	1.30793	0.00249
3995.75975	1.30779	0.00252
3994.25964	1.30766	0.00253
3992.75953	1.30751	0.00254
3991.25942	1.30735	0.00254
3989.75931	1.30719	0.00254
3988.25919	1.30701	0.00255
3986.75908	1.30684	0.00257
3985.25897	1.30667	0.00259
3983.75886	1.30648	0.00261
3982.25875	1.30631	0.00265
3980.75864	1.30614	0.00268
3979.25852	1.30598	0.00272
3977.75841	1.30583	0.00276
3976.2583	1.30568	0.0028
3974.75819	1.30552	0.00282
3973.25808	1.30537	0.00284
3971.75796	1.30521	0.00287
3970.25785	1.30504	0.00288
3968.75774	1.30487	0.00291
3967.25763	1.3047	0.00293
3965.75752	1.30451	0.00296
3964.25741	1.30434	0.003
3962.75729	1.30415	0.00304
3961.25718	1.30398	0.00311
3959.75707	1.30381	0.00317
3958.25696	1.30365	0.00323
3956.75685	1.30351	0.0033
3955.25673	1.30338	0.00337
3953.75662	1.30327	0.00342
3952.25651	1.30315	0.00345
3950.7564	1.30304	0.00347
3949.25629	1.30291	0.00348
3947.75618	1.30278	0.00349
3946.25606	1.30264	0.0035
3944.75595	1.30249	0.0035
3943.25584	1.30233	0.0035
3941.75573	1.30216	0.00351
3940.25562	1.30197	0.00352
3938.7555	1.30179	0.00356
3937.25539	1.30162	0.00361
3935.75528	1.30148	0.00366
3934.25517	1.30135	0.0037
3932.75506	1.30122	0.00372
3931.25495	1.30109	0.00374
3929.75483	1.30096	0.00375
3928.25472	1.30083	0.00376
3926.75461	1.30069	0.00375
3925.2545	1.30055	0.00373
3923.75439	1.30038	0.00369
3922.25427	1.30017	0.00367
3920.75416	1.29995	0.00367
3919.25405	1.29972	0.0037
3917.75394	1.2995	0.00376
3916.25383	1.29929	0.00384
3914.75372	1.29911	0.00394
3913.2536	1.29897	0.00405
3911.75349	1.29887	0.00416
3910.25338	1.29882	0.00424
3908.75327	1.29879	0.0043
3907.25316	1.29879	0.00429
3905.75304	1.29877	0.00425
3904.25293	1.29874	0.00416
3902.75282	1.29866	0.00402
3901.25271	1.29852	0.00387
3899.7526	1.29831	0.00373
3898.25249	1.29807	0.00361
3896.75237	1.29779	0.00353
3895.25226	1.29752	0.0035
3893.75215	1.29726	0.0035
3892.25204	1.29704	0.0035
3890.75193	1.2968	0.0035
3889.25181	1.29657	0.00353
3887.7517	1.29637	0.00356
3886.25159	1.2962	0.00358
3884.75148	1.29603	0.0036
3883.25137	1.29586	0.0036
3881.75126	1.2957	0.00358
3880.25114	1.29551	0.00357
3878.75103	1.29531	0.00356
3877.25092	1.29512	0.00357
3875.75081	1.29497	0.00357
3874.2507	1.29484	0.00354
3872.75058	1.29469	0.00348
3871.25047	1.29451	0.0034
3869.75036	1.29427	0.00332
3868.25025	1.294	0.00329
3866.75014	1.29376	0.00329
3865.25003	1.29357	0.00329
3863.74991	1.2934	0.00326
3862.2498	1.2932	0.00323
3860.74969	1.29299	0.00319
3859.24958	1.29279	0.00317
3857.74947	1.29261	0.00315
3856.24935	1.29247	0.00308
3854.74924	1.29233	0.00297
3853.24913	1.2921	0.00282
3851.74902	1.29179	0.00269
3850.24891	1.29146	0.00263
3848.7488	1.29116	0.0026
3847.24868	1.29089	0.00258
3845.74857	1.29064	0.00255
3844.24846	1.29041	0.00251
3842.74835	1.29016	0.00246
3841.24824	1.28991	0.00241
3839.74812	1.28966	0.00233
3838.24801	1.28941	0.00223
3836.7479	1.2891	0.00214
3835.24779	1.28875	0.00206
3833.74768	1.2884	0.00202
3832.24757	1.28806	0.002
3830.74745	1.28772	0.002
3829.24734	1.28741	0.00202
3827.74723	1.28714	0.00204
3826.24712	1.28691	0.00204
3824.74701	1.28668	0.002
3823.24689	1.28647	0.00191
3821.74678	1.28621	0.00179
3820.24667	1.28589	0.00164
3818.74656	1.2855	0.00153
3817.24645	1.28509	0.00143
3815.74634	1.28465	0.00137
3814.24622	1.2842	0.00138
3812.74611	1.28378	0.00142
3811.246	1.28342	0.00148
3809.74589	1.2831	0.00153
3808.24578	1.28283	0.00156
3806.74566	1.28258	0.00154
3805.24555	1.2823	0.00148
3803.74544	1.28202	0.00137
3802.24533	1.28169	0.00122
3800.74522	1.28127	0.00105
3799.24511	1.28077	9.00E-04
3797.74499	1.28021	8.00E-04
3796.24488	1.27961	7.70E-04
3794.74477	1.27897	8.00E-04
3793.24466	1.27837	9.20E-04
3791.74455	1.27781	0.00109
3790.24444	1.27729	0.00129
3788.74432	1.27684	0.00152
3787.24421	1.27643	0.00174
3785.7441	1.27607	0.00196
3784.24399	1.27574	0.00217
3782.74388	1.27544	0.00235
3781.24376	1.27517	0.0025
3779.74365	1.27489	0.00261
3778.24354	1.27459	0.0027
3776.74343	1.27426	0.0028
3775.24332	1.27392	0.0029
3773.74321	1.2736	0.00301
3772.24309	1.27328	0.00312
3770.74298	1.27297	0.00321
3769.24287	1.27264	0.0033
3767.74276	1.2723	0.00341
3766.24265	1.27195	0.00355
3764.74253	1.27165	0.00371
3763.24242	1.2714	0.00389
3761.74231	1.27121	0.00402
3760.2422	1.27105	0.00412
3758.74209	1.27089	0.00419
3757.24198	1.27074	0.00423
3755.74186	1.27064	0.00422
3754.24175	1.27056	0.00414
3752.74164	1.27044	0.00397
3751.24153	1.27025	0.00372
3749.74142	1.26995	0.00347
3748.2413	1.26959	0.00323
3746.74119	1.26923	0.00301
3745.24108	1.26883	0.00277
3743.74097	1.26837	0.00251
3742.24086	1.26785	0.00229
3740.74075	1.26729	0.00211
3739.24063	1.26676	0.00196
3737.74052	1.26626	0.00181
3736.24041	1.26574	0.00162
3734.7403	1.26515	0.0014
3733.24019	1.26449	0.0012
3731.74007	1.26377	0.00104
3730.23996	1.26303	9.40E-04
3728.73985	1.26228	8.70E-04
3727.23974	1.26151	8.40E-04
3725.73963	1.26071	8.60E-04
3724.23952	1.25993	9.40E-04
3722.7394	1.25919	0.00107
3721.23929	1.2585	0.00122
3719.73918	1.25786	0.00137
3718.23907	1.25724	0.00152
3716.73896	1.25665	0.00164
3715.23884	1.25609	0.00174
3713.73873	1.25553	0.0018
3712.23862	1.25496	0.0018
3710.73851	1.25432	0.00178
3709.2384	1.25361	0.00175
3707.73829	1.25284	0.00177
3706.23817	1.25205	0.00182
3704.73806	1.25126	0.00192
3703.23795	1.25047	0.00204
3701.73784	1.24969	0.00219
3700.23773	1.2489	0.00234
3698.73761	1.24814	0.00253
3697.2375	1.2474	0.00273
3695.73739	1.24669	0.0029
3694.23728	1.24597	0.00305
3692.73717	1.24523	0.00318
3691.23706	1.24446	0.0033
3689.73694	1.24363	0.00342
3688.23683	1.24275	0.00358
3686.73672	1.24187	0.0038
3685.23661	1.24099	0.00404
3683.7365	1.24015	0.00432
3682.23638	1.23933	0.00459
3680.73627	1.23855	0.00486
3679.23616	1.23776	0.0051
3677.73605	1.23696	0.00529
3676.23594	1.23613	0.00545
3674.73583	1.2352	0.0056
3673.23571	1.2342	0.00575
3671.7356	1.23313	0.00595
3670.23549	1.23198	0.0062
3668.73538	1.23076	0.00653
3667.23527	1.22951	0.00697
3665.73515	1.22825	0.00752
3664.23504	1.22704	0.0082
3662.73493	1.22592	0.00896
3661.23482	1.22493	0.00977
3659.73471	1.22404	0.01056
3658.2346	1.22321	0.01133
3656.73448	1.22243	0.01205
3655.23437	1.22165	0.01273
3653.73426	1.22089	0.01338
3652.23415	1.22013	0.01398
3650.73404	1.21933	0.01454
3649.23392	1.21843	0.01506
3647.73381	1.21742	0.01561
3646.2337	1.21633	0.01626
3644.73359	1.21521	0.01701
3643.23348	1.21414	0.01786
3641.73337	1.21313	0.01878
3640.23325	1.21217	0.01974
3638.73314	1.21126	0.02073
3637.23303	1.21041	0.02176
3635.73292	1.20963	0.02278
3634.23281	1.20892	0.02381
3632.73269	1.20825	0.02479
3631.23258	1.20761	0.02574
3629.73247	1.20694	0.02663
3628.23236	1.20623	0.0275
3626.73225	1.20544	0.02839
3625.23214	1.20466	0.02932
3623.73202	1.20388	0.03031
3622.23191	1.20313	0.03132
3620.7318	1.2024	0.03235
3619.23169	1.20167	0.03338
3617.73158	1.20093	0.03444
3616.23146	1.2002	0.03555
3614.73135	1.19951	0.03667
3613.23124	1.19886	0.0378
3611.73113	1.19824	0.03895
3610.23102	1.1976	0.04009
3608.73091	1.19698	0.04126
3607.23079	1.19638	0.04245
3605.73068	1.1958	0.04367
3604.23057	1.19526	0.0449
3602.73046	1.19476	0.04613
3601.23035	1.19429	0.04737
3599.73024	1.19384	0.04859
3598.23012	1.19341	0.04982
3596.73001	1.193	0.05103
3595.2299	1.19259	0.05224
3593.72979	1.19217	0.05344
3592.22968	1.19176	0.05466
3590.72956	1.19136	0.05588
3589.22945	1.19097	0.05712
3587.72934	1.19058	0.05836
3586.22923	1.19018	0.05961
3584.72912	1.18978	0.06089
3583.22901	1.1894	0.06222
3581.72889	1.18906	0.06357
3580.22878	1.18877	0.06495
3578.72867	1.18852	0.06634
3577.22856	1.18831	0.06772
3575.72845	1.18813	0.06911
3574.22833	1.18799	0.07048
3572.72822	1.1879	0.07186
3571.22811	1.18785	0.0732
3569.728	1.18781	0.07452
3568.22789	1.18779	0.0758
3566.72778	1.18774	0.07705
3565.22766	1.18768	0.0783
3563.72755	1.18762	0.07954
3562.22744	1.18754	0.0808
3560.72733	1.18747	0.08207
3559.22722	1.18739	0.08335
3557.7271	1.18733	0.08466
3556.22699	1.1873	0.08598
3554.72688	1.18729	0.08732
3553.22677	1.18731	0.08867
3551.72666	1.18737	0.09001
3550.22655	1.18744	0.09136
3548.72643	1.18754	0.09269
3547.22632	1.18767	0.09401
3545.72621	1.18779	0.09532
3544.2261	1.18793	0.09662
3542.72599	1.18807	0.09792
3541.22587	1.18822	0.09922
3539.72576	1.18838	0.10053
3538.22565	1.18857	0.10184
3536.72554	1.18877	0.10315
3535.22543	1.18899	0.10448
3533.72532	1.18923	0.10579
3532.2252	1.1895	0.1071
3530.72509	1.18978	0.1084
3529.22498	1.19008	0.10969
3527.72487	1.19039	0.11097
3526.22476	1.19072	0.11224
3524.72464	1.19104	0.11351
3523.22453	1.19138	0.11477
3521.72442	1.19171	0.11602
3520.22431	1.19205	0.11729
3518.7242	1.19242	0.11856
3517.22409	1.19279	0.11985
3515.72397	1.19321	0.12114
3514.22386	1.19365	0.12243
3512.72375	1.19413	0.1237
3511.22364	1.19462	0.12496
3509.72353	1.19514	0.1262
3508.22341	1.19566	0.12742
3506.7233	1.19621	0.12863
3505.22319	1.19676	0.12981
3503.72308	1.19732	0.13097
3502.22297	1.19786	0.13212
3500.72286	1.19839	0.13326
3499.22274	1.19893	0.13441
3497.72263	1.19947	0.13556
3496.22252	1.20002	0.13673
3494.72241	1.20058	0.1379
3493.2223	1.20117	0.13907
3491.72218	1.20176	0.14025
3490.22207	1.2024	0.14143
3488.72196	1.20305	0.14261
3487.22185	1.20374	0.14378
3485.72174	1.20445	0.14493
3484.22163	1.20518	0.14606
3482.72151	1.20593	0.14717
3481.2214	1.20668	0.14826
3479.72129	1.20744	0.14934
3478.22118	1.2082	0.1504
3476.72107	1.20897	0.15144
3475.22095	1.20975	0.15248
3473.72084	1.21054	0.15351
3472.22073	1.21132	0.15454
3470.72062	1.21212	0.15555
3469.22051	1.21294	0.15657
3467.7204	1.21377	0.15758
3466.22028	1.21463	0.15858
3464.72017	1.21549	0.15956
3463.22006	1.21637	0.16053
3461.71995	1.21725	0.16148
3460.21984	1.21814	0.16242
3458.71972	1.21905	0.16334
3457.21961	1.21996	0.16426
3455.7195	1.22089	0.16516
3454.21939	1.22182	0.16604
3452.71928	1.22276	0.16691
3451.21917	1.22371	0.16777
3449.71905	1.22466	0.16861
3448.21894	1.22562	0.16944
3446.71883	1.2266	0.17025
3445.21872	1.22757	0.17105
3443.71861	1.22854	0.17183
3442.21849	1.22951	0.17261
3440.71838	1.23049	0.17337
3439.21827	1.23148	0.17413
3437.71816	1.23249	0.17488
3436.21805	1.23349	0.17563
3434.71794	1.23451	0.17636
3433.21782	1.23554	0.17707
3431.71771	1.23658	0.17777
3430.2176	1.23762	0.17846
3428.71749	1.23868	0.17913
3427.21738	1.23974	0.17978
3425.71726	1.24081	0.18042
3424.21715	1.24189	0.18104
3422.71704	1.24296	0.18163
3421.21693	1.24403	0.18222
3419.71682	1.24511	0.1828
3418.21671	1.24619	0.18336
3416.71659	1.24728	0.1839
3415.21648	1.24836	0.18443
3413.71637	1.24945	0.18496
3412.21626	1.25054	0.18547
3410.71615	1.25165	0.18596
3409.21604	1.25276	0.18644
3407.71592	1.25387	0.18691
3406.21581	1.25499	0.18736
3404.7157	1.25611	0.18779
3403.21559	1.25723	0.18821
3401.71548	1.25837	0.1886
3400.21536	1.2595	0.18898
3398.71525	1.26062	0.18934
3397.21514	1.26175	0.18968
3395.71503	1.26287	0.19
3394.21492	1.26401	0.19031
3392.71481	1.26513	0.1906
3391.21469	1.26626	0.19087
3389.71458	1.26737	0.19113
3388.21447	1.26849	0.19137
3386.71436	1.26959	0.19159
3385.21425	1.2707	0.1918
3383.71413	1.2718	0.192
3382.21402	1.27289	0.1922
3380.71391	1.27399	0.19238
3379.2138	1.27509	0.19255
3377.71369	1.27618	0.1927
3376.21358	1.27728	0.19284
3374.71346	1.27838	0.19295
3373.21335	1.27948	0.19306
3371.71324	1.28058	0.19315
3370.21313	1.28169	0.19321
3368.71302	1.28278	0.19325
3367.2129	1.28386	0.19326
3365.71279	1.28491	0.19325
3364.21268	1.28596	0.19323
3362.71257	1.28699	0.19321
3361.21246	1.28802	0.19317
3359.71235	1.28903	0.19311
3358.21223	1.29002	0.19305
3356.71212	1.291	0.19298
3355.21201	1.29198	0.19291
3353.7119	1.29296	0.19283
3352.21179	1.29393	0.19273
3350.71167	1.29489	0.19263
3349.21156	1.29584	0.1925
3347.71145	1.29677	0.19237
3346.21134	1.2977	0.19223
3344.71123	1.29862	0.19209
3343.21112	1.29954	0.19193
3341.711	1.30044	0.19176
3340.21089	1.30132	0.19159
3338.71078	1.30219	0.19141
3337.21067	1.30306	0.19122
3335.71056	1.30391	0.19101
3334.21044	1.30475	0.19081
3332.71033	1.30559	0.1906
3331.21022	1.3064	0.19037
3329.71011	1.30719	0.19014
3328.21	1.30797	0.18989
3326.70989	1.30873	0.18966
3325.20977	1.30947	0.18943
3323.70966	1.3102	0.18919
3322.20955	1.3109	0.18897
3320.70944	1.31161	0.18875
3319.20933	1.31231	0.18855
3317.70921	1.313	0.18836
3316.2091	1.31371	0.18817
3314.70899	1.31441	0.18798
3313.20888	1.31513	0.1878
3311.70877	1.31584	0.1876
3310.20866	1.31656	0.1874
3308.70854	1.31727	0.18718
3307.20843	1.31797	0.18695
3305.70832	1.31867	0.18671
3304.20821	1.31936	0.18647
3302.7081	1.32003	0.18622
3301.20798	1.32068	0.18597
3299.70787	1.32133	0.18572
3298.20776	1.32197	0.18547
3296.70765	1.32261	0.18523
3295.20754	1.32323	0.18498
3293.70743	1.32385	0.18472
3292.20731	1.32446	0.18447
3290.7072	1.32505	0.18422
3289.20709	1.32564	0.18397
3287.70698	1.32622	0.18373
3286.20687	1.32679	0.1835
3284.70675	1.32736	0.18328
3283.20664	1.32793	0.18307
3281.70653	1.32851	0.18286
3280.20642	1.32909	0.18266
3278.70631	1.32969	0.18246
3277.2062	1.33028	0.18225
3275.70608	1.33089	0.18204
3274.20597	1.33151	0.18181
3272.70586	1.33212	0.18157
3271.20575	1.33271	0.18132
3269.70564	1.33331	0.18107
3268.20552	1.33388	0.1808
3266.70541	1.33445	0.18054
3265.2053	1.33501	0.18027
3263.70519	1.33557	0.18002
3262.20508	1.33611	0.17975
3260.70497	1.33666	0.1795
3259.20485	1.3372	0.17926
3257.70474	1.33775	0.17901
3256.20463	1.33831	0.17876
3254.70452	1.33887	0.17851
3253.20441	1.33942	0.17827
3251.70429	1.33998	0.178
3250.20418	1.34054	0.17775
3248.70407	1.3411	0.17748
3247.20396	1.34167	0.17721
3245.70385	1.34223	0.17692
3244.20374	1.34279	0.17664
3242.70362	1.34334	0.17634
3241.20351	1.34389	0.17604
3239.7034	1.34444	0.17572
3238.20329	1.345	0.17541
3236.70318	1.34553	0.17507
3235.20306	1.34606	0.17474
3233.70295	1.34658	0.1744
3232.20284	1.3471	0.17406
3230.70273	1.3476	0.1737
3229.20262	1.3481	0.17336
3227.70251	1.34859	0.17301
3226.20239	1.34908	0.17267
3224.70228	1.34956	0.17232
3223.20217	1.35006	0.17196
3221.70206	1.35054	0.17161
3220.20195	1.35102	0.17125
3218.70183	1.35149	0.17087
3217.20172	1.35197	0.1705
3215.70161	1.35243	0.17012
3214.2015	1.3529	0.16972
3212.70139	1.35334	0.16933
3211.20128	1.35378	0.16892
3209.70116	1.35421	0.16853
3208.20105	1.35463	0.16812
3206.70094	1.35505	0.16772
3205.20083	1.35546	0.16731
3203.70072	1.35586	0.1669
3202.20061	1.35626	0.16649
3200.70049	1.35665	0.16608
3199.20038	1.35703	0.16566
3197.70027	1.3574	0.16523
3196.20016	1.35777	0.16481
3194.70005	1.35812	0.16437
3193.19993	1.35846	0.16394
3191.69982	1.35879	0.16352
3190.19971	1.3591	0.16309
3188.6996	1.35942	0.16267
3187.19949	1.35973	0.16226
3185.69938	1.36002	0.16184
3184.19926	1.36032	0.16143
3182.69915	1.36061	0.16102
3181.19904	1.36091	0.16062
3179.69893	1.3612	0.16021
3178.19882	1.36148	0.15979
3176.6987	1.36175	0.15937
3175.19859	1.36202	0.15895
3173.69848	1.36227	0.15852
3172.19837	1.36251	0.15811
3170.69826	1.36273	0.1577
3169.19815	1.36296	0.15729
3167.69803	1.36317	0.1569
3166.19792	1.36339	0.15652
3164.69781	1.36361	0.15614
3163.1977	1.36384	0.15577
3161.69759	1.36407	0.15539
3160.19747	1.3643	0.155
3158.69736	1.36452	0.15461
3157.19725	1.36474	0.15421
3155.69714	1.36495	0.15381
3154.19703	1.36516	0.15341
3152.69692	1.36535	0.153
3151.1968	1.36553	0.1526
3149.69669	1.36569	0.15219
3148.19658	1.36586	0.1518
3146.69647	1.366	0.15141
3145.19636	1.36616	0.15103
3143.69624	1.3663	0.15065
3142.19613	1.36645	0.15027
3140.69602	1.36659	0.1499
3139.19591	1.36673	0.14951
3137.6958	1.36686	0.14914
3136.19569	1.36697	0.14877
3134.69557	1.36708	0.1484
3133.19546	1.36718	0.14804
3131.69535	1.36728	0.14769
3130.19524	1.36738	0.14736
3128.69513	1.36747	0.14703
3127.19501	1.36758	0.1467
3125.6949	1.36769	0.14638
3124.19479	1.36781	0.14607
3122.69468	1.36793	0.14574
3121.19457	1.36807	0.14542
3119.69446	1.36819	0.14506
3118.19434	1.36831	0.14471
3116.69423	1.36841	0.14435
3115.19412	1.3685	0.14399
3113.69401	1.36856	0.14363
3112.1939	1.36862	0.14327
3110.69378	1.36867	0.14293
3109.19367	1.3687	0.14259
3107.69356	1.36873	0.14227
3106.19345	1.36877	0.14195
3104.69334	1.3688	0.14165
3103.19323	1.36882	0.14135
3101.69311	1.36885	0.14106
3100.193	1.36889	0.14078
3098.69289	1.36892	0.14051
3097.19278	1.36896	0.14024
3095.69267	1.369	0.13996
3094.19255	1.36904	0.1397
3092.69244	1.36909	0.13944
3091.19233	1.36914	0.13918
3089.69222	1.3692	0.13892
3088.19211	1.36926	0.13864
3086.692	1.36932	0.13836
3085.19188	1.36937	0.13807
3083.69177	1.36941	0.13778
3082.19166	1.36944	0.13749
3080.69155	1.36947	0.13719
3079.19144	1.36948	0.13691
3077.69132	1.36948	0.13661
3076.19121	1.36948	0.13633
3074.6911	1.36946	0.13606
3073.19099	1.36944	0.1358
3071.69088	1.36942	0.13554
3070.19077	1.36939	0.13529
3068.69065	1.36937	0.13505
3067.19054	1.36934	0.13481
3065.69043	1.36932	0.13458
3064.19032	1.36927	0.13435
3062.69021	1.36924	0.13414
3061.19009	1.36921	0.13394
3059.68998	1.36918	0.13374
3058.18987	1.36915	0.13354
3056.68976	1.36913	0.13336
3055.18965	1.36912	0.13318
3053.68954	1.36911	0.13299
3052.18942	1.3691	0.13282
3050.68931	1.36909	0.13263
3049.1892	1.36909	0.13245
3047.68909	1.36909	0.13228
3046.18898	1.36908	0.1321
3044.68886	1.36908	0.13191
3043.18875	1.36909	0.13173
3041.68864	1.36908	0.13155
3040.18853	1.36907	0.13136
3038.68842	1.36907	0.13118
3037.18831	1.36905	0.13099
3035.68819	1.36905	0.1308
3034.18808	1.36903	0.13062
3032.68797	1.369	0.13043
3031.18786	1.36895	0.13024
3029.68775	1.3689	0.13008
3028.18763	1.36885	0.12992
3026.68752	1.3688	0.12978
3025.18741	1.36875	0.12964
3023.6873	1.36872	0.12951
3022.18719	1.36869	0.12939
3020.68708	1.36867	0.12927
3019.18696	1.36865	0.12916
3017.68685	1.36865	0.12904
3016.18674	1.36865	0.12891
3014.68663	1.36864	0.12877
3013.18652	1.36863	0.12864
3011.68641	1.3686	0.1285
3010.18629	1.36857	0.12837
3008.68618	1.36854	0.12825
3007.18607	1.36851	0.12813
3005.68596	1.36848	0.12803
3004.18585	1.36846	0.12793
3002.68573	1.36843	0.12784
3001.18562	1.36842	0.12775
2999.68551	1.36842	0.12766
2998.1854	1.36842	0.12757
2996.68529	1.36843	0.12748
2995.18518	1.36844	0.12738
2993.68506	1.36844	0.12728
2992.18495	1.36844	0.12718
2990.68484	1.36844	0.12709
2989.18473	1.36843	0.12698
2987.68462	1.36843	0.12689
2986.1845	1.36841	0.12681
2984.68439	1.36841	0.12673
2983.18428	1.36841	0.12666
2981.68417	1.36841	0.12658
2980.18406	1.36843	0.12651
2978.68395	1.36845	0.12645
2977.18383	1.36846	0.12639
2975.68372	1.36849	0.12631
2974.18361	1.36853	0.12625
2972.6835	1.36857	0.12617
2971.18339	1.36862	0.12609
2969.68327	1.36866	0.12601
2968.18316	1.36869	0.12592
2966.68305	1.36873	0.12582
2965.18294	1.36877	0.12573
2963.68283	1.36881	0.12564
2962.18272	1.36884	0.12553
2960.6826	1.36887	0.12543
2959.18249	1.36889	0.12533
2957.68238	1.3689	0.12522
2956.18227	1.36892	0.12513
2954.68216	1.36892	0.12504
2953.18204	1.36893	0.12495
2951.68193	1.36893	0.12487
2950.18182	1.36893	0.1248
2948.68171	1.36892	0.12474
2947.1816	1.36893	0.12469
2945.68149	1.36894	0.12465
2944.18137	1.36896	0.12464
2942.68126	1.36899	0.12462
2941.18115	1.36903	0.12461
2939.68104	1.36912	0.12461
2938.18093	1.36922	0.12461
2936.68081	1.36934	0.1246
2935.1807	1.36947	0.12458
2933.68059	1.36963	0.12455
2932.18048	1.3698	0.12449
2930.68037	1.37	0.12442
2929.18026	1.37021	0.12432
2927.68014	1.37043	0.12419
2926.18003	1.37066	0.12402
2924.67992	1.37087	0.12381
2923.17981	1.37108	0.12357
2921.6797	1.37125	0.12327
2920.17958	1.37139	0.12295
2918.67947	1.37149	0.12258
2917.17936	1.37152	0.12221
2915.67925	1.37148	0.12182
2914.17914	1.37138	0.12147
2912.67903	1.37122	0.12115
2911.17891	1.37103	0.12086
2909.6788	1.37081	0.12064
2908.17869	1.37059	0.12046
2906.67858	1.37038	0.12034
2905.17847	1.37019	0.12026
2903.67835	1.37002	0.12021
2902.17824	1.36989	0.12018
2900.67813	1.36978	0.12016
2899.17802	1.36969	0.12014
2897.67791	1.36963	0.12012
2896.1778	1.36957	0.12011
2894.67768	1.36951	0.12008
2893.17757	1.36946	0.12006
2891.67746	1.36942	0.12004
2890.17735	1.36937	0.12003
2888.67724	1.36934	0.12002
2887.17712	1.36932	0.12002
2885.67701	1.3693	0.12003
2884.1769	1.3693	0.12004
2882.67679	1.36931	0.12004
2881.17668	1.36934	0.12003
2879.67657	1.36937	0.12003
2878.17645	1.3694	0.12001
2876.67634	1.36945	0.11999
2875.17623	1.36949	0.11997
2873.67612	1.36953	0.11994
2872.17601	1.36957	0.11991
2870.67589	1.36961	0.11988
2869.17578	1.36965	0.11986
2867.67567	1.3697	0.11985
2866.17556	1.36976	0.11984
2864.67545	1.36984	0.11984
2863.17534	1.36994	0.11984
2861.67522	1.37009	0.11983
2860.17511	1.37026	0.1198
2858.675	1.37045	0.11973
2857.17489	1.37065	0.11962
2855.67478	1.37084	0.11947
2854.17466	1.37102	0.11927
2852.67455	1.37118	0.11904
2851.17444	1.37129	0.11876
2849.67433	1.37134	0.11846
2848.17422	1.37132	0.11815
2846.67411	1.37125	0.11786
2845.17399	1.37113	0.11761
2843.67388	1.37098	0.1174
2842.17377	1.37082	0.11723
2840.67366	1.37065	0.11711
2839.17355	1.37049	0.11702
2837.67343	1.37035	0.11697
2836.17332	1.37023	0.11695
2834.67321	1.37014	0.11695
2833.1731	1.37007	0.11695
2831.67299	1.37003	0.11696
2830.17288	1.37	0.11697
2828.67276	1.37	0.11697
2827.17265	1.37	0.11696
2825.67254	1.37001	0.11696
2824.17243	1.37003	0.11695
2822.67232	1.37006	0.11693
2821.17221	1.3701	0.11691
2819.67209	1.37013	0.11688
2818.17198	1.37018	0.11685
2816.67187	1.37024	0.1168
2815.17176	1.37028	0.11676
2813.67165	1.37034	0.11669
2812.17153	1.37039	0.11663
2810.67142	1.37044	0.11657
2809.17131	1.3705	0.11649
2807.6712	1.37056	0.11642
2806.17109	1.3706	0.11632
2804.67098	1.37065	0.11624
2803.17086	1.37069	0.11614
2801.67075	1.37073	0.11604
2800.17064	1.37077	0.11594
2798.67053	1.3708	0.11583
2797.17042	1.37084	0.11573
2795.6703	1.37085	0.11562
2794.17019	1.37086	0.11551
2792.67008	1.37087	0.11541
2791.16997	1.37089	0.1153
2789.66986	1.3709	0.11521
2788.16975	1.3709	0.11511
2786.66963	1.37091	0.11501
2785.16952	1.37091	0.11492
2783.66941	1.37093	0.11483
2782.1693	1.37094	0.11474
2780.66919	1.37096	0.11466
2779.16907	1.37098	0.11456
2777.66896	1.371	0.11446
2776.16885	1.37102	0.11437
2774.66874	1.37105	0.11426
2773.16863	1.37107	0.11415
2771.66852	1.37109	0.11404
2770.1684	1.37112	0.11393
2768.66829	1.37113	0.1138
2767.16818	1.37115	0.11368
2765.66807	1.37115	0.11354
2764.16796	1.37116	0.11341
2762.66784	1.37115	0.11328
2761.16773	1.37114	0.11314
2759.66762	1.37112	0.11301
2758.16751	1.3711	0.11288
2756.6674	1.37107	0.11275
2755.16729	1.37104	0.11262
2753.66717	1.37101	0.1125
2752.16706	1.37098	0.11238
2750.66695	1.37095	0.11226
2749.16684	1.37092	0.11215
2747.66673	1.37089	0.11202
2746.16661	1.37086	0.1119
2744.6665	1.37081	0.11177
2743.16639	1.37077	0.11166
2741.66628	1.37072	0.11153
2740.16617	1.37066	0.11142
2738.66606	1.37061	0.11131
2737.16594	1.37055	0.1112
2735.66583	1.3705	0.11109
2734.16572	1.37044	0.11099
2732.66561	1.37039	0.11089
2731.1655	1.37033	0.11078
2729.66538	1.37029	0.11068
2728.16527	1.37023	0.11058
2726.66516	1.37018	0.11047
2725.16505	1.37012	0.11035
2723.66494	1.37006	0.11024
2722.16483	1.36998	0.11012
2720.66471	1.36989	0.11001
2719.1646	1.36981	0.10991
2717.66449	1.36972	0.1098
2716.16438	1.36961	0.10971
2714.66427	1.36952	0.10962
2713.16415	1.36941	0.10954
2711.66404	1.36931	0.10948
2710.16393	1.36921	0.10943
2708.66382	1.36912	0.10937
2707.16371	1.36902	0.10933
2705.6636	1.36895	0.10928
2704.16348	1.36887	0.10923
2702.66337	1.36879	0.10919
2701.16326	1.36873	0.10914
2699.66315	1.36866	0.1091
2698.16304	1.3686	0.10906
2696.66292	1.36854	0.109
2695.16281	1.36847	0.10895
2693.6627	1.36839	0.10891
2692.16259	1.36833	0.10887
2690.66248	1.36827	0.10882
2689.16237	1.36822	0.10878
2687.66225	1.36816	0.10874
2686.16214	1.3681	0.1087
2684.66203	1.36806	0.10866
2683.16192	1.36802	0.10862
2681.66181	1.36798	0.10857
2680.16169	1.36795	0.10851
2678.66158	1.36791	0.10844
2677.16147	1.36786	0.10838
2675.66136	1.36782	0.1083
2674.16125	1.36776	0.10822
2672.66114	1.36769	0.10814
2671.16102	1.36762	0.10807
2669.66091	1.36754	0.108
2668.1608	1.36746	0.10794
2666.66069	1.36737	0.10788
2665.16058	1.3673	0.10782
2663.66046	1.36722	0.10777
2662.16035	1.36714	0.10774
2660.66024	1.36708	0.10769
2659.16013	1.36701	0.10764
2657.66002	1.36695	0.1076
2656.15991	1.36688	0.10755
2654.65979	1.36682	0.10749
2653.15968	1.36675	0.10744
2651.65957	1.36669	0.10739
2650.15946	1.36662	0.10733
2648.65935	1.36656	0.10728
2647.15923	1.36648	0.10721
2645.65912	1.36641	0.10716
2644.15901	1.36634	0.10711
2642.6589	1.36627	0.10705
2641.15879	1.36619	0.107
2639.65868	1.36612	0.10693
2638.15856	1.36605	0.10687
2636.65845	1.36596	0.10681
2635.15834	1.36587	0.10675
2633.65823	1.36579	0.10669
2632.15812	1.36569	0.10662
2630.658	1.36561	0.10656
2629.15789	1.36551	0.1065
2627.65778	1.36541	0.10645
2626.15767	1.3653	0.10638
2624.65756	1.36519	0.10634
2623.15745	1.36508	0.10628
2621.65733	1.36497	0.10624
2620.15722	1.36485	0.10619
2618.65711	1.36474	0.10615
2617.157	1.36461	0.10612
2615.65689	1.3645	0.10609
2614.15678	1.36437	0.10606
2612.65666	1.36425	0.10604
2611.15655	1.36412	0.10602
2609.65644	1.36401	0.10602
2608.15633	1.36389	0.10601
2606.65622	1.36378	0.106
2605.1561	1.36366	0.10599
2603.65599	1.36355	0.10599
2602.15588	1.36344	0.106
2600.65577	1.36333	0.106
2599.15566	1.36323	0.106
2597.65555	1.36312	0.10601
2596.15543	1.36302	0.10601
2594.65532	1.36291	0.10603
2593.15521	1.36281	0.10603
2591.6551	1.36271	0.10606
2590.15499	1.36262	0.10608
2588.65487	1.36253	0.10608
2587.15476	1.36243	0.1061
2585.65465	1.36233	0.10612
2584.15454	1.36225	0.10614
2582.65443	1.36216	0.10616
2581.15432	1.36208	0.10619
2579.6542	1.362	0.10621
2578.15409	1.36193	0.10623
2576.65398	1.36185	0.10625
2575.15387	1.36179	0.10628
2573.65376	1.36173	0.1063
2572.15364	1.36166	0.10631
2570.65353	1.36161	0.10632
2569.15342	1.36155	0.10633
2567.65331	1.36149	0.10633
2566.1532	1.36142	0.10633
2564.65309	1.36136	0.10633
2563.15297	1.3613	0.10632
2561.65286	1.36124	0.10631
2560.15275	1.36117	0.1063
2558.65264	1.36109	0.1063
2557.15253	1.36101	0.10629
2555.65241	1.36095	0.10629
2554.1523	1.36087	0.10628
2552.65219	1.3608	0.10627
2551.15208	1.36073	0.10626
2549.65197	1.36066	0.10625
2548.15186	1.36059	0.10623
2546.65174	1.36052	0.10621
2545.15163	1.36044	0.10619
2543.65152	1.36036	0.10617
2542.15141	1.36026	0.10614
2540.6513	1.36017	0.10611
2539.15118	1.36007	0.10608
2537.65107	1.35996	0.10606
2536.15096	1.35985	0.10604
2534.65085	1.35974	0.10603
2533.15074	1.35962	0.10602
2531.65063	1.35951	0.10601
2530.15051	1.35939	0.10601
2528.6504	1.35928	0.10601
2527.15029	1.35916	0.10601
2525.65018	1.35905	0.10601
2524.15007	1.35893	0.10602
2522.64995	1.35881	0.10602
2521.14984	1.3587	0.10602
2519.64973	1.35858	0.10602
2518.14962	1.35845	0.10602
2516.64951	1.35831	0.10603
2515.1494	1.35818	0.10603
2513.64928	1.35804	0.10605
2512.14917	1.3579	0.10607
2510.64906	1.35775	0.1061
2509.14895	1.35761	0.10613
2507.64884	1.35747	0.10616
2506.14872	1.35734	0.10621
2504.64861	1.35721	0.10626
2503.1485	1.35707	0.1063
2501.64839	1.35694	0.10635
2500.14828	1.3568	0.1064
2498.64817	1.35666	0.10646
2497.14805	1.35652	0.10652
2495.64794	1.35639	0.1066
2494.14783	1.35625	0.10666
2492.64772	1.35613	0.10675
2491.14761	1.35601	0.10684
2489.64749	1.35589	0.10693
2488.14738	1.35578	0.10703
2486.64727	1.35569	0.10713
2485.14716	1.3556	0.10722
2483.64705	1.35552	0.10732
2482.14694	1.35545	0.10741
2480.64682	1.35538	0.10749
2479.14671	1.35532	0.10756
2477.6466	1.35524	0.10764
2476.14649	1.35517	0.10771
2474.64638	1.35511	0.10777
2473.14626	1.35503	0.10783
2471.64615	1.35495	0.1079
2470.14604	1.35488	0.10796
2468.64593	1.3548	0.10802
2467.14582	1.35472	0.10808
2465.64571	1.35464	0.10815
2464.14559	1.35456	0.10822
2462.64548	1.35449	0.10829
2461.14537	1.35442	0.10835
2459.64526	1.35436	0.10842
2458.14515	1.35429	0.10849
2456.64503	1.35422	0.10854
2455.14492	1.35416	0.1086
2453.64481	1.35409	0.10865
2452.1447	1.35402	0.10871
2450.64459	1.35394	0.10876
2449.14448	1.35386	0.1088
2447.64436	1.35378	0.10885
2446.14425	1.35371	0.10891
2444.64414	1.35362	0.10896
2443.14403	1.35354	0.10902
2441.64392	1.35345	0.10908
2440.1438	1.35338	0.10913
2438.64369	1.3533	0.1092
2437.14358	1.35322	0.10926
2435.64347	1.35314	0.10931
2434.14336	1.35306	0.10937
2432.64325	1.35299	0.10942
2431.14313	1.35291	0.10947
2429.64302	1.35283	0.10952
2428.14291	1.35274	0.10957
2426.6428	1.35266	0.10961
2425.14269	1.35256	0.10967
2423.64258	1.35247	0.10972
2422.14246	1.35237	0.10976
2420.64235	1.35226	0.10981
2419.14224	1.35215	0.10986
2417.64213	1.35204	0.10992
2416.14202	1.35192	0.10998
2414.6419	1.35181	0.11005
2413.14179	1.35169	0.11011
2411.64168	1.35157	0.11018
2410.14157	1.35144	0.11026
2408.64146	1.35131	0.11035
2407.14135	1.35118	0.11044
2405.64123	1.35106	0.11053
2404.14112	1.35094	0.11063
2402.64101	1.35081	0.11074
2401.1409	1.35069	0.11085
2399.64079	1.35056	0.11098
2398.14067	1.35044	0.11111
2396.64056	1.35032	0.11125
2395.14045	1.35022	0.11139
2393.64034	1.35012	0.11153
2392.14023	1.35003	0.11169
2390.64012	1.34994	0.11184
2389.14	1.34986	0.11201
2387.63989	1.34979	0.11217
2386.13978	1.34974	0.11233
2384.63967	1.34969	0.11249
2383.13956	1.34965	0.11264
2381.63944	1.34961	0.1128
2380.13933	1.34959	0.11295
2378.63922	1.34957	0.11309
2377.13911	1.34955	0.11323
2375.639	1.34953	0.11336
2374.13889	1.34951	0.11348
2372.63877	1.34951	0.11361
2371.13866	1.34949	0.11373
2369.63855	1.34948	0.11386
2368.13844	1.34947	0.11396
2366.63833	1.34946	0.11408
2365.13821	1.34945	0.11419
2363.6381	1.34945	0.1143
2362.13799	1.34944	0.1144
2360.63788	1.34943	0.1145
2359.13777	1.34943	0.11461
2357.63766	1.34943	0.1147
2356.13754	1.34942	0.11479
2354.63743	1.34942	0.11489
2353.13732	1.34942	0.11498
2351.63721	1.34942	0.11507
2350.1371	1.34942	0.11516
2348.63698	1.34942	0.11524
2347.13687	1.34943	0.11532
2345.63676	1.34943	0.1154
2344.13665	1.34944	0.11547
2342.63654	1.34944	0.11554
2341.13643	1.34945	0.11561
2339.63631	1.34946	0.11567
2338.1362	1.34947	0.11573
2336.63609	1.34947	0.11577
2335.13598	1.34948	0.11582
2333.63587	1.34948	0.11585
2332.13575	1.34947	0.11588
2330.63564	1.34946	0.11591
2329.13553	1.34945	0.11593
2327.63542	1.34941	0.11595
2326.13531	1.34938	0.11597
2324.6352	1.34933	0.11599
2323.13508	1.34929	0.11601
2321.63497	1.34923	0.11604
2320.13486	1.34918	0.11606
2318.63475	1.34911	0.1161
2317.13464	1.34904	0.11613
2315.63452	1.34898	0.11618
2314.13441	1.34891	0.11622
2312.6343	1.34883	0.11626
2311.13419	1.34876	0.11632
2309.63408	1.34869	0.11636
2308.13397	1.34862	0.11642
2306.63385	1.34854	0.11648
2305.13374	1.34846	0.11653
2303.63363	1.34839	0.1166
2302.13352	1.34831	0.11666
2300.63341	1.34823	0.11672
2299.13329	1.34815	0.11679
2297.63318	1.34808	0.11687
2296.13307	1.34799	0.11693
2294.63296	1.34791	0.11701
2293.13285	1.34783	0.11709
2291.63274	1.34774	0.11718
2290.13262	1.34766	0.11726
2288.63251	1.34757	0.11736
2287.1324	1.34748	0.11746
2285.63229	1.34741	0.11757
2284.13218	1.34733	0.11768
2282.63206	1.34727	0.1178
2281.13195	1.34722	0.11792
2279.63184	1.34717	0.11805
2278.13173	1.34714	0.11816
2276.63162	1.34711	0.11828
2275.13151	1.3471	0.11838
2273.63139	1.34708	0.11849
2272.13128	1.34707	0.11857
2270.63117	1.34705	0.11866
2269.13106	1.34703	0.11873
2267.63095	1.347	0.1188
2266.13083	1.34697	0.11886
2264.63072	1.34694	0.11893
2263.13061	1.34689	0.11899
2261.6305	1.34683	0.11905
2260.13039	1.34678	0.11912
2258.63028	1.34673	0.11919
2257.13016	1.34665	0.11927
2255.63005	1.34659	0.11935
2254.12994	1.34653	0.11944
2252.62983	1.34647	0.11953
2251.12972	1.34641	0.11964
2249.6296	1.34636	0.11975
2248.12949	1.34631	0.11986
2246.62938	1.34627	0.11997
2245.12927	1.34624	0.12008
2243.62916	1.34622	0.12019
2242.12905	1.34621	0.1203
2240.62893	1.34621	0.12041
2239.12882	1.34621	0.1205
2237.62871	1.34621	0.1206
2236.1286	1.34621	0.12067
2234.62849	1.34622	0.12075
2233.12838	1.34623	0.12082
2231.62826	1.34623	0.12088
2230.12815	1.34623	0.12095
2228.62804	1.34623	0.12099
2227.12793	1.34623	0.12104
2225.62782	1.34622	0.12109
2224.1277	1.34621	0.12113
2222.62759	1.3462	0.12117
2221.12748	1.34619	0.12121
2219.62737	1.34617	0.12125
2218.12726	1.34615	0.12128
2216.62715	1.34613	0.12131
2215.12703	1.3461	0.12134
2213.62692	1.34609	0.12137
2212.12681	1.34607	0.12139
2210.6267	1.34604	0.12141
2209.12659	1.34602	0.12143
2207.62647	1.34599	0.12143
2206.12636	1.34595	0.12144
2204.62625	1.34591	0.12144
2203.12614	1.34586	0.12144
2201.62603	1.3458	0.12144
2200.12592	1.34574	0.12144
2198.6258	1.34567	0.12144
2197.12569	1.3456	0.12144
2195.62558	1.34552	0.12144
2194.12547	1.34544	0.12145
2192.62536	1.34534	0.12146
2191.12524	1.34525	0.12147
2189.62513	1.34515	0.12149
2188.12502	1.34506	0.1215
2186.62491	1.34497	0.12152
2185.1248	1.34486	0.12154
2183.62469	1.34476	0.12156
2182.12457	1.34466	0.12158
2180.62446	1.34455	0.1216
2179.12435	1.34444	0.12164
2177.62424	1.34432	0.12166
2176.12413	1.34421	0.12169
2174.62401	1.34409	0.12172
2173.1239	1.34397	0.12176
2171.62379	1.34384	0.12181
2170.12368	1.34373	0.12185
2168.62357	1.3436	0.1219
2167.12346	1.34348	0.12195
2165.62334	1.34336	0.122
2164.12323	1.34324	0.12205
2162.62312	1.34312	0.12212
2161.12301	1.34299	0.12217
2159.6229	1.34287	0.12223
2158.12278	1.34274	0.12229
2156.62267	1.34262	0.12236
2155.12256	1.34249	0.12243
2153.62245	1.34237	0.1225
2152.12234	1.34224	0.12257
2150.62223	1.34213	0.12265
2149.12211	1.34201	0.12272
2147.622	1.34188	0.1228
2146.12189	1.34177	0.12288
2144.62178	1.34165	0.12297
2143.12167	1.34153	0.12305
2141.62155	1.34142	0.12314
2140.12144	1.34131	0.12323
2138.62133	1.34121	0.12332
2137.12122	1.34112	0.12341
2135.62111	1.34102	0.12349
2134.121	1.34094	0.12356
2132.62088	1.34085	0.12364
2131.12077	1.34076	0.12371
2129.62066	1.34068	0.12378
2128.12055	1.34059	0.12384
2126.62044	1.34049	0.12389
2125.12032	1.3404	0.12394
2123.62021	1.34031	0.12399
2122.1201	1.3402	0.12405
2120.61999	1.34011	0.12409
2119.11988	1.34	0.12414
2117.61977	1.3399	0.12419
2116.11965	1.3398	0.12422
2114.61954	1.33969	0.12426
2113.11943	1.33959	0.1243
2111.61932	1.33947	0.12432
2110.11921	1.33936	0.12434
2108.61909	1.33924	0.12437
2107.11898	1.33912	0.12438
2105.61887	1.33899	0.12439
2104.11876	1.33885	0.1244
2102.61865	1.3387	0.1244
2101.11854	1.33854	0.1244
2099.61842	1.33837	0.12441
2098.11831	1.33819	0.12441
2096.6182	1.338	0.12442
2095.11809	1.33781	0.12444
2093.61798	1.33761	0.12445
2092.11786	1.33739	0.12448
2090.61775	1.33718	0.12452
2089.11764	1.33697	0.12455
2087.61753	1.33674	0.1246
2086.11742	1.33652	0.12466
2084.61731	1.3363	0.12471
2083.11719	1.33608	0.12478
2081.61708	1.33586	0.12484
2080.11697	1.33564	0.1249
2078.61686	1.33541	0.12496
2077.11675	1.33518	0.12504
2075.61663	1.33495	0.1251
2074.11652	1.33471	0.12517
2072.61641	1.33446	0.12524
2071.1163	1.33422	0.12532
2069.61619	1.33396	0.1254
2068.11608	1.3337	0.1255
2066.61596	1.33344	0.12559
2065.11585	1.33318	0.12569
2063.61574	1.33292	0.1258
2062.11563	1.33266	0.12592
2060.61552	1.3324	0.12604
2059.1154	1.33213	0.12616
2057.61529	1.33188	0.12629
2056.11518	1.33161	0.12642
2054.61507	1.33135	0.12656
2053.11496	1.33108	0.1267
2051.61485	1.33082	0.12685
2050.11473	1.33055	0.127
2048.61462	1.3303	0.12715
2047.11451	1.33004	0.12731
2045.6144	1.32978	0.12747
2044.11429	1.32953	0.12763
2042.61418	1.32927	0.12779
2041.11406	1.32902	0.12797
2039.61395	1.32877	0.12813
2038.11384	1.32851	0.12829
2036.61373	1.32825	0.12846
2035.11362	1.32799	0.12863
2033.6135	1.32772	0.1288
2032.11339	1.32746	0.12897
2030.61328	1.3272	0.12915
2029.11317	1.32693	0.12934
2027.61306	1.32667	0.12953
2026.11295	1.3264	0.12971
2024.61283	1.32614	0.12991
2023.11272	1.32588	0.1301
2021.61261	1.32562	0.13029
2020.1125	1.32536	0.13049
2018.61239	1.3251	0.13068
2017.11227	1.32484	0.13087
2015.61216	1.32457	0.13106
2014.11205	1.3243	0.13126
2012.61194	1.32402	0.13145
2011.11183	1.32374	0.13165
2009.61172	1.32345	0.13185
2008.1116	1.32316	0.13206
2006.61149	1.32288	0.13227
2005.11138	1.32258	0.13249
2003.61127	1.3223	0.13272
2002.11116	1.32202	0.13294
2000.61104	1.32173	0.13317
1999.11093	1.32145	0.13339
1997.61082	1.32116	0.13361
1996.11071	1.32087	0.13383
1994.6106	1.32057	0.13405
1993.11049	1.32027	0.13425
1991.61037	1.31996	0.13446
1990.11026	1.31962	0.13468
1988.61015	1.31928	0.1349
1987.11004	1.31892	0.13514
1985.60993	1.31854	0.13538
1984.10981	1.31817	0.13563
1982.6097	1.3178	0.13591
1981.10959	1.31741	0.13621
1979.60948	1.31704	0.13651
1978.10937	1.31667	0.13683
1976.60926	1.31631	0.13716
1975.10914	1.31596	0.13749
1973.60903	1.31561	0.13782
1972.10892	1.31525	0.13816
1970.60881	1.31489	0.1385
1969.1087	1.31453	0.13884
1967.60858	1.31417	0.13918
1966.10847	1.3138	0.13953
1964.60836	1.31341	0.13989
1963.10825	1.31302	0.14028
1961.60814	1.31264	0.14067
1960.10803	1.31224	0.14107
1958.60791	1.31186	0.1415
1957.1078	1.31147	0.14195
1955.60769	1.3111	0.1424
1954.10758	1.31075	0.14287
1952.60747	1.3104	0.14335
1951.10735	1.31007	0.14383
1949.60724	1.30976	0.1443
1948.10713	1.30943	0.14477
1946.60702	1.30912	0.14524
1945.10691	1.3088	0.14571
1943.6068	1.30849	0.14617
1942.10668	1.30815	0.14663
1940.60657	1.30778	0.14709
1939.10646	1.30741	0.14757
1937.60635	1.30702	0.14808
1936.10624	1.30664	0.14861
1934.60612	1.30627	0.14918
1933.10601	1.30589	0.14975
1931.6059	1.30554	0.15036
1930.10579	1.3052	0.15099
1928.60568	1.3049	0.15164
1927.10557	1.30462	0.15229
1925.60545	1.30437	0.15292
1924.10534	1.30412	0.15356
1922.60523	1.30389	0.15418
1921.10512	1.30366	0.1548
1919.60501	1.30342	0.15541
1918.10489	1.30319	0.15602
1916.60478	1.30294	0.15663
1915.10467	1.30268	0.15724
1913.60456	1.30241	0.15787
1912.10445	1.30215	0.15851
1910.60434	1.30189	0.15917
1909.10422	1.30163	0.15984
1907.60411	1.30138	0.16052
1906.104	1.30112	0.16122
1904.60389	1.30088	0.16194
1903.10378	1.30066	0.16268
1901.60366	1.30046	0.16342
1900.10355	1.30028	0.16418
1898.60344	1.3001	0.16494
1897.10333	1.29995	0.16569
1895.60322	1.29981	0.16645
1894.10311	1.29968	0.1672
1892.60299	1.29957	0.16796
1891.10288	1.29945	0.16869
1889.60277	1.29933	0.16943
1888.10266	1.29919	0.17016
1886.60255	1.29905	0.17091
1885.10243	1.29888	0.17168
1883.60232	1.29873	0.17247
1882.10221	1.29859	0.17331
1880.6021	1.29849	0.17417
1879.10199	1.29842	0.17505
1877.60188	1.29838	0.17593
1876.10176	1.29839	0.1768
1874.60165	1.29842	0.17767
1873.10154	1.29848	0.17852
1871.60143	1.29857	0.17934
1870.10132	1.29866	0.18012
1868.6012	1.29874	0.18086
1867.10109	1.29876	0.18157
1865.60098	1.29874	0.18228
1864.10087	1.29868	0.18303
1862.60076	1.29861	0.18381
1861.10065	1.29854	0.18462
1859.60053	1.29846	0.18547
1858.10042	1.2984	0.18638
1856.60031	1.29836	0.18733
1855.1002	1.29839	0.18833
1853.60009	1.29847	0.18933
1852.09997	1.2986	0.19033
1850.59986	1.29878	0.19132
1849.09975	1.29899	0.19229
1847.59964	1.29923	0.19323
1846.09953	1.29948	0.19415
1844.59942	1.29973	0.19502
1843.0993	1.29994	0.19588
1841.59919	1.30015	0.19674
1840.09908	1.30035	0.19763
1838.59897	1.30056	0.19853
1837.09886	1.3008	0.19945
1835.59875	1.30106	0.20037
1834.09863	1.30134	0.20129
1832.59852	1.30165	0.20222
1831.09841	1.30198	0.20314
1829.5983	1.30235	0.20401
1828.09819	1.3027	0.20486
1826.59807	1.30303	0.20569
1825.09796	1.30334	0.20651
1823.59785	1.30362	0.20735
1822.09774	1.3039	0.20821
1820.59763	1.30417	0.20909
1819.09752	1.30445	0.21
1817.5974	1.30473	0.21093
1816.09729	1.30503	0.21191
1814.59718	1.30538	0.21292
1813.09707	1.30577	0.21395
1811.59696	1.30621	0.215
1810.09684	1.30669	0.21602
1808.59673	1.30719	0.21704
1807.09662	1.30771	0.21806
1805.59651	1.30826	0.21909
1804.0964	1.30887	0.22013
1802.59629	1.30956	0.22116
1801.09617	1.31028	0.22212
1799.59606	1.311	0.22303
1798.09595	1.31171	0.22392
1796.59584	1.31243	0.22478
1795.09573	1.31317	0.22564
1793.59561	1.31392	0.22646
1792.0955	1.31465	0.22723
1790.59539	1.31532	0.22797
1789.09528	1.31592	0.22874
1787.59517	1.31651	0.22956
1786.09506	1.31713	0.23046
1784.59494	1.31781	0.23142
1783.09483	1.31856	0.2324
1781.59472	1.31939	0.23338
1780.09461	1.32028	0.23435
1778.5945	1.32121	0.2353
1777.09438	1.32221	0.23622
1775.59427	1.32327	0.2371
1774.09416	1.32439	0.23792
1772.59405	1.32552	0.23862
1771.09394	1.3266	0.23923
1769.59383	1.3276	0.2398
1768.09371	1.32854	0.24037
1766.5936	1.32945	0.24097
1765.09349	1.33035	0.24161
1763.59338	1.33127	0.2423
1762.09327	1.33223	0.24302
1760.59315	1.33321	0.24376
1759.09304	1.33426	0.24452
1757.59293	1.33538	0.24531
1756.09282	1.33657	0.24608
1754.59271	1.33783	0.24681
1753.0926	1.33917	0.24752
1751.59248	1.34057	0.24814
1750.09237	1.34198	0.24867
1748.59226	1.34338	0.24913
1747.09215	1.34477	0.24955
1745.59204	1.34617	0.24996
1744.09192	1.34763	0.25034
1742.59181	1.34912	0.25064
1741.0917	1.35062	0.25086
1739.59159	1.3521	0.25098
1738.09148	1.35353	0.25104
1736.59137	1.35494	0.25105
1735.09125	1.35632	0.25101
1733.59114	1.35765	0.25088
1732.09103	1.35882	0.25071
1730.59092	1.35991	0.2506
1729.09081	1.36098	0.25057
1727.59069	1.36208	0.25062
1726.09058	1.36324	0.25069
1724.59047	1.36445	0.25077
1723.09036	1.36571	0.25084
1721.59025	1.367	0.2509
1720.09014	1.36839	0.25094
1718.59002	1.36987	0.25089
1717.08991	1.37133	0.25068
1715.5898	1.37269	0.25036
1714.08969	1.37394	0.25001
1712.58958	1.37514	0.24971
1711.08946	1.37637	0.24946
1709.58935	1.37765	0.24922
1708.08924	1.37901	0.24894
1706.58913	1.3804	0.2486
1705.08902	1.3818	0.24816
1703.58891	1.3832	0.24766
1702.08879	1.38463	0.24705
1700.58868	1.38602	0.2463
1699.08857	1.38726	0.24539
1697.58846	1.38833	0.24443
1696.08835	1.38928	0.24348
1694.58823	1.39009	0.24254
1693.08812	1.3908	0.24167
1691.58801	1.39145	0.24088
1690.0879	1.3921	0.24017
1688.58779	1.39274	0.23954
1687.08768	1.39345	0.23898
1685.58756	1.39425	0.23841
1684.08745	1.39504	0.23773
1682.58734	1.39573	0.23702
1681.08723	1.39637	0.23634
1679.58712	1.39701	0.23568
1678.087	1.39765	0.23503
1676.58689	1.39826	0.23439
1675.08678	1.39884	0.23374
1673.58667	1.39937	0.23309
1672.08656	1.39985	0.23249
1670.58645	1.40034	0.23195
1669.08633	1.4008	0.23143
1667.58622	1.40121	0.23098
1666.08611	1.40165	0.23069
1664.586	1.40225	0.23049
1663.08589	1.40296	0.2303
1661.58577	1.40375	0.23011
1660.08566	1.40463	0.22993
1658.58555	1.40569	0.22977
1657.08544	1.40695	0.22955
1655.58533	1.40841	0.22916
1654.08522	1.40995	0.22848
1652.5851	1.41136	0.22747
1651.08499	1.41251	0.22631
1649.58488	1.41354	0.22516
1648.08477	1.41456	0.224
1646.58466	1.41552	0.22273
1645.08455	1.41632	0.22138
1643.58443	1.41696	0.22003
1642.08432	1.41748	0.21877
1640.58421	1.41801	0.21763
1639.0841	1.41866	0.21657
1637.58399	1.41942	0.21544
1636.08387	1.42016	0.21417
1634.58376	1.42079	0.2128
1633.08365	1.42131	0.21141
1631.58354	1.4218	0.21006
1630.08343	1.4223	0.20872
1628.58332	1.42283	0.20731
1627.0832	1.42333	0.20584
1625.58309	1.42376	0.20428
1624.08298	1.42409	0.20266
1622.58287	1.42435	0.20103
1621.08276	1.42454	0.19938
1619.58264	1.42472	0.19769
1618.08253	1.42482	0.19593
1616.58242	1.42478	0.19407
1615.08231	1.42452	0.19219
1613.5822	1.42409	0.19036
1612.08209	1.42355	0.18863
1610.58197	1.42294	0.18698
1609.08186	1.42227	0.1854
1607.58175	1.42154	0.18388
1606.08164	1.42074	0.18241
1604.58153	1.41987	0.18104
1603.08141	1.419	0.17976
1601.5813	1.41811	0.17854
1600.08119	1.41722	0.17736
1598.58108	1.41628	0.17623
1597.08097	1.41531	0.17515
1595.58086	1.41431	0.17412
1594.08074	1.41327	0.17315
1592.58063	1.4122	0.17225
1591.08052	1.4111	0.17144
1589.58041	1.41001	0.17073
1588.0803	1.40897	0.1701
1586.58018	1.40797	0.16952
1585.08007	1.407	0.16898
1583.57996	1.40605	0.16849
1582.07985	1.40515	0.16804
1580.57974	1.40432	0.16762
1579.07963	1.40355	0.16719
1577.57951	1.40279	0.1667
1576.0794	1.40197	0.16616
1574.57929	1.40104	0.16565
1573.07918	1.40007	0.16528
1571.57907	1.39921	0.16503
1570.07895	1.39849	0.16479
1568.57884	1.39782	0.16452
1567.07873	1.39717	0.16421
1565.57862	1.39655	0.16388
1564.07851	1.39598	0.16355
1562.5784	1.39548	0.16317
1561.07828	1.39506	0.16267
1559.57817	1.39456	0.16196
1558.07806	1.39377	0.1611
1556.57795	1.3927	0.16031
1555.07784	1.39149	0.15971
1553.57772	1.39027	0.15928
1552.07761	1.38912	0.15902
1550.5775	1.38803	0.15885
1549.07739	1.38699	0.15874
1547.57728	1.386	0.1587
1546.07717	1.38514	0.15875
1544.57705	1.38449	0.15879
1543.07694	1.38397	0.15869
1541.57683	1.38343	0.1584
1540.07672	1.38274	0.15794
1538.57661	1.38181	0.15744
1537.07649	1.38071	0.15703
1535.57638	1.37956	0.15677
1534.07627	1.37841	0.15661
1532.57616	1.37724	0.15654
1531.07605	1.37608	0.15659
1529.57594	1.37499	0.15676
1528.07582	1.37403	0.15702
1526.57571	1.37322	0.15731
1525.0756	1.37253	0.15755
1523.57549	1.37189	0.15769
1522.07538	1.37122	0.15777
1520.57526	1.3705	0.1578
1519.07515	1.36977	0.15788
1517.57504	1.36909	0.15792
1516.07493	1.36838	0.15793
1514.57482	1.36763	0.15792
1513.07471	1.36685	0.15796
1511.57459	1.3661	0.15803
1510.07448	1.3654	0.15811
1508.57437	1.36477	0.15814
1507.07426	1.36411	0.15806
1505.57415	1.3633	0.1579
1504.07403	1.36234	0.15778
1502.57392	1.36134	0.1578
1501.07381	1.3604	0.15789
1499.5737	1.35949	0.15801
1498.07359	1.35858	0.15811
1496.57348	1.35761	0.15822
1495.07336	1.35659	0.15838
1493.57325	1.35559	0.15866
1492.07314	1.35471	0.159
1490.57303	1.35387	0.15931
1489.07292	1.353	0.15957
1487.5728	1.35207	0.15987
1486.07269	1.35112	0.16023
1484.57258	1.35023	0.16069
1483.07247	1.34943	0.16121
1481.57236	1.34871	0.16172
1480.07225	1.34804	0.16222
1478.57213	1.3474	0.1627
1477.07202	1.34686	0.16317
1475.57191	1.34636	0.16359
1474.0718	1.34588	0.16393
1472.57169	1.34533	0.16418
1471.07157	1.34469	0.16441
1469.57146	1.34404	0.1647
1468.07135	1.34342	0.16502
1466.57124	1.34286	0.16534
1465.07113	1.34228	0.1656
1463.57102	1.34167	0.16583
1462.0709	1.34103	0.16608
1460.57079	1.34044	0.16636
1459.07068	1.33991	0.16659
1457.57057	1.33936	0.16672
1456.07046	1.33869	0.16674
1454.57035	1.33786	0.16676
1453.07023	1.3369	0.16685
1451.57012	1.33591	0.16705
1450.07001	1.33493	0.16735
1448.5699	1.33396	0.16771
1447.06979	1.33299	0.16812
1445.56967	1.33201	0.16859
1444.06956	1.33108	0.16917
1442.56945	1.33025	0.1698
1441.06934	1.32954	0.17045
1439.56923	1.32889	0.17106
1438.06912	1.32827	0.1716
1436.569	1.32762	0.17209
1435.06889	1.32694	0.17254
1433.56878	1.32622	0.17303
1432.06867	1.32554	0.17355
1430.56856	1.32487	0.17407
1429.06844	1.32422	0.17459
1427.56833	1.32356	0.17508
1426.06822	1.32289	0.17558
1424.56811	1.32223	0.1761
1423.068	1.3216	0.1766
1421.56789	1.321	0.17709
1420.06777	1.3204	0.17754
1418.56766	1.31974	0.17793
1417.06755	1.31901	0.17831
1415.56744	1.31823	0.17872
1414.06733	1.31743	0.17917
1412.56721	1.3166	0.17967
1411.0671	1.31578	0.18022
1409.56699	1.31495	0.18081
1408.06688	1.31416	0.18145
1406.56677	1.31341	0.18212
1405.06666	1.31272	0.1828
1403.56654	1.31206	0.18348
1402.06643	1.31143	0.18414
1400.56632	1.31082	0.18477
1399.06621	1.31023	0.18537
1397.5661	1.30964	0.18593
1396.06598	1.30901	0.18645
1394.56587	1.30833	0.18695
1393.06576	1.3076	0.18744
1391.56565	1.30682	0.18797
1390.06554	1.30604	0.18853
1388.56543	1.30524	0.18912
1387.06531	1.30443	0.18971
1385.5652	1.3036	0.19034
1384.06509	1.30277	0.19103
1382.56498	1.30195	0.19174
1381.06487	1.30116	0.19249
1379.56475	1.30039	0.19326
1378.06464	1.29965	0.19403
1376.56453	1.29892	0.19479
1375.06442	1.29821	0.19556
1373.56431	1.29749	0.19634
1372.0642	1.29679	0.1971
1370.56408	1.29607	0.19787
1369.06397	1.29537	0.19863
1367.56386	1.29465	0.19941
1366.06375	1.29394	0.20018
1364.56364	1.29322	0.20097
1363.06352	1.29249	0.20175
1361.56341	1.29175	0.20254
1360.0633	1.29101	0.20334
1358.56319	1.29025	0.20417
1357.06308	1.2895	0.20503
1355.56297	1.28875	0.2059
1354.06285	1.28802	0.20679
1352.56274	1.2873	0.2077
1351.06263	1.28659	0.20864
1349.56252	1.28591	0.20959
1348.06241	1.28525	0.21055
1346.56229	1.28463	0.21151
1345.06218	1.28404	0.21247
1343.56207	1.28346	0.2134
1342.06196	1.2829	0.21432
1340.56185	1.28235	0.21522
1339.06174	1.28178	0.21608
1337.56162	1.28121	0.21693
1336.06151	1.28062	0.21777
1334.5614	1.28002	0.2186
1333.06129	1.27941	0.21943
1331.56118	1.2788	0.22026
1330.06106	1.27819	0.22108
1328.56095	1.27755	0.22191
1327.06084	1.27692	0.22273
1325.56073	1.2763	0.22356
1324.06062	1.27568	0.22437
1322.56051	1.27505	0.22516
1321.06039	1.27441	0.22592
1319.56028	1.27377	0.22667
1318.06017	1.27309	0.22739
1316.56006	1.27239	0.22809
1315.05995	1.27165	0.22877
1313.55983	1.27088	0.22943
1312.05972	1.27007	0.23008
1310.55961	1.26922	0.23073
1309.0595	1.26832	0.23137
1307.55939	1.26738	0.23201
1306.05928	1.26638	0.23265
1304.55916	1.26533	0.23329
1303.05905	1.26424	0.23395
1301.55894	1.26309	0.23461
1300.05883	1.2619	0.23528
1298.55872	1.26066	0.23598
1297.0586	1.25936	0.23669
1295.55849	1.25799	0.23742
1294.05838	1.25657	0.23816
1292.55827	1.25509	0.23894
1291.05816	1.25355	0.23975
1289.55805	1.25192	0.24058
1288.05793	1.25023	0.24146
1286.55782	1.24846	0.24238
1285.05771	1.24661	0.24337
1283.5576	1.24469	0.24442
1282.05749	1.24268	0.24553
1280.55737	1.24061	0.24673
1279.05726	1.23847	0.24803
1277.55715	1.23626	0.24941
1276.05704	1.23398	0.25091
1274.55693	1.23164	0.25252
1273.05682	1.22925	0.25425
1271.5567	1.22682	0.25611
1270.05659	1.22434	0.25811
1268.55648	1.22182	0.26024
1267.05637	1.21926	0.26253
1265.55626	1.21669	0.26498
1264.05615	1.2141	0.26759
1262.55603	1.21151	0.27039
1261.05592	1.20894	0.27337
1259.55581	1.20637	0.27653
1258.0557	1.20384	0.27989
1256.55559	1.20136	0.28344
1255.05547	1.19895	0.2872
1253.55536	1.19661	0.29117
1252.05525	1.19438	0.29534
1250.55514	1.19226	0.29971
1249.05503	1.19028	0.30428
1247.55492	1.18845	0.30904
1246.0548	1.1868	0.31399
1244.55469	1.18534	0.3191
1243.05458	1.18408	0.32437
1241.55447	1.18305	0.32978
1240.05436	1.18226	0.3353
1238.55424	1.18171	0.34092
1237.05413	1.18141	0.3466
1235.55402	1.18135	0.35233
1234.05391	1.18155	0.35809
1232.5538	1.18199	0.36384
1231.05369	1.18268	0.36958
1229.55357	1.18359	0.37528
1228.05346	1.18474	0.38092
1226.55335	1.1861	0.3865
1225.05324	1.18766	0.392
1223.55313	1.18941	0.39738
1222.05301	1.19133	0.40266
1220.5529	1.19341	0.40783
1219.05279	1.19564	0.41286
1217.55268	1.19799	0.41776
1216.05257	1.20044	0.42254
1214.55246	1.20298	0.42719
1213.05234	1.20559	0.43171
1211.55223	1.20826	0.43612
1210.05212	1.21097	0.44044
1208.55201	1.21373	0.44468
1207.0519	1.21653	0.44884
1205.55178	1.21936	0.45295
1204.05167	1.22223	0.45701
1202.55156	1.22516	0.46104
1201.05145	1.22813	0.46504
1199.55134	1.23117	0.46903
1198.05123	1.23427	0.47301
1196.55111	1.23745	0.47698
1195.051	1.24074	0.48094
1193.55089	1.24413	0.4849
1192.05078	1.24763	0.48883
1190.55067	1.25127	0.49275
1189.05055	1.25506	0.49664
1187.55044	1.25899	0.50049
1186.05033	1.26309	0.50429
1184.55022	1.26736	0.50802
1183.05011	1.27182	0.51166
1181.55	1.27644	0.51519
1180.04988	1.28126	0.51859
1178.54977	1.28624	0.52183
1177.04966	1.29139	0.52491
1175.54955	1.29671	0.52778
1174.04944	1.30216	0.53042
1172.54932	1.30774	0.53282
1171.04921	1.31343	0.53496
1169.5491	1.31918	0.53684
1168.04899	1.32499	0.53843
1166.54888	1.33083	0.53973
1165.04877	1.33666	0.54075
1163.54865	1.34246	0.54149
1162.04854	1.34821	0.54193
1160.54843	1.35387	0.54211
1159.04832	1.35944	0.54203
1157.54821	1.36488	0.5417
1156.04809	1.37017	0.54114
1154.54798	1.37531	0.54036
1153.04787	1.38027	0.53939
1151.54776	1.38504	0.53825
1150.04765	1.38961	0.53695
1148.54754	1.39397	0.53552
1147.04742	1.39814	0.53399
1145.54731	1.40207	0.53236
1144.0472	1.40581	0.53067
1142.54709	1.40932	0.52893
1141.04698	1.41262	0.52717
1139.54686	1.41573	0.5254
1138.04675	1.41864	0.52366
1136.54664	1.42138	0.52193
1135.04653	1.42392	0.52025
1133.54642	1.42632	0.51864
1132.04631	1.42856	0.5171
1130.54619	1.43068	0.51564
1129.04608	1.43267	0.51428
1127.54597	1.43457	0.51301
1126.04586	1.43639	0.51183
1124.54575	1.43813	0.51076
1123.04563	1.43982	0.50981
1121.54552	1.44147	0.50894
1120.04541	1.4431	0.50817
1118.5453	1.44472	0.50749
1117.04519	1.44634	0.50689
1115.54508	1.44796	0.50636
1114.04496	1.4496	0.5059
1112.54485	1.45125	0.50548
1111.04474	1.45293	0.5051
1109.54463	1.45464	0.50474
1108.04452	1.45635	0.5044
1106.5444	1.45809	0.50406
1105.04429	1.45982	0.50372
1103.54418	1.46156	0.50338
1102.04407	1.46331	0.50302
1100.54396	1.46502	0.50264
1099.04385	1.46671	0.50224
1097.54373	1.46835	0.50181
1096.04362	1.46993	0.50138
1094.54351	1.47146	0.50094
1093.0434	1.4729	0.50048
1091.54329	1.47426	0.50004
1090.04317	1.47551	0.49963
1088.54306	1.47663	0.49926
1087.04295	1.47766	0.49896
1085.54284	1.47856	0.49874
1084.04273	1.47935	0.49865
1082.54262	1.48001	0.49871
1081.0425	1.48058	0.49893
1079.54239	1.48103	0.49937
1078.04228	1.48143	0.50007
1076.54217	1.48178	0.50106
1075.04206	1.48213	0.50239
1073.54194	1.48255	0.50408
1072.04183	1.48309	0.50616
1070.54172	1.48383	0.50865
1069.04161	1.48485	0.51155
1067.5415	1.48626	0.51484
1066.04139	1.48813	0.51847
1064.54127	1.49055	0.5224
1063.04116	1.4936	0.52652
1061.54105	1.49733	0.53075
1060.04094	1.50177	0.53496
1058.54083	1.50694	0.53902
1057.04072	1.51281	0.54281
1055.5406	1.51935	0.54617
1054.04049	1.52646	0.54902
1052.54038	1.53407	0.55124
1051.04027	1.54206	0.55277
1049.54016	1.55032	0.55354
1048.04004	1.55874	0.55355
1046.53993	1.56717	0.55278
1045.03982	1.57551	0.55127
1043.53971	1.58369	0.54905
1042.0396	1.59161	0.54619
1040.53949	1.59921	0.54275
1039.03937	1.60644	0.5388
1037.53926	1.61329	0.53441
1036.03915	1.61971	0.52965
1034.53904	1.62571	0.52459
1033.03893	1.6313	0.51927
1031.53881	1.63647	0.51374
1030.0387	1.64126	0.50805
1028.53859	1.64565	0.50221
1027.03848	1.64966	0.49629
1025.53837	1.65331	0.49027
1024.03826	1.6566	0.48419
1022.53814	1.65954	0.47807
1021.03803	1.66214	0.47192
1019.53792	1.6644	0.46576
1018.03781	1.66632	0.45962
1016.5377	1.66793	0.45349
1015.03758	1.66922	0.44742
1013.53747	1.67019	0.4414
1012.03736	1.67086	0.43546
1010.53725	1.67123	0.42962
1009.03714	1.67132	0.42388
1007.53703	1.67111	0.41827
1006.03691	1.67063	0.41279
1004.5368	1.66987	0.40747
1003.03669	1.66882	0.40234
1001.53658	1.66752	0.39743
1000.03647	1.66597	0.39277
998.53635	1.66421	0.38839
997.03624	1.66227	0.38434
995.53613	1.66021	0.38063
994.03602	1.6581	0.3773
992.53591	1.65598	0.37433
991.0358	1.65396	0.37172
989.53568	1.65207	0.36942
988.03557	1.65038	0.36738
986.53546	1.64893	0.36555
985.03535	1.64772	0.36386
983.53524	1.64676	0.36222
982.03512	1.64602	0.36056
980.53501	1.64547	0.35885
979.0349	1.64505	0.35701
977.53479	1.6447	0.35504
976.03468	1.64437	0.35292
974.53457	1.64402	0.35065
973.03445	1.64358	0.34825
971.53434	1.64304	0.34576
970.03423	1.64236	0.34318
968.53412	1.64153	0.34056
967.03401	1.64055	0.33793
965.53389	1.63943	0.33532
964.03378	1.63816	0.33273
962.53367	1.63674	0.3302
961.03356	1.63519	0.32774
959.53345	1.63352	0.32537
958.03334	1.63171	0.32309
956.53322	1.62982	0.32092
955.03311	1.62781	0.31886
953.533	1.62571	0.31691
952.03289	1.62353	0.31511
950.53278	1.62125	0.31343
949.03266	1.61891	0.3119
947.53255	1.61651	0.31052
946.03244	1.61404	0.3093
944.53233	1.61154	0.30825
943.03222	1.609	0.30736
941.53211	1.60644	0.30665
940.03199	1.60386	0.30612
938.53188	1.60129	0.30577
937.03177	1.59873	0.30563
935.53166	1.5962	0.30567
934.03155	1.59371	0.30592
932.53143	1.59127	0.30635
931.03132	1.58891	0.30699
929.53121	1.58665	0.30784
928.0311	1.58451	0.30889
926.53099	1.58251	0.31012
925.03088	1.58066	0.31155
923.53076	1.57899	0.31314
922.03065	1.57753	0.31491
920.53054	1.57628	0.31683
919.03043	1.57528	0.31886
917.53032	1.57454	0.32101
916.0302	1.57406	0.32325
914.53009	1.57386	0.32554
913.02998	1.57396	0.32787
911.52987	1.57437	0.3302
910.02976	1.57509	0.33249
908.52965	1.57612	0.33473
907.02953	1.57746	0.33683
905.52942	1.57909	0.3388
904.02931	1.581	0.34059
902.5292	1.58317	0.34216
901.02909	1.58557	0.34346
899.52897	1.58816	0.34449
898.02886	1.59089	0.34519
896.52875	1.59374	0.34557
895.02864	1.59665	0.3456
893.52853	1.59959	0.34529
892.02842	1.60249	0.34463
890.5283	1.60532	0.34363
889.02819	1.60804	0.34232
887.52808	1.6106	0.34069
886.02797	1.61297	0.3388
884.52786	1.61512	0.33667
883.02774	1.61701	0.33434
881.52763	1.61866	0.33186
880.02752	1.62005	0.32926
878.52741	1.62119	0.32658
877.0273	1.62208	0.32385
875.52719	1.62274	0.3211
874.02707	1.62317	0.31836
872.52696	1.6234	0.31565
871.02685	1.62346	0.31297
869.52674	1.62333	0.31034
868.02663	1.62306	0.30777
866.52652	1.62264	0.30525
865.0264	1.62207	0.30279
863.52629	1.62138	0.30041
862.02618	1.62055	0.29811
860.52607	1.61962	0.29588
859.02596	1.61858	0.29375
857.52584	1.61744	0.29172
856.02573	1.61622	0.28978
854.52562	1.61493	0.28796
853.02551	1.61358	0.28623
851.5254	1.61217	0.28459
850.02529	1.61074	0.28307
848.52517	1.60928	0.28163
847.02506	1.60781	0.28027
845.52495	1.60631	0.27899
844.02484	1.60481	0.27777
842.52473	1.60327	0.27661
841.02461	1.60171	0.27551
839.5245	1.60013	0.27446
838.02439	1.5985	0.27347
836.52428	1.59682	0.27253
835.02417	1.5951	0.27167
833.52406	1.59332	0.27089
832.02394	1.5915	0.27022
830.52383	1.58966	0.26966
829.02372	1.58782	0.26923
827.52361	1.58598	0.26891
826.0235	1.58419	0.26871
824.52338	1.58244	0.26862
823.02327	1.58077	0.26863
821.52316	1.57919	0.2687
820.02305	1.5777	0.26883
818.52294	1.57628	0.26898
817.02283	1.57493	0.26914
815.52271	1.5736	0.26929
814.0226	1.57234	0.26945
812.52249	1.57108	0.26959
811.02238	1.56983	0.26972
809.52227	1.56858	0.26985
808.02215	1.56731	0.26999
806.52204	1.56603	0.27016
805.02193	1.56473	0.27034
803.52182	1.56344	0.27057
802.02171	1.56215	0.27081
800.5216	1.56084	0.2711
799.02148	1.55954	0.27143
797.52137	1.55824	0.27179
796.02126	1.55694	0.27221
794.52115	1.55566	0.27267
793.02104	1.55439	0.27316
791.52092	1.55312	0.27368
790.02081	1.55188	0.27426
788.5207	1.55064	0.27489
787.02059	1.54943	0.27557
785.52048	1.54825	0.27629
784.02037	1.5471	0.27706
782.52025	1.546	0.27786
781.02014	1.54493	0.2787
779.52003	1.5439	0.27956
778.01992	1.54292	0.28045
776.51981	1.54197	0.28136
775.01969	1.54106	0.28229
773.51958	1.54019	0.28323
772.01947	1.53935	0.28418
770.51936	1.53853	0.28514
769.01925	1.53775	0.2861
767.51914	1.53698	0.28709
766.01902	1.53626	0.28811
764.51891	1.53557	0.28913
763.0188	1.53492	0.29016
761.51869	1.5343	0.29119
760.01858	1.53372	0.29223
758.51846	1.53316	0.29327
757.01835	1.53263	0.2943
755.51824	1.53214	0.29534
754.01813	1.53168	0.29638
752.51802	1.53124	0.2974
751.01791	1.53082	0.29842
749.51779	1.53042	0.29943
748.01768	1.53005	0.30044
746.51757	1.5297	0.30145
745.01746	1.52939	0.30244
743.51735	1.52908	0.30341
742.01723	1.5288	0.30437
740.51712	1.52852	0.3053
739.01701	1.52826	0.30622
737.5169	1.52799	0.30713
736.01679	1.52772	0.30801
734.51668	1.52744	0.30889
733.01656	1.52716	0.30976
731.51645	1.52689	0.31063
730.01634	1.52664	0.3115
728.51623	1.52636	0.31233
727.01612	1.5261	0.31316
725.516	1.52582	0.31398
724.01589	1.52554	0.31479
722.51578	1.52525	0.31557
721.01567	1.52494	0.31633
719.51556	1.52458	0.31707
718.01545	1.52418	0.3178
716.51533	1.52372	0.31855
715.01522	1.52325	0.31932
713.51511	1.52272	0.32011
712.015	1.52217	0.32093
710.51489	1.52159	0.32179
709.01477	1.52098	0.32269
707.51466	1.52037	0.32362
706.01455	1.51975	0.3246
704.51444	1.51912	0.32563
703.01433	1.51848	0.32668
701.51422	1.51784	0.32777
700.0141	1.51719	0.3289
698.51399	1.51654	0.33007
697.01388	1.51589	0.3313
695.51377	1.51524	0.33256
694.01366	1.51461	0.33387
692.51354	1.514	0.33523
691.01343	1.51342	0.33663
689.51332	1.51288	0.33806
688.01321	1.51236	0.3395
686.5131	1.51187	0.34094
685.01299	1.51138	0.34239
683.51287	1.51089	0.34385
682.01276	1.5104	0.34534
680.51265	1.50996	0.34684
679.01254	1.50954	0.34832
677.51243	1.50909	0.34973
676.01232	1.50858	0.35113
674.5122	1.50798	0.35252
673.01209	1.50733	0.35396
671.51198	1.50662	0.35543
670.01187	1.50587	0.35692
668.51176	1.50501	0.35841
667.01164	1.50395	0.35994
665.51153	1.50274	0.36167
664.01142	1.5015	0.36363
662.51131	1.50029	0.36578
661.0112	1.49911	0.36811
659.51109	1.49797	0.37059
658.01097	1.49685	0.37319
656.51086	1.49578	0.37596
655.01075	1.49478	0.3789
653.51064	1.4939	0.38198
652.01053	1.49309	0.38514
650.51041	1.49233	0.38839
649.0103	1.49159	0.39174
647.51019	1.49088	0.39524
646.01008	1.49022	0.3989
644.50997	1.48963	0.40274
643.00986	1.48915	0.40678
641.50974	1.48878	0.41099
640.00963	1.48856	0.41539
638.50952	1.48849	0.41996
637.00941	1.48861	0.42472
635.5093	1.48891	0.42964
634.00918	1.48943	0.43472
632.50907	1.49016	0.43995
631.00896	1.49112	0.44533
629.50885	1.49234	0.45087
628.00874	1.49385	0.45654
626.50863	1.49566	0.46235
625.00851	1.49781	0.46826
623.5084	1.5003	0.47425
622.00829	1.50317	0.48032
620.50818	1.50642	0.48642
619.00807	1.51007	0.49253
617.50795	1.51415	0.49861
616.00784	1.51863	0.50463
614.50773	1.52352	0.51055
613.00762	1.52883	0.51637
611.50751	1.53458	0.52205
610.0074	1.54077	0.52756
608.50728	1.54741	0.53285
607.00717	1.55449	0.53788
605.50706	1.56201	0.54262
604.00695	1.56998	0.54699
602.50684	1.57836	0.55097
601.00672	1.58715	0.55449
599.50661	1.59628	0.55749
598.0065	1.60573	0.55995
596.50639	1.61548	0.56184
595.00628	1.62548	0.56312
593.50617	1.63571	0.56374
592.00605	1.64611	0.56365
590.50594	1.65663	0.56281
589.00583	1.66721	0.56118
587.50572	1.67778	0.55871
586.00561	1.68823	0.55536
584.50549	1.69847	0.55108
583.00538	1.70833	0.54585
581.50527	1.71766	0.5397
580.00516	1.7263	0.53268
578.50505	1.73413	0.52489
577.00494	1.74102	0.51645
575.50482	1.74686	0.5075
574.00471	1.75157	0.49824
572.5046	1.75518	0.48886
571.00449	1.75769	0.47955
569.50438	1.7592	0.47048
568.00426	1.75981	0.46179
566.50415	1.75962	0.4536
565.00404	1.7588	0.44598
563.50393	1.75748	0.43897
562.00382	1.75576	0.4326
560.50371	1.7538	0.42683
559.00359	1.75169	0.42164
557.50348	1.74948	0.41697
556.00337	1.74722	0.41277
554.50326	1.74498	0.409
553.00315	1.74275	0.40561
551.50303	1.74058	0.40257
550.00292	1.73848	0.39984
548.50281	1.73646	0.39738
547.0027	1.73453	0.39515
545.50259	1.73268	0.39314
544.00248	1.7309	0.3913
542.50236	1.72921	0.38967
541.00225	1.72762	0.38819
539.50214	1.72613	0.38686
538.00203	1.72475	0.38564
536.50192	1.72346	0.38451
535.0018	1.72225	0.38345
533.50169	1.7211	0.38246
532.00158	1.72001	0.38154
530.50147	1.71901	0.3807
529.00136	1.71808	0.3799
527.50125	1.71722	0.37911
526.00113	1.71639	0.37832
524.50102	1.71555	0.37753
523.00091	1.71469	0.37679
521.5008	1.71387	0.3761
520.00069	1.71308	0.37546
518.50057	1.71232	0.37483
517.00046	1.71155	0.3742
515.50035	1.71074	0.3736
514.00024	1.70991	0.37304
512.50013	1.70911	0.37256
511.00002	1.70832	0.3721
509.4999	1.70753	0.37166
507.99979	1.70671	0.37122
506.49968	1.70584	0.37083
504.99957	1.70492	0.3705
503.49946	1.70399	0.37024
501.99934	1.70303	0.37006
500.49923	1.70204	0.36995
498.99912	1.70101	0.36993
497.49901	1.69997	0.37004
495.9989	1.69898	0.37028
494.49879	1.69804	0.37065
492.99867	1.69716	0.37109
491.49856	1.69633	0.37162
489.99845	1.69556	0.37223
488.49834	1.69486	0.37294
486.99823	1.69423	0.37371
485.49812	1.69373	0.37456
483.998	1.69334	0.37543
482.49789	1.69302	0.3763
480.99778	1.69274	0.37715
479.49767	1.69251	0.37803
477.99756	1.69233	0.37892
476.49744	1.69218	0.37982
474.99733	1.69207	0.38073
473.49722	1.69198	0.38164
471.99711	1.69184	0.38256
470.497	1.69167	0.38357
468.99689	1.69155	0.38471
467.49677	1.69152	0.38596
465.99666	1.69159	0.3873
464.49655	1.69176	0.3887
462.99644	1.69203	0.39017
461.49633	1.6924	0.3917
459.99621	1.69294	0.39332
458.4961	1.69364	0.39498
456.99599	1.6945	0.39662
455.49588	1.69547	0.39829
453.99577	1.69659	0.4
452.49566	1.69793	0.40177
450.99554	1.69954	0.40356
449.49543	1.70148	0.40532
447.99532	1.70376	0.40694
446.49521	1.70634	0.40833
444.9951	1.70916	0.40942
443.49498	1.7122	0.41017
441.99487	1.71538	0.4105
440.49476	1.71857	0.41035
438.99465	1.72167	0.40971
437.49454	1.72451	0.40862
435.99443	1.72702	0.40717
434.49431	1.72914	0.40547
432.9942	1.73088	0.40362
431.49409	1.73226	0.40172
429.99398	1.7333	0.39983
428.49387	1.73404	0.39801
426.99375	1.73455	0.3963
425.49364	1.73487	0.39474
423.99353	1.73507	0.39331
422.49342	1.73519	0.39201
420.99331	1.73523	0.3908
419.4932	1.73518	0.38968
417.99308	1.73508	0.38862
416.49297	1.73489	0.38764
414.99286	1.73461	0.38674
413.49275	1.73426	0.38591
411.99264	1.73383	0.38519
410.49252	1.73333	0.38456
408.99241	1.73278	0.38407
407.4923	1.73222	0.38368
405.99219	1.73165	0.38341
404.49208	1.73106	0.38324
402.99197	1.7305	0.38318
401.49185	1.72996	0.3832
399.99174	1.72944	0.38329
