#FORMAT = WAVN N dn K dK
#DESCRIPTION = Refractive indices of water ice at 150 K from 800 to 4004 cm<SUP>-1</SUP>
#SUBSTANCE= Water Ice
#SAMPLEFORM= Aerosol
#TEMPERATURE= 150 K
#CONCENTRATION= 100 %
#DOI=10.1021/j100017a010
#REFERENCE= Clapp, M. L., R. E. Miller, and D. R. Worsnop, Frequency-
## Dependent Optical Constants of Water Ice Obtained Directly from Aerosol
## Extinction Spectra, J. Phys. Chem., volume 99, pgs. 6317-6326, 1995.
#CONTACT= R. E. Miller (remiller@unc.edu)
#COMMENT= downloaded from ftp://frenchie.chem.unc.edu/ri/Water/
 800.35992 1.61321 0.01613 0.40321 0.00403
 801.32990 1.61094 0.01611 0.40623 0.00406
 802.28992 1.60834 0.01608 0.40958 0.00410
 803.25000 1.60522 0.01605 0.41348 0.00413
 804.21997 1.60100 0.01601 0.41766 0.00418
 805.17999 1.59599 0.01596 0.42075 0.00421
 806.14990 1.59090 0.01591 0.42275 0.00423
 807.10992 1.58667 0.01587 0.42391 0.00424
 808.07990 1.58317 0.01583 0.42524 0.00425
 809.03992 1.57990 0.01580 0.42715 0.00427
 810.00000 1.57684 0.01577 0.42868 0.00429
 810.96997 1.57406 0.01574 0.43099 0.00431
 811.92999 1.57090 0.01571 0.43396 0.00434
 812.89990 1.56703 0.01567 0.43681 0.00437
 813.85992 1.56272 0.01563 0.43947 0.00439
 814.82990 1.55822 0.01558 0.44142 0.00441
 815.78992 1.55388 0.01554 0.44308 0.00443
 816.75000 1.54991 0.01550 0.44431 0.00444
 817.71997 1.54632 0.01546 0.44560 0.00446
 818.67999 1.54334 0.01543 0.44713 0.00447
 819.64990 1.54055 0.01541 0.44946 0.00449
 820.60992 1.53668 0.01537 0.45340 0.00453
 821.57990 1.53115 0.01531 0.45641 0.00456
 822.53992 1.52525 0.01525 0.45799 0.00458
 823.50000 1.51955 0.01520 0.45892 0.00459
 824.46997 1.51452 0.01515 0.45862 0.00459
 825.42999 1.51021 0.01510 0.45875 0.00459
 826.39990 1.50629 0.01506 0.45865 0.00459
 827.35992 1.50325 0.01503 0.45825 0.00458
 828.32990 1.50069 0.01501 0.45935 0.00459
 829.28992 1.49794 0.01498 0.46073 0.00461
 830.25000 1.49488 0.01495 0.46281 0.00463
 831.21997 1.49086 0.01491 0.46560 0.00466
 832.17999 1.48605 0.01486 0.46764 0.00468
 833.14990 1.48061 0.01481 0.46945 0.00469
 834.10992 1.47482 0.01475 0.47039 0.00470
 835.07990 1.46932 0.01469 0.46996 0.00470
 836.03992 1.46498 0.01465 0.46933 0.00469
 837.00000 1.46135 0.01461 0.46918 0.00469
 837.96997 1.45725 0.01457 0.47018 0.00470
 838.92999 1.45258 0.01453 0.47041 0.00470
 839.89990 1.44806 0.01448 0.46997 0.00470
 840.85992 1.44404 0.01444 0.46963 0.00470
 841.82990 1.44051 0.01441 0.46894 0.00469
 842.78992 1.43743 0.01437 0.46907 0.00469
 843.75000 1.43428 0.01434 0.46971 0.00470
 844.71997 1.43047 0.01430 0.47095 0.00471
 845.67999 1.42563 0.01426 0.47226 0.00472
 846.64990 1.42025 0.01420 0.47208 0.00472
 847.60992 1.41546 0.01415 0.47115 0.00471
 848.57990 1.41146 0.01411 0.46999 0.00470
 849.53992 1.40815 0.01408 0.46908 0.00469
 850.50000 1.40505 0.01405 0.46898 0.00469
 851.46997 1.40169 0.01402 0.46917 0.00469
 852.42999 1.39776 0.01398 0.46986 0.00470
 853.39990 1.39312 0.01393 0.47003 0.00470
 854.35992 1.38863 0.01389 0.46925 0.00469
 855.32990 1.38471 0.01385 0.46839 0.00468
 856.28992 1.38101 0.01381 0.46791 0.00468
 857.25000 1.37708 0.01377 0.46752 0.00468
 858.21997 1.37323 0.01373 0.46661 0.00467
 859.17999 1.36992 0.01370 0.46580 0.00466
 860.14990 1.36640 0.01366 0.46590 0.00466
 861.10992 1.36236 0.01362 0.46566 0.00466
 862.07990 1.35834 0.01358 0.46482 0.00465
 863.03992 1.35467 0.01355 0.46416 0.00464
 864.00000 1.35081 0.01351 0.46372 0.00464
 864.96997 1.34686 0.01347 0.46274 0.00463
 865.92999 1.34352 0.01344 0.46149 0.00461
 866.89990 1.34054 0.01341 0.46099 0.00461
 867.85992 1.33705 0.01337 0.46120 0.00461
 868.82990 1.33292 0.01333 0.46096 0.00461
 869.78992 1.32887 0.01329 0.46020 0.00460
 870.75000 1.32505 0.01325 0.45956 0.00460
 871.71997 1.32090 0.01321 0.45913 0.00459
 872.67999 1.31660 0.01317 0.45814 0.00458
 873.64990 1.31260 0.01313 0.45667 0.00457
 874.60992 1.30910 0.01309 0.45541 0.00455
 875.57990 1.30564 0.01306 0.45442 0.00454
 876.53992 1.30232 0.01302 0.45350 0.00453
 877.50000 1.29915 0.01299 0.45283 0.00453
 878.46997 1.29553 0.01296 0.45307 0.00453
 879.42999 1.29090 0.01291 0.45321 0.00453
 880.39990 1.28564 0.01286 0.45234 0.00452
 881.35992 1.28077 0.01281 0.45049 0.00450
 882.32990 1.27667 0.01277 0.44835 0.00448
 883.28992 1.27293 0.01273 0.44682 0.00447
 884.25995 1.26912 0.01269 0.44531 0.00445
 885.21997 1.26538 0.01265 0.44382 0.00444
 886.17999 1.26155 0.01262 0.44264 0.00443
 887.14990 1.25736 0.01257 0.44132 0.00441
 888.10992 1.25315 0.01253 0.43966 0.00440
 889.07990 1.24920 0.01249 0.43765 0.00438
 890.03992 1.24548 0.01245 0.43602 0.00436
 891.00995 1.24151 0.01242 0.43450 0.00434
 891.96997 1.23758 0.01238 0.43260 0.00433
 892.92999 1.23381 0.01234 0.43084 0.00431
 893.89990 1.22991 0.01230 0.42926 0.00429
 894.85992 1.22585 0.01226 0.42752 0.00428
 895.82990 1.22198 0.01222 0.42547 0.00425
 896.78992 1.21833 0.01218 0.42382 0.00424
 897.75995 1.21415 0.01214 0.42282 0.00423
 898.71997 1.20924 0.01209 0.42134 0.00421
 899.67999 1.20401 0.01204 0.41921 0.00419
 900.64990 1.19868 0.01199 0.41640 0.00416
 901.60992 1.19384 0.01194 0.41264 0.00413
 902.57990 1.19008 0.01190 0.40840 0.00408
 903.53992 1.18741 0.01187 0.40491 0.00405
 904.50995 1.18472 0.01185 0.40270 0.00403
 905.46997 1.18118 0.01181 0.40115 0.00401
 906.42999 1.17674 0.01177 0.39921 0.00399
 907.39990 1.17182 0.01172 0.39662 0.00397
 908.35992 1.16692 0.01167 0.39324 0.00393
 909.32990 1.16256 0.01163 0.38905 0.00389
 910.28992 1.15909 0.01159 0.38489 0.00385
 911.25995 1.15593 0.01156 0.38143 0.00381
 912.21997 1.15251 0.01153 0.37835 0.00378
 913.17999 1.14876 0.01149 0.37515 0.00375
 914.14990 1.14480 0.01145 0.37171 0.00372
 915.10992 1.14085 0.01141 0.36803 0.00368
 916.07990 1.13681 0.01137 0.36416 0.00364
 917.03992 1.13284 0.01133 0.35990 0.00360
 918.00995 1.12903 0.01129 0.35526 0.00355
 918.96997 1.12557 0.01126 0.35043 0.00350
 919.92999 1.12262 0.01123 0.34531 0.00345
 920.89990 1.12019 0.01120 0.34045 0.00340
 921.85992 1.11781 0.01118 0.33619 0.00336
 922.82990 1.11527 0.01115 0.33184 0.00332
 923.78992 1.11279 0.01113 0.32754 0.00328
 924.75995 1.11023 0.01110 0.32344 0.00323
 925.71997 1.10733 0.01107 0.31941 0.00319
 926.67999 1.10409 0.01104 0.31497 0.00315
 927.64990 1.10096 0.01101 0.30974 0.00310
 928.60992 1.09842 0.01098 0.30421 0.00304
 929.57990 1.09627 0.01096 0.29886 0.00299
 930.53992 1.09433 0.01094 0.29357 0.00294
 931.50995 1.09234 0.01092 0.28838 0.00288
 932.46997 1.09050 0.01090 0.28291 0.00283
 933.42999 1.08913 0.01089 0.27717 0.00277
 934.39990 1.08809 0.01088 0.27196 0.00272
 935.35992 1.08695 0.01087 0.26692 0.00267
 936.32990 1.08597 0.01086 0.26160 0.00262
 937.28992 1.08521 0.01085 0.25665 0.00257
 938.25995 1.08420 0.01084 0.25204 0.00252
 939.21997 1.08295 0.01083 0.24705 0.00247
 940.17999 1.08204 0.01082 0.24165 0.00242
 941.14990 1.08159 0.01082 0.23646 0.00236
 942.10992 1.08092 0.01081 0.23198 0.00232
 943.07990 1.07968 0.01080 0.22719 0.00227
 944.03992 1.07844 0.01078 0.22163 0.00222
 945.00995 1.07753 0.01078 0.21578 0.00216
 945.96997 1.07704 0.01077 0.20958 0.00210
 946.92999 1.07741 0.01077 0.20302 0.00203
 947.89990 1.07866 0.01079 0.19708 0.00197
 948.85992 1.07980 0.01080 0.19227 0.00192
 949.82990 1.08046 0.01080 0.18741 0.00187
 950.78992 1.08124 0.01081 0.18207 0.00182
 951.75995 1.08242 0.01082 0.17708 0.00177
 952.71997 1.08333 0.01083 0.17258 0.00173
 953.67999 1.08400 0.01084 0.16764 0.00168
 954.64990 1.08529 0.01085 0.16204 0.00162
 955.60992 1.08712 0.01087 0.15725 0.00157
 956.57990 1.08860 0.01089 0.15307 0.00153
 957.53992 1.08991 0.01090 0.14819 0.00148
 958.50995 1.09187 0.01092 0.14318 0.00143
 959.46997 1.09419 0.01094 0.13895 0.00139
 960.42999 1.09608 0.01096 0.13531 0.00135
 961.39990 1.09771 0.01098 0.13115 0.00131
 962.35992 1.09969 0.01100 0.12677 0.00127
 963.32990 1.10177 0.01102 0.12302 0.00123
 964.28992 1.10358 0.01104 0.11905 0.00119
 965.25995 1.10584 0.01106 0.11451 0.00115
 966.21997 1.10871 0.01109 0.11052 0.00111
 967.17999 1.11160 0.01112 0.10725 0.00107
 968.14990 1.11435 0.01114 0.10409 0.00104
 969.10992 1.11694 0.01117 0.10126 0.00101
 970.07990 1.11910 0.01119 0.09872 0.00099
 971.03992 1.12100 0.01121 0.09559 0.00096
 972.00995 1.12326 0.01123 0.09211 0.00092
 972.96997 1.12602 0.01126 0.08880 0.00089
 973.92999 1.12904 0.01129 0.08594 0.00086
 974.89990 1.13207 0.01132 0.08358 0.00084
 975.85992 1.13494 0.01135 0.08145 0.00081
 976.82990 1.13740 0.01137 0.07989 0.00080
 977.78992 1.13923 0.01139 0.07814 0.00078
 978.75995 1.14100 0.01141 0.07570 0.00076
 979.71997 1.14290 0.01143 0.07331 0.00073
 980.67999 1.14494 0.01145 0.07063 0.00071
 981.64990 1.14748 0.01147 0.06774 0.00068
 982.60992 1.15040 0.01150 0.06542 0.00065
 983.57990 1.15323 0.01153 0.06358 0.00064
 984.53992 1.15584 0.01156 0.06180 0.00062
 985.50995 1.15846 0.01158 0.06009 0.00060
 986.46997 1.16094 0.01161 0.05867 0.00059
 987.42999 1.16319 0.01163 0.05726 0.00057
 988.39990 1.16543 0.01165 0.05569 0.00056
 989.35992 1.16766 0.01168 0.05426 0.00054
 990.32990 1.16974 0.01170 0.05298 0.00053
 991.28992 1.17158 0.01172 0.05151 0.00052
 992.25995 1.17368 0.01174 0.04958 0.00050
 993.21997 1.17603 0.01176 0.04803 0.00048
 994.17999 1.17824 0.01178 0.04678 0.00047
 995.14990 1.18042 0.01180 0.04514 0.00045
 996.10992 1.18280 0.01183 0.04371 0.00044
 997.07990 1.18523 0.01185 0.04246 0.00042
 998.03992 1.18772 0.01188 0.04120 0.00041
 999.00995 1.19030 0.01190 0.04032 0.00040
 999.96997 1.19272 0.01193 0.03975 0.00040
1000.92999 1.19477 0.01195 0.03945 0.00039
1001.89990 1.19624 0.01196 0.03919 0.00039
1002.85992 1.19741 0.01197 0.03818 0.00038
1003.82990 1.19895 0.01199 0.03667 0.00037
1004.78992 1.20087 0.01201 0.03531 0.00035
1005.75995 1.20309 0.01203 0.03400 0.00034
1006.71997 1.20549 0.01205 0.03300 0.00033
1007.67999 1.20782 0.01208 0.03253 0.00033
1008.64990 1.20976 0.01210 0.03227 0.00032
1009.60992 1.21113 0.01211 0.03201 0.00032
1010.57990 1.21233 0.01212 0.03099 0.00031
1011.53992 1.21413 0.01214 0.02938 0.00029
1012.50995 1.21662 0.01217 0.02829 0.00028
1013.46997 1.21919 0.01219 0.02784 0.00028
1014.42999 1.22148 0.01221 0.02791 0.00028
1015.39990 1.22314 0.01223 0.02839 0.00028
1016.35992 1.22400 0.01224 0.02854 0.00029
1017.32990 1.22470 0.01225 0.02775 0.00028
1018.28992 1.22582 0.01226 0.02648 0.00026
1019.25995 1.22761 0.01228 0.02512 0.00025
1020.21997 1.22986 0.01230 0.02414 0.00024
1021.17999 1.23212 0.01232 0.02390 0.00024
1022.14990 1.23397 0.01234 0.02391 0.00024
1023.10992 1.23540 0.01235 0.02389 0.00024
1024.07983 1.23665 0.01237 0.02357 0.00024
1025.03992 1.23805 0.01238 0.02292 0.00023
1026.00989 1.23962 0.01240 0.02246 0.00022
1026.96997 1.24125 0.01241 0.02200 0.00022
1027.92993 1.24286 0.01243 0.02171 0.00022
1028.89978 1.24434 0.01244 0.02159 0.00022
1029.85986 1.24565 0.01246 0.02127 0.00021
1030.82983 1.24708 0.01247 0.02086 0.00021
1031.78992 1.24850 0.01248 0.02059 0.00021
1032.75989 1.24981 0.01250 0.02034 0.00020
1033.71997 1.25109 0.01251 0.01984 0.00020
1034.67993 1.25264 0.01253 0.01923 0.00019
1035.64978 1.25438 0.01254 0.01896 0.00019
1036.60986 1.25595 0.01256 0.01898 0.00019
1037.57983 1.25730 0.01257 0.01894 0.00019
1038.53992 1.25858 0.01259 0.01881 0.00019
1039.50989 1.25990 0.01260 0.01860 0.00019
1040.46997 1.26122 0.01261 0.01847 0.00018
1041.42993 1.26258 0.01263 0.01828 0.00018
1042.39978 1.26396 0.01264 0.01829 0.00018
1043.35986 1.26513 0.01265 0.01841 0.00018
1044.32983 1.26612 0.01266 0.01838 0.00018
1045.28992 1.26703 0.01267 0.01822 0.00018
1046.25989 1.26791 0.01268 0.01790 0.00018
1047.21997 1.26891 0.01269 0.01726 0.00017
1048.17993 1.27025 0.01270 0.01653 0.00017
1049.14978 1.27195 0.01272 0.01595 0.00016
1050.10986 1.27375 0.01274 0.01576 0.00016
1051.07983 1.27548 0.01275 0.01585 0.00016
1052.03992 1.27715 0.01277 0.01599 0.00016
1053.00989 1.27870 0.01279 0.01654 0.00017
1053.96997 1.27971 0.01280 0.01736 0.00017
1054.92993 1.28015 0.01280 0.01774 0.00018
1055.89978 1.28065 0.01281 0.01739 0.00017
1056.85986 1.28164 0.01282 0.01678 0.00017
1057.82983 1.28293 0.01283 0.01652 0.00017
1058.78992 1.28412 0.01284 0.01641 0.00016
1059.75989 1.28542 0.01285 0.01607 0.00016
1060.71997 1.28673 0.01287 0.01612 0.00016
1061.67993 1.28770 0.01288 0.01620 0.00016
1062.64978 1.28870 0.01289 0.01557 0.00016
1063.60986 1.29040 0.01290 0.01470 0.00015
1064.57983 1.29278 0.01293 0.01440 0.00014
1065.53992 1.29517 0.01295 0.01499 0.00015
1066.50989 1.29718 0.01297 0.01609 0.00016
1067.46997 1.29862 0.01299 0.01747 0.00017
1068.42993 1.29939 0.01299 0.01887 0.00019
1069.39978 1.29969 0.01300 0.01973 0.00020
1070.35986 1.30000 0.01300 0.01996 0.00020
1071.32983 1.30064 0.01301 0.01985 0.00020
1072.28992 1.30177 0.01302 0.01959 0.00020
1073.25989 1.30350 0.01304 0.01962 0.00020
1074.21997 1.30523 0.01305 0.02056 0.00021
1075.17993 1.30637 0.01306 0.02193 0.00022
1076.14978 1.30707 0.01307 0.02299 0.00023
1077.10986 1.30759 0.01308 0.02404 0.00024
1078.07983 1.30787 0.01308 0.02496 0.00025
1079.03992 1.30803 0.01308 0.02553 0.00026
1080.00989 1.30837 0.01308 0.02586 0.00026
1080.96997 1.30893 0.01309 0.02622 0.00026
1081.92993 1.30940 0.01309 0.02692 0.00027
1082.89978 1.30951 0.01310 0.02755 0.00028
1083.85986 1.30968 0.01310 0.02757 0.00028
1084.82983 1.31018 0.01310 0.02770 0.00028
1085.78992 1.31074 0.01311 0.02806 0.00028
1086.75989 1.31116 0.01311 0.02845 0.00028
1087.71997 1.31146 0.01311 0.02882 0.00029
1088.67993 1.31186 0.01312 0.02890 0.00029
1089.64978 1.31234 0.01312 0.02923 0.00029
1090.60986 1.31273 0.01313 0.02956 0.00030
1091.57983 1.31320 0.01313 0.02968 0.00030
1092.53992 1.31372 0.01314 0.03012 0.00030
1093.50989 1.31410 0.01314 0.03059 0.00031
1094.46997 1.31429 0.01314 0.03104 0.00031
1095.42993 1.31428 0.01314 0.03147 0.00031
1096.39978 1.31423 0.01314 0.03138 0.00031
1097.35986 1.31441 0.01314 0.03119 0.00031
1098.32983 1.31494 0.01315 0.03086 0.00031
1099.28992 1.31575 0.01316 0.03081 0.00031
1100.25989 1.31652 0.01317 0.03120 0.00031
1101.21997 1.31710 0.01317 0.03159 0.00032
1102.17993 1.31769 0.01318 0.03200 0.00032
1103.14978 1.31799 0.01318 0.03283 0.00033
1104.10986 1.31792 0.01318 0.03333 0.00033
1105.07983 1.31784 0.01318 0.03337 0.00033
1106.03992 1.31806 0.01318 0.03334 0.00033
1107.00989 1.31850 0.01319 0.03336 0.00033
1107.96997 1.31885 0.01319 0.03378 0.00034
1108.92993 1.31921 0.01319 0.03389 0.00034
1109.89978 1.31979 0.01320 0.03425 0.00034
1110.85986 1.31982 0.01320 0.03548 0.00035
1111.82983 1.31908 0.01319 0.03598 0.00036
1112.78992 1.31840 0.01318 0.03562 0.00036
1113.75989 1.31818 0.01318 0.03508 0.00035
1114.71997 1.31828 0.01318 0.03444 0.00034
1115.67993 1.31872 0.01319 0.03381 0.00034
1116.64978 1.31969 0.01320 0.03325 0.00033
1117.60986 1.32084 0.01321 0.03356 0.00034
1118.57983 1.32122 0.01321 0.03469 0.00035
1119.53992 1.32089 0.01321 0.03505 0.00035
1120.50989 1.32076 0.01321 0.03472 0.00035
1121.46997 1.32098 0.01321 0.03460 0.00035
1122.42993 1.32124 0.01321 0.03448 0.00034
1123.39978 1.32169 0.01322 0.03427 0.00034
1124.35986 1.32219 0.01322 0.03445 0.00034
1125.32983 1.32257 0.01323 0.03468 0.00035
1126.28992 1.32277 0.01323 0.03498 0.00035
1127.25989 1.32287 0.01323 0.03524 0.00035
1128.21997 1.32292 0.01323 0.03537 0.00035
1129.17993 1.32275 0.01323 0.03570 0.00036
1130.14978 1.32251 0.01323 0.03546 0.00035
1131.10986 1.32254 0.01323 0.03508 0.00035
1132.07983 1.32262 0.01323 0.03501 0.00035
1133.03992 1.32270 0.01323 0.03462 0.00035
1134.00989 1.32283 0.01323 0.03438 0.00034
1134.96997 1.32293 0.01323 0.03404 0.00034
1135.92993 1.32320 0.01323 0.03337 0.00033
1136.89978 1.32369 0.01324 0.03294 0.00033
1137.85986 1.32436 0.01324 0.03236 0.00032
1138.82983 1.32544 0.01325 0.03191 0.00032
1139.78992 1.32664 0.01327 0.03218 0.00032
1140.75989 1.32761 0.01328 0.03278 0.00033
1141.71997 1.32803 0.01328 0.03380 0.00034
1142.68982 1.32785 0.01328 0.03459 0.00035
1143.64978 1.32756 0.01328 0.03469 0.00035
1144.60986 1.32728 0.01327 0.03488 0.00035
1145.57983 1.32689 0.01327 0.03465 0.00035
1146.53992 1.32698 0.01327 0.03379 0.00034
1147.50989 1.32765 0.01328 0.03337 0.00033
1148.46997 1.32829 0.01328 0.03352 0.00034
1149.43982 1.32870 0.01329 0.03368 0.00034
1150.39978 1.32890 0.01329 0.03398 0.00034
1151.35986 1.32876 0.01329 0.03420 0.00034
1152.32983 1.32851 0.01329 0.03390 0.00034
1153.28992 1.32864 0.01329 0.03320 0.00033
1154.25989 1.32934 0.01329 0.03261 0.00033
1155.21997 1.33014 0.01330 0.03265 0.00033
1156.18982 1.33055 0.01331 0.03300 0.00033
1157.14978 1.33077 0.01331 0.03291 0.00033
1158.10986 1.33116 0.01331 0.03277 0.00033
1159.07983 1.33158 0.01332 0.03284 0.00033
1160.03992 1.33209 0.01332 0.03269 0.00033
1161.00989 1.33276 0.01333 0.03288 0.00033
1161.96997 1.33317 0.01333 0.03351 0.00034
1162.93982 1.33305 0.01333 0.03405 0.00034
1163.89978 1.33264 0.01333 0.03418 0.00034
1164.85986 1.33228 0.01332 0.03374 0.00034
1165.82983 1.33242 0.01332 0.03287 0.00033
1166.78992 1.33319 0.01333 0.03214 0.00032
1167.75989 1.33430 0.01334 0.03200 0.00032
1168.71997 1.33521 0.01335 0.03241 0.00032
1169.68982 1.33573 0.01336 0.03301 0.00033
1170.64978 1.33601 0.01336 0.03344 0.00033
1171.60986 1.33616 0.01336 0.03391 0.00034
1172.57983 1.33610 0.01336 0.03432 0.00034
1173.53992 1.33597 0.01336 0.03440 0.00034
1174.50989 1.33587 0.01336 0.03444 0.00034
1175.46997 1.33582 0.01336 0.03432 0.00034
1176.43982 1.33584 0.01336 0.03409 0.00034
1177.39978 1.33596 0.01336 0.03386 0.00034
1178.35986 1.33636 0.01336 0.03338 0.00033
1179.32983 1.33698 0.01337 0.03338 0.00033
1180.28992 1.33734 0.01337 0.03372 0.00034
1181.25989 1.33743 0.01337 0.03381 0.00034
1182.21997 1.33760 0.01338 0.03370 0.00034
1183.18982 1.33790 0.01338 0.03368 0.00034
1184.14978 1.33813 0.01338 0.03381 0.00034
1185.10986 1.33828 0.01338 0.03382 0.00034
1186.07983 1.33843 0.01338 0.03380 0.00034
1187.03992 1.33865 0.01339 0.03373 0.00034
1188.00989 1.33883 0.01339 0.03375 0.00034
1188.96997 1.33889 0.01339 0.03377 0.00034
1189.93982 1.33904 0.01339 0.03340 0.00033
1190.89978 1.33933 0.01339 0.03325 0.00033
1191.85986 1.33975 0.01340 0.03296 0.00033
1192.82983 1.34044 0.01340 0.03270 0.00033
1193.78992 1.34110 0.01341 0.03308 0.00033
1194.75989 1.34162 0.01342 0.03332 0.00033
1195.71997 1.34192 0.01342 0.03396 0.00034
1196.68982 1.34168 0.01342 0.03464 0.00035
1197.64978 1.34121 0.01341 0.03451 0.00035
1198.60986 1.34101 0.01341 0.03415 0.00034
1199.57983 1.34122 0.01341 0.03353 0.00034
1200.53992 1.34187 0.01342 0.03315 0.00033
1201.50989 1.34251 0.01343 0.03342 0.00033
1202.46997 1.34279 0.01343 0.03374 0.00034
1203.43982 1.34276 0.01343 0.03399 0.00034
1204.39978 1.34265 0.01343 0.03387 0.00034
1205.35986 1.34280 0.01343 0.03341 0.00033
1206.32983 1.34324 0.01343 0.03318 0.00033
1207.28992 1.34378 0.01344 0.03306 0.00033
1208.25989 1.34439 0.01344 0.03311 0.00033
1209.21997 1.34486 0.01345 0.03349 0.00033
1210.18982 1.34503 0.01345 0.03389 0.00034
1211.14978 1.34502 0.01345 0.03405 0.00034
1212.10986 1.34515 0.01345 0.03398 0.00034
1213.07983 1.34534 0.01345 0.03411 0.00034
1214.03992 1.34531 0.01345 0.03431 0.00034
1215.00989 1.34525 0.01345 0.03402 0.00034
1215.96997 1.34563 0.01346 0.03358 0.00034
1216.93982 1.34626 0.01346 0.03362 0.00034
1217.89978 1.34660 0.01347 0.03408 0.00034
1218.85986 1.34660 0.01347 0.03430 0.00034
1219.82983 1.34655 0.01347 0.03430 0.00034
1220.78992 1.34650 0.01347 0.03424 0.00034
1221.75989 1.34650 0.01347 0.03388 0.00034
1222.71997 1.34678 0.01347 0.03336 0.00033
1223.68982 1.34759 0.01348 0.03283 0.00033
1224.64978 1.34861 0.01349 0.03299 0.00033
1225.60986 1.34921 0.01349 0.03378 0.00034
1226.57983 1.34934 0.01349 0.03422 0.00034
1227.53992 1.34930 0.01349 0.03461 0.00035
1228.50989 1.34930 0.01349 0.03461 0.00035
1229.46997 1.34950 0.01349 0.03454 0.00035
1230.43982 1.34973 0.01350 0.03480 0.00035
1231.39978 1.34995 0.01350 0.03478 0.00035
1232.35986 1.35026 0.01350 0.03501 0.00035
1233.32983 1.35039 0.01350 0.03547 0.00035
1234.28992 1.35015 0.01350 0.03581 0.00036
1235.25989 1.34974 0.01350 0.03582 0.00036
1236.21997 1.34956 0.01350 0.03523 0.00035
1237.18982 1.34992 0.01350 0.03466 0.00035
1238.14978 1.35066 0.01351 0.03440 0.00034
1239.10986 1.35144 0.01351 0.03466 0.00035
1240.07983 1.35178 0.01352 0.03542 0.00035
1241.03992 1.35164 0.01352 0.03588 0.00036
1242.00989 1.35132 0.01351 0.03606 0.00036
1242.96997 1.35108 0.01351 0.03591 0.00036
1243.93982 1.35103 0.01351 0.03553 0.00036
1244.89978 1.35125 0.01351 0.03520 0.00035
1245.85986 1.35172 0.01352 0.03485 0.00035
1246.82983 1.35230 0.01352 0.03492 0.00035
1247.78992 1.35271 0.01353 0.03520 0.00035
1248.75989 1.35302 0.01353 0.03537 0.00035
1249.71997 1.35332 0.01353 0.03573 0.00036
1250.68982 1.35331 0.01353 0.03630 0.00036
1251.64978 1.35288 0.01353 0.03661 0.00037
1252.60986 1.35248 0.01352 0.03630 0.00036
1253.57983 1.35244 0.01352 0.03580 0.00036
1254.53992 1.35273 0.01353 0.03538 0.00035
1255.50989 1.35320 0.01353 0.03512 0.00035
1256.46997 1.35367 0.01354 0.03515 0.00035
1257.43982 1.35409 0.01354 0.03519 0.00035
1258.39978 1.35442 0.01354 0.03538 0.00035
1259.35986 1.35463 0.01355 0.03560 0.00036
1260.32983 1.35483 0.01355 0.03566 0.00036
1261.28992 1.35498 0.01355 0.03591 0.00036
1262.25989 1.35510 0.01355 0.03599 0.00036
1263.21997 1.35508 0.01355 0.03620 0.00036
1264.18982 1.35490 0.01355 0.03621 0.00036
1265.14978 1.35498 0.01355 0.03566 0.00036
1266.10986 1.35552 0.01356 0.03542 0.00035
1267.07983 1.35617 0.01356 0.03555 0.00036
1268.03992 1.35653 0.01357 0.03610 0.00036
1269.00989 1.35641 0.01356 0.03663 0.00037
1269.96997 1.35617 0.01356 0.03661 0.00037
1270.93982 1.35599 0.01356 0.03657 0.00037
1271.89978 1.35592 0.01356 0.03625 0.00036
1272.85986 1.35621 0.01356 0.03572 0.00036
1273.82983 1.35676 0.01357 0.03569 0.00036
1274.78992 1.35722 0.01357 0.03583 0.00036
1275.75989 1.35749 0.01357 0.03616 0.00036
1276.71997 1.35736 0.01357 0.03659 0.00037
1277.68982 1.35693 0.01357 0.03652 0.00037
1278.64978 1.35683 0.01357 0.03581 0.00036
1279.60986 1.35733 0.01357 0.03518 0.00035
1280.57983 1.35807 0.01358 0.03505 0.00035
1281.53992 1.35863 0.01359 0.03517 0.00035
1282.50989 1.35910 0.01359 0.03525 0.00035
1283.46997 1.35971 0.01360 0.03531 0.00035
1284.43982 1.36013 0.01360 0.03595 0.00036
1285.39978 1.36008 0.01360 0.03642 0.00036
1286.35986 1.36016 0.01360 0.03621 0.00036
1287.32983 1.36051 0.01361 0.03642 0.00036
1288.28992 1.36059 0.01361 0.03685 0.00037
1289.25989 1.36048 0.01360 0.03682 0.00037
1290.21997 1.36068 0.01361 0.03656 0.00037
1291.18982 1.36121 0.01361 0.03652 0.00037
1292.14978 1.36160 0.01362 0.03698 0.00037
1293.10986 1.36175 0.01362 0.03729 0.00037
1294.07983 1.36189 0.01362 0.03753 0.00038
1295.03992 1.36189 0.01362 0.03801 0.00038
1296.00989 1.36156 0.01362 0.03828 0.00038
1296.96997 1.36127 0.01361 0.03806 0.00038
1297.93982 1.36146 0.01361 0.03757 0.00038
1298.89978 1.36182 0.01362 0.03773 0.00038
1299.85986 1.36181 0.01362 0.03802 0.00038
1300.82983 1.36160 0.01362 0.03788 0.00038
1301.78992 1.36154 0.01362 0.03752 0.00038
1302.75989 1.36181 0.01362 0.03696 0.00037
1303.71997 1.36239 0.01362 0.03659 0.00037
1304.68982 1.36310 0.01363 0.03650 0.00036
1305.64978 1.36393 0.01364 0.03649 0.00036
1306.60986 1.36472 0.01365 0.03704 0.00037
1307.57983 1.36500 0.01365 0.03792 0.00038
1308.53992 1.36491 0.01365 0.03834 0.00038
1309.50989 1.36485 0.01365 0.03855 0.00039
1310.46997 1.36487 0.01365 0.03875 0.00039
1311.43982 1.36490 0.01365 0.03887 0.00039
1312.39978 1.36482 0.01365 0.03910 0.00039
1313.35986 1.36473 0.01365 0.03897 0.00039
1314.32983 1.36487 0.01365 0.03870 0.00039
1315.28992 1.36511 0.01365 0.03872 0.00039
1316.25989 1.36544 0.01365 0.03849 0.00038
1317.21997 1.36594 0.01366 0.03850 0.00038
1318.18982 1.36644 0.01366 0.03872 0.00039
1319.14978 1.36698 0.01367 0.03889 0.00039
1320.10986 1.36738 0.01367 0.03960 0.00040
1321.07983 1.36738 0.01367 0.04023 0.00040
1322.03992 1.36722 0.01367 0.04055 0.00041
1323.00989 1.36701 0.01367 0.04085 0.00041
1323.96997 1.36683 0.01367 0.04082 0.00041
1324.93982 1.36685 0.01367 0.04068 0.00041
1325.89978 1.36704 0.01367 0.04066 0.00041
1326.85986 1.36735 0.01367 0.04067 0.00041
1327.82983 1.36751 0.01368 0.04108 0.00041
1328.78992 1.36748 0.01367 0.04125 0.00041
1329.75989 1.36752 0.01368 0.04123 0.00041
1330.71997 1.36756 0.01368 0.04148 0.00041
1331.68982 1.36752 0.01368 0.04146 0.00041
1332.64978 1.36754 0.01368 0.04143 0.00041
1333.60986 1.36762 0.01368 0.04135 0.00041
1334.57983 1.36777 0.01368 0.04119 0.00041
1335.53992 1.36806 0.01368 0.04109 0.00041
1336.50989 1.36849 0.01368 0.04101 0.00041
1337.46997 1.36891 0.01369 0.04120 0.00041
1338.43982 1.36924 0.01369 0.04141 0.00041
1339.39978 1.36962 0.01370 0.04157 0.00042
1340.35986 1.36998 0.01370 0.04202 0.00042
1341.32983 1.37012 0.01370 0.04252 0.00043
1342.28992 1.37003 0.01370 0.04291 0.00043
1343.25989 1.37004 0.01370 0.04299 0.00043
1344.21997 1.37016 0.01370 0.04324 0.00043
1345.18982 1.37008 0.01370 0.04371 0.00044
1346.14978 1.36983 0.01370 0.04376 0.00044
1347.10986 1.36970 0.01370 0.04369 0.00044
1348.07983 1.36968 0.01370 0.04353 0.00044
1349.03992 1.36987 0.01370 0.04323 0.00043
1350.00989 1.37035 0.01370 0.04303 0.00043
1350.96997 1.37099 0.01371 0.04313 0.00043
1351.93982 1.37154 0.01372 0.04359 0.00044
1352.89978 1.37194 0.01372 0.04411 0.00044
1353.85986 1.37210 0.01372 0.04487 0.00045
1354.82983 1.37184 0.01372 0.04564 0.00046
1355.78992 1.37135 0.01371 0.04591 0.00046
1356.75989 1.37106 0.01371 0.04582 0.00046
1357.71997 1.37112 0.01371 0.04571 0.00046
1358.68982 1.37121 0.01371 0.04597 0.00046
1359.64978 1.37102 0.01371 0.04626 0.00046
1360.60986 1.37083 0.01371 0.04612 0.00046
1361.57983 1.37083 0.01371 0.04604 0.00046
1362.53992 1.37080 0.01371 0.04607 0.00046
1363.50989 1.37081 0.01371 0.04581 0.00046
1364.46997 1.37116 0.01371 0.04551 0.00046
1365.43982 1.37168 0.01372 0.04563 0.00046
1366.39978 1.37194 0.01372 0.04603 0.00046
1367.35986 1.37205 0.01372 0.04617 0.00046
1368.32983 1.37223 0.01372 0.04634 0.00046
1369.28992 1.37231 0.01372 0.04665 0.00047
1370.25989 1.37232 0.01372 0.04671 0.00047
1371.21997 1.37256 0.01373 0.04662 0.00047
1372.18982 1.37300 0.01373 0.04680 0.00047
1373.14978 1.37328 0.01373 0.04727 0.00047
1374.10986 1.37338 0.01373 0.04764 0.00048
1375.07983 1.37371 0.01374 0.04775 0.00048
1376.03992 1.37401 0.01374 0.04857 0.00049
1377.00989 1.37368 0.01374 0.04952 0.00050
1377.96997 1.37324 0.01373 0.04960 0.00050
1378.93982 1.37300 0.01373 0.04990 0.00050
1379.89978 1.37259 0.01373 0.05023 0.00050
1380.85986 1.37220 0.01372 0.05000 0.00050
1381.82983 1.37212 0.01372 0.04990 0.00050
1382.78992 1.37209 0.01372 0.04990 0.00050
1383.75989 1.37194 0.01372 0.04998 0.00050
1384.71997 1.37177 0.01372 0.04981 0.00050
1385.68982 1.37185 0.01372 0.04946 0.00049
1386.64978 1.37209 0.01372 0.04943 0.00049
1387.60986 1.37223 0.01372 0.04946 0.00049
1388.57983 1.37248 0.01372 0.04930 0.00049
1389.53992 1.37295 0.01373 0.04934 0.00049
1390.50989 1.37328 0.01373 0.04986 0.00050
1391.46997 1.37324 0.01373 0.05032 0.00050
1392.43982 1.37316 0.01373 0.05041 0.00050
1393.39978 1.37325 0.01373 0.05058 0.00051
1394.35986 1.37322 0.01373 0.05096 0.00051
1395.32983 1.37296 0.01373 0.05116 0.00051
1396.28992 1.37270 0.01373 0.05104 0.00051
1397.25989 1.37283 0.01373 0.05065 0.00051
1398.21997 1.37325 0.01373 0.05063 0.00051
1399.18982 1.37358 0.01374 0.05095 0.00051
1400.14978 1.37387 0.01374 0.05114 0.00051
1401.10986 1.37412 0.01374 0.05169 0.00052
1402.07983 1.37394 0.01374 0.05250 0.00052
1403.03992 1.37333 0.01373 0.05284 0.00053
1404.00989 1.37270 0.01373 0.05272 0.00053
1404.96997 1.37245 0.01372 0.05217 0.00052
1405.93982 1.37267 0.01373 0.05162 0.00052
1406.89978 1.37316 0.01373 0.05148 0.00051
1407.86987 1.37373 0.01374 0.05147 0.00051
1408.82983 1.37430 0.01374 0.05186 0.00052
1409.78992 1.37460 0.01375 0.05256 0.00053
1410.75989 1.37445 0.01374 0.05332 0.00053
1411.71997 1.37395 0.01374 0.05375 0.00054
1412.68982 1.37344 0.01373 0.05367 0.00054
1413.64978 1.37321 0.01373 0.05337 0.00053
1414.61987 1.37333 0.01373 0.05297 0.00053
1415.57983 1.37387 0.01374 0.05271 0.00053
1416.53992 1.37447 0.01374 0.05309 0.00053
1417.50989 1.37464 0.01375 0.05383 0.00054
1418.46997 1.37439 0.01374 0.05428 0.00054
1419.43982 1.37410 0.01374 0.05442 0.00054
1420.39978 1.37394 0.01374 0.05441 0.00054
1421.36987 1.37388 0.01374 0.05437 0.00054
1422.32983 1.37401 0.01374 0.05425 0.00054
1423.28992 1.37431 0.01374 0.05431 0.00054
1424.25989 1.37447 0.01374 0.05475 0.00055
1425.21997 1.37430 0.01374 0.05509 0.00055
1426.18982 1.37418 0.01374 0.05498 0.00055
1427.14978 1.37427 0.01374 0.05500 0.00055
1428.11987 1.37438 0.01374 0.05512 0.00055
1429.07983 1.37449 0.01374 0.05516 0.00055
1430.03992 1.37466 0.01375 0.05532 0.00055
1431.00989 1.37482 0.01375 0.05550 0.00055
1431.96997 1.37495 0.01375 0.05577 0.00056
1432.93982 1.37495 0.01375 0.05610 0.00056
1433.89978 1.37494 0.01375 0.05621 0.00056
1434.86987 1.37499 0.01375 0.05640 0.00056
1435.82983 1.37498 0.01375 0.05663 0.00057
1436.78992 1.37504 0.01375 0.05662 0.00057
1437.75989 1.37524 0.01375 0.05679 0.00057
1438.71997 1.37546 0.01375 0.05703 0.00057
1439.68982 1.37572 0.01376 0.05736 0.00057
1440.64978 1.37584 0.01376 0.05800 0.00058
1441.61987 1.37565 0.01376 0.05865 0.00059
1442.57983 1.37519 0.01375 0.05909 0.00059
1443.53992 1.37465 0.01375 0.05921 0.00059
1444.50989 1.37430 0.01374 0.05891 0.00059
1445.46997 1.37426 0.01374 0.05864 0.00059
1446.43982 1.37455 0.01375 0.05830 0.00058
1447.39978 1.37520 0.01375 0.05823 0.00058
1448.36987 1.37581 0.01376 0.05887 0.00059
1449.32983 1.37595 0.01376 0.05972 0.00060
1450.28992 1.37571 0.01376 0.06037 0.00060
1451.25989 1.37544 0.01375 0.06074 0.00061
1452.21997 1.37519 0.01375 0.06115 0.00061
1453.18982 1.37482 0.01375 0.06154 0.00062
1454.14978 1.37435 0.01374 0.06168 0.00062
1455.11987 1.37396 0.01374 0.06164 0.00062
1456.07983 1.37376 0.01374 0.06143 0.00061
1457.03992 1.37378 0.01374 0.06127 0.00061
1458.00989 1.37392 0.01374 0.06123 0.00061
1458.96997 1.37415 0.01374 0.06125 0.00061
1459.93982 1.37441 0.01374 0.06153 0.00062
1460.89978 1.37455 0.01375 0.06193 0.00062
1461.86987 1.37446 0.01374 0.06241 0.00062
1462.82983 1.37430 0.01374 0.06263 0.00063
1463.78992 1.37436 0.01374 0.06271 0.00063
1464.75989 1.37450 0.01374 0.06321 0.00063
1465.71997 1.37429 0.01374 0.06389 0.00064
1466.68982 1.37382 0.01374 0.06424 0.00064
1467.64978 1.37340 0.01373 0.06432 0.00064
1468.61987 1.37315 0.01373 0.06431 0.00064
1469.57983 1.37308 0.01373 0.06429 0.00064
1470.53992 1.37313 0.01373 0.06443 0.00064
1471.50989 1.37311 0.01373 0.06479 0.00065
1472.46997 1.37291 0.01373 0.06517 0.00065
1473.43982 1.37250 0.01372 0.06551 0.00066
1474.39978 1.37205 0.01372 0.06552 0.00066
1475.36987 1.37180 0.01372 0.06530 0.00065
1476.32983 1.37188 0.01372 0.06514 0.00065
1477.28992 1.37214 0.01372 0.06524 0.00065
1478.25989 1.37225 0.01372 0.06575 0.00066
1479.21997 1.37204 0.01372 0.06627 0.00066
1480.18982 1.37167 0.01372 0.06660 0.00067
1481.14978 1.37125 0.01371 0.06683 0.00067
1482.11987 1.37084 0.01371 0.06689 0.00067
1483.07983 1.37056 0.01371 0.06681 0.00067
1484.03992 1.37041 0.01370 0.06682 0.00067
1485.00989 1.37027 0.01370 0.06690 0.00067
1485.96997 1.37007 0.01370 0.06705 0.00067
1486.93982 1.36977 0.01370 0.06715 0.00067
1487.89978 1.36944 0.01369 0.06712 0.00067
1488.86987 1.36925 0.01369 0.06690 0.00067
1489.82983 1.36929 0.01369 0.06675 0.00067
1490.78992 1.36933 0.01369 0.06686 0.00067
1491.75989 1.36929 0.01369 0.06695 0.00067
1492.71997 1.36930 0.01369 0.06699 0.00067
1493.68982 1.36933 0.01369 0.06721 0.00067
1494.64978 1.36918 0.01369 0.06755 0.00068
1495.61987 1.36891 0.01369 0.06769 0.00068
1496.57983 1.36876 0.01369 0.06769 0.00068
1497.53992 1.36867 0.01369 0.06785 0.00068
1498.50989 1.36842 0.01368 0.06813 0.00068
1499.46997 1.36803 0.01368 0.06816 0.00068
1500.43982 1.36780 0.01368 0.06793 0.00068
1501.39978 1.36783 0.01368 0.06776 0.00068
1502.36987 1.36795 0.01368 0.06783 0.00068
1503.32983 1.36804 0.01368 0.06798 0.00068
1504.28992 1.36809 0.01368 0.06823 0.00068
1505.25989 1.36809 0.01368 0.06858 0.00069
1506.21997 1.36790 0.01368 0.06906 0.00069
1507.18982 1.36750 0.01367 0.06946 0.00069
1508.14978 1.36700 0.01367 0.06964 0.00070
1509.11987 1.36646 0.01366 0.06974 0.00070
1510.07983 1.36600 0.01366 0.06956 0.00070
1511.03992 1.36568 0.01366 0.06935 0.00069
1512.00989 1.36544 0.01365 0.06915 0.00069
1512.96997 1.36544 0.01365 0.06873 0.00069
1513.93982 1.36569 0.01366 0.06865 0.00069
1514.89978 1.36586 0.01366 0.06893 0.00069
1515.86987 1.36572 0.01366 0.06931 0.00069
1516.82983 1.36537 0.01365 0.06954 0.00070
1517.78992 1.36506 0.01365 0.06946 0.00069
1518.75989 1.36487 0.01365 0.06947 0.00069
1519.71997 1.36465 0.01365 0.06949 0.00069
1520.68982 1.36443 0.01364 0.06939 0.00069
1521.64978 1.36428 0.01364 0.06930 0.00069
1522.61987 1.36421 0.01364 0.06917 0.00069
1523.57983 1.36422 0.01364 0.06910 0.00069
1524.53992 1.36426 0.01364 0.06913 0.00069
1525.50989 1.36424 0.01364 0.06924 0.00069
1526.46997 1.36419 0.01364 0.06933 0.00069
1527.43982 1.36420 0.01364 0.06939 0.00069
1528.39978 1.36412 0.01364 0.06973 0.00070
1529.36987 1.36374 0.01364 0.07000 0.00070
1530.32983 1.36339 0.01363 0.06981 0.00070
1531.28992 1.36334 0.01363 0.06959 0.00070
1532.25989 1.36343 0.01363 0.06963 0.00070
1533.21997 1.36336 0.01363 0.06988 0.00070
1534.18982 1.36318 0.01363 0.06992 0.00070
1535.14978 1.36306 0.01363 0.06993 0.00070
1536.11987 1.36289 0.01363 0.07007 0.00070
1537.07983 1.36271 0.01363 0.06994 0.00070
1538.03992 1.36275 0.01363 0.06980 0.00070
1539.00989 1.36287 0.01363 0.06990 0.00070
1539.96997 1.36295 0.01363 0.07003 0.00070
1540.93982 1.36299 0.01363 0.07030 0.00070
1541.89978 1.36290 0.01363 0.07066 0.00071
1542.86987 1.36262 0.01363 0.07094 0.00071
1543.82983 1.36237 0.01362 0.07097 0.00071
1544.78992 1.36236 0.01362 0.07095 0.00071
1545.75989 1.36233 0.01362 0.07132 0.00071
1546.71997 1.36208 0.01362 0.07165 0.00072
1547.68982 1.36184 0.01362 0.07172 0.00072
1548.64978 1.36170 0.01362 0.07197 0.00072
1549.61987 1.36140 0.01361 0.07235 0.00072
1550.57983 1.36098 0.01361 0.07253 0.00073
1551.53992 1.36063 0.01361 0.07263 0.00073
1552.50989 1.36015 0.01360 0.07291 0.00073
1553.46997 1.35954 0.01360 0.07287 0.00073
1554.43982 1.35908 0.01359 0.07254 0.00073
1555.39978 1.35889 0.01359 0.07229 0.00072
1556.36987 1.35886 0.01359 0.07208 0.00072
1557.32983 1.35885 0.01359 0.07214 0.00072
1558.28992 1.35868 0.01359 0.07232 0.00072
1559.25989 1.35845 0.01358 0.07233 0.00072
1560.21997 1.35821 0.01358 0.07243 0.00072
1561.18982 1.35794 0.01358 0.07247 0.00072
1562.14978 1.35766 0.01358 0.07244 0.00072
1563.11987 1.35737 0.01357 0.07249 0.00072
1564.07983 1.35713 0.01357 0.07235 0.00072
1565.03992 1.35689 0.01357 0.07241 0.00072
1566.00989 1.35650 0.01357 0.07243 0.00072
1566.96997 1.35620 0.01356 0.07208 0.00072
1567.93982 1.35616 0.01356 0.07188 0.00072
1568.89978 1.35606 0.01356 0.07198 0.00072
1569.86987 1.35577 0.01356 0.07195 0.00072
1570.82983 1.35550 0.01355 0.07176 0.00072
1571.78992 1.35537 0.01355 0.07150 0.00072
1572.75989 1.35532 0.01355 0.07131 0.00071
1573.71997 1.35537 0.01355 0.07109 0.00071
1574.68982 1.35566 0.01356 0.07091 0.00071
1575.64978 1.35596 0.01356 0.07124 0.00071
1576.61987 1.35589 0.01356 0.07179 0.00072
1577.57983 1.35557 0.01356 0.07206 0.00072
1578.53992 1.35534 0.01355 0.07216 0.00072
1579.50989 1.35508 0.01355 0.07252 0.00073
1580.46997 1.35456 0.01355 0.07281 0.00073
1581.43982 1.35398 0.01354 0.07278 0.00073
1582.39978 1.35359 0.01354 0.07262 0.00073
1583.36987 1.35311 0.01353 0.07275 0.00073
1584.32983 1.35243 0.01352 0.07260 0.00073
1585.28992 1.35196 0.01352 0.07194 0.00072
1586.25989 1.35183 0.01352 0.07150 0.00072
1587.21997 1.35175 0.01352 0.07117 0.00071
1588.18982 1.35166 0.01352 0.07083 0.00071
1589.14978 1.35168 0.01352 0.07045 0.00070
1590.11987 1.35195 0.01352 0.07006 0.00070
1591.07983 1.35223 0.01352 0.07013 0.00070
1592.03992 1.35237 0.01352 0.07025 0.00070
1593.00989 1.35237 0.01352 0.07041 0.00070
1593.96997 1.35217 0.01352 0.07065 0.00071
1594.93982 1.35197 0.01352 0.07044 0.00070
1595.89978 1.35200 0.01352 0.07033 0.00070
1596.86987 1.35207 0.01352 0.07039 0.00070
1597.82983 1.35221 0.01352 0.07039 0.00070
1598.78992 1.35235 0.01352 0.07076 0.00071
1599.75989 1.35211 0.01352 0.07137 0.00071
1600.71997 1.35150 0.01352 0.07163 0.00072
1601.68982 1.35091 0.01351 0.07147 0.00071
1602.64978 1.35062 0.01351 0.07110 0.00071
1603.61987 1.35052 0.01351 0.07090 0.00071
1604.57983 1.35048 0.01350 0.07071 0.00071
1605.53992 1.35070 0.01351 0.07044 0.00070
1606.50989 1.35094 0.01351 0.07078 0.00071
1607.46997 1.35075 0.01351 0.07128 0.00071
1608.43982 1.35042 0.01350 0.07127 0.00071
1609.39978 1.35031 0.01350 0.07132 0.00071
1610.36987 1.35015 0.01350 0.07160 0.00072
1611.32983 1.34978 0.01350 0.07182 0.00072
1612.28992 1.34936 0.01349 0.07184 0.00072
1613.25989 1.34914 0.01349 0.07168 0.00072
1614.21997 1.34896 0.01349 0.07188 0.00072
1615.18982 1.34845 0.01348 0.07213 0.00072
1616.14978 1.34783 0.01348 0.07189 0.00072
1617.11987 1.34752 0.01348 0.07143 0.00071
1618.07983 1.34741 0.01347 0.07115 0.00071
1619.03992 1.34736 0.01347 0.07089 0.00071
1620.00989 1.34748 0.01347 0.07060 0.00071
1620.96997 1.34782 0.01348 0.07053 0.00071
1621.93982 1.34812 0.01348 0.07090 0.00071
1622.89978 1.34795 0.01348 0.07164 0.00072
1623.86987 1.34740 0.01347 0.07192 0.00072
1624.82983 1.34694 0.01347 0.07188 0.00072
1625.78992 1.34664 0.01347 0.07191 0.00072
1626.75989 1.34632 0.01346 0.07195 0.00072
1627.71997 1.34602 0.01346 0.07193 0.00072
1628.68982 1.34575 0.01346 0.07191 0.00072
1629.64978 1.34547 0.01345 0.07194 0.00072
1630.61987 1.34512 0.01345 0.07195 0.00072
1631.57983 1.34483 0.01345 0.07177 0.00072
1632.53992 1.34470 0.01345 0.07162 0.00072
1633.50989 1.34475 0.01345 0.07155 0.00072
1634.46997 1.34478 0.01345 0.07185 0.00072
1635.43982 1.34453 0.01345 0.07233 0.00072
1636.39978 1.34407 0.01344 0.07259 0.00073
1637.36987 1.34350 0.01343 0.07285 0.00073
1638.32983 1.34279 0.01343 0.07295 0.00073
1639.28992 1.34214 0.01342 0.07270 0.00073
1640.25989 1.34185 0.01342 0.07229 0.00072
1641.21997 1.34182 0.01342 0.07224 0.00072
1642.18982 1.34160 0.01342 0.07259 0.00073
1643.14978 1.34110 0.01341 0.07288 0.00073
1644.11987 1.34042 0.01340 0.07309 0.00073
1645.07983 1.33942 0.01339 0.07334 0.00073
1646.03992 1.33823 0.01338 0.07293 0.00073
1647.00989 1.33745 0.01337 0.07189 0.00072
1647.96997 1.33733 0.01337 0.07101 0.00071
1648.93982 1.33745 0.01337 0.07057 0.00071
1649.89978 1.33745 0.01337 0.07046 0.00070
1650.86987 1.33743 0.01337 0.07023 0.00070
1651.82983 1.33738 0.01337 0.07036 0.00070
1652.79993 1.33689 0.01337 0.07075 0.00071
1653.75989 1.33620 0.01336 0.07051 0.00071
1654.71997 1.33574 0.01336 0.07016 0.00070
1655.68982 1.33536 0.01335 0.06997 0.00070
1656.64978 1.33494 0.01335 0.06969 0.00070
1657.61987 1.33447 0.01334 0.06945 0.00069
1658.57983 1.33411 0.01334 0.06895 0.00069
1659.54993 1.33387 0.01334 0.06861 0.00069
1660.50989 1.33355 0.01334 0.06841 0.00068
1661.46997 1.33330 0.01333 0.06787 0.00068
1662.43982 1.33327 0.01333 0.06758 0.00068
1663.39978 1.33325 0.01333 0.06751 0.00068
1664.36987 1.33298 0.01333 0.06769 0.00068
1665.32983 1.33232 0.01332 0.06786 0.00068
1666.29993 1.33150 0.01332 0.06747 0.00067
1667.25989 1.33092 0.01331 0.06688 0.00067
1668.21997 1.33051 0.01331 0.06632 0.00066
1669.18982 1.33018 0.01330 0.06571 0.00066
1670.14978 1.32997 0.01330 0.06511 0.00065
1671.11987 1.32989 0.01330 0.06453 0.00065
1672.07983 1.32980 0.01330 0.06416 0.00064
1673.04993 1.32969 0.01330 0.06370 0.00064
1674.00989 1.32978 0.01330 0.06311 0.00063
1674.96997 1.33008 0.01330 0.06293 0.00063
1675.93982 1.33017 0.01330 0.06316 0.00063
1676.89978 1.32977 0.01330 0.06352 0.00064
1677.86987 1.32901 0.01329 0.06348 0.00063
1678.82983 1.32823 0.01328 0.06307 0.00063
1679.79993 1.32756 0.01328 0.06243 0.00062
1680.75989 1.32720 0.01327 0.06147 0.00061
1681.71997 1.32727 0.01327 0.06061 0.00061
1682.68982 1.32748 0.01327 0.06019 0.00060
1683.64978 1.32749 0.01327 0.05999 0.00060
1684.61987 1.32733 0.01327 0.05971 0.00060
1685.57983 1.32712 0.01327 0.05938 0.00059
1686.54993 1.32696 0.01327 0.05894 0.00059
1687.50989 1.32680 0.01327 0.05860 0.00059
1688.46997 1.32662 0.01327 0.05820 0.00058
1689.43982 1.32654 0.01327 0.05769 0.00058
1690.39978 1.32642 0.01326 0.05744 0.00057
1691.36987 1.32617 0.01326 0.05704 0.00057
1692.32983 1.32600 0.01326 0.05643 0.00056
1693.29993 1.32595 0.01326 0.05593 0.00056
1694.25989 1.32604 0.01326 0.05533 0.00055
1695.21997 1.32623 0.01326 0.05500 0.00055
1696.18982 1.32628 0.01326 0.05491 0.00055
1697.14978 1.32614 0.01326 0.05468 0.00055
1698.11987 1.32589 0.01326 0.05449 0.00054
1699.07983 1.32557 0.01326 0.05406 0.00054
1700.04993 1.32531 0.01325 0.05348 0.00053
1701.00989 1.32520 0.01325 0.05282 0.00053
1701.96997 1.32526 0.01325 0.05211 0.00052
1702.93982 1.32549 0.01325 0.05154 0.00052
1703.89978 1.32576 0.01326 0.05111 0.00051
1704.86987 1.32601 0.01326 0.05081 0.00051
1705.82983 1.32616 0.01326 0.05061 0.00051
1706.79993 1.32625 0.01326 0.05034 0.00050
1707.75989 1.32644 0.01326 0.05000 0.00050
1708.71997 1.32664 0.01327 0.04994 0.00050
1709.68982 1.32664 0.01327 0.04996 0.00050
1710.64978 1.32655 0.01327 0.04980 0.00050
1711.61987 1.32649 0.01326 0.04964 0.00050
1712.57983 1.32631 0.01326 0.04963 0.00050
1713.54993 1.32592 0.01326 0.04944 0.00049
1714.50989 1.32557 0.01326 0.04894 0.00049
1715.46997 1.32547 0.01325 0.04831 0.00048
1716.43982 1.32549 0.01325 0.04785 0.00048
1717.39978 1.32553 0.01326 0.04740 0.00047
1718.36987 1.32564 0.01326 0.04694 0.00047
1719.32983 1.32587 0.01326 0.04658 0.00047
1720.29993 1.32605 0.01326 0.04645 0.00046
1721.25989 1.32602 0.01326 0.04646 0.00046
1722.21997 1.32579 0.01326 0.04629 0.00046
1723.18982 1.32558 0.01326 0.04593 0.00046
1724.14978 1.32547 0.01325 0.04552 0.00046
1725.11987 1.32534 0.01325 0.04519 0.00045
1726.07983 1.32519 0.01325 0.04471 0.00045
1727.04993 1.32521 0.01325 0.04412 0.00044
1728.00989 1.32532 0.01325 0.04373 0.00044
1728.96997 1.32534 0.01325 0.04340 0.00043
1729.93982 1.32539 0.01325 0.04292 0.00043
1730.89978 1.32558 0.01326 0.04254 0.00043
1731.86987 1.32568 0.01326 0.04240 0.00042
1732.82983 1.32550 0.01326 0.04227 0.00042
1733.79993 1.32529 0.01325 0.04169 0.00042
1734.75989 1.32537 0.01325 0.04107 0.00041
1735.71997 1.32555 0.01326 0.04071 0.00041
1736.68982 1.32562 0.01326 0.04039 0.00040
1737.64978 1.32562 0.01326 0.04003 0.00040
1738.61987 1.32561 0.01326 0.03962 0.00040
1739.57983 1.32555 0.01326 0.03919 0.00039
1740.54993 1.32553 0.01326 0.03854 0.00039
1741.50989 1.32572 0.01326 0.03779 0.00038
1742.46997 1.32615 0.01326 0.03717 0.00037
1743.43982 1.32674 0.01327 0.03670 0.00037
1744.39978 1.32724 0.01327 0.03664 0.00037
1745.36987 1.32752 0.01328 0.03659 0.00037
1746.32983 1.32771 0.01328 0.03647 0.00036
1747.29993 1.32780 0.01328 0.03647 0.00036
1748.25989 1.32772 0.01328 0.03631 0.00036
1749.21997 1.32758 0.01328 0.03600 0.00036
1750.18982 1.32761 0.01328 0.03539 0.00035
1751.14978 1.32795 0.01328 0.03481 0.00035
1752.11987 1.32835 0.01328 0.03463 0.00035
1753.07983 1.32867 0.01329 0.03441 0.00034
1754.04993 1.32901 0.01329 0.03431 0.00034
1755.00989 1.32908 0.01329 0.03454 0.00035
1755.96997 1.32879 0.01329 0.03448 0.00034
1756.93982 1.32853 0.01329 0.03395 0.00034
1757.89978 1.32859 0.01329 0.03329 0.00033
1758.86987 1.32886 0.01329 0.03274 0.00033
1759.82983 1.32922 0.01329 0.03230 0.00032
1760.79993 1.32967 0.01330 0.03193 0.00032
1761.75989 1.33015 0.01330 0.03180 0.00032
1762.71997 1.33047 0.01330 0.03185 0.00032
1763.68982 1.33053 0.01331 0.03192 0.00032
1764.64978 1.33041 0.01330 0.03179 0.00032
1765.61987 1.33036 0.01330 0.03131 0.00031
1766.57983 1.33062 0.01331 0.03075 0.00031
1767.54993 1.33110 0.01331 0.03043 0.00030
1768.50989 1.33153 0.01332 0.03038 0.00030
1769.46997 1.33177 0.01332 0.03042 0.00030
1770.43982 1.33189 0.01332 0.03040 0.00030
1771.39978 1.33190 0.01332 0.03035 0.00030
1772.36987 1.33189 0.01332 0.03011 0.00030
1773.32983 1.33205 0.01332 0.02976 0.00030
1774.29993 1.33228 0.01332 0.02965 0.00030
1775.25989 1.33236 0.01332 0.02961 0.00030
1776.21997 1.33231 0.01332 0.02942 0.00029
1777.18982 1.33229 0.01332 0.02911 0.00029
1778.14978 1.33234 0.01332 0.02869 0.00029
1779.11987 1.33254 0.01333 0.02824 0.00028
1780.07983 1.33295 0.01333 0.02780 0.00028
1781.04993 1.33336 0.01333 0.02775 0.00028
1782.00989 1.33350 0.01333 0.02778 0.00028
1782.96997 1.33351 0.01334 0.02753 0.00028
1783.93982 1.33365 0.01334 0.02716 0.00027
1784.89978 1.33392 0.01334 0.02681 0.00027
1785.86987 1.33428 0.01334 0.02652 0.00027
1786.82983 1.33469 0.01335 0.02634 0.00026
1787.79993 1.33507 0.01335 0.02627 0.00026
1788.75989 1.33532 0.01335 0.02633 0.00026
1789.71997 1.33545 0.01335 0.02625 0.00026
1790.68982 1.33568 0.01336 0.02602 0.00026
1791.64978 1.33602 0.01336 0.02596 0.00026
1792.61987 1.33629 0.01336 0.02605 0.00026
1793.57983 1.33641 0.01336 0.02616 0.00026
1794.54993 1.33641 0.01336 0.02619 0.00026
1795.50989 1.33638 0.01336 0.02614 0.00026
1796.46997 1.33629 0.01336 0.02606 0.00026
1797.43982 1.33612 0.01336 0.02582 0.00026
1798.39978 1.33614 0.01336 0.02526 0.00025
1799.36987 1.33646 0.01336 0.02478 0.00025
1800.32983 1.33688 0.01337 0.02458 0.00025
1801.29993 1.33720 0.01337 0.02452 0.00025
1802.25989 1.33736 0.01337 0.02448 0.00024
1803.21997 1.33749 0.01337 0.02429 0.00024
1804.18982 1.33768 0.01338 0.02405 0.00024
1805.14978 1.33794 0.01338 0.02382 0.00024
1806.11987 1.33840 0.01338 0.02352 0.00024
1807.07983 1.33897 0.01339 0.02356 0.00024
1808.04993 1.33930 0.01339 0.02398 0.00024
1809.00989 1.33928 0.01339 0.02428 0.00024
1809.96997 1.33909 0.01339 0.02439 0.00024
1810.93982 1.33882 0.01339 0.02431 0.00024
1811.89978 1.33863 0.01339 0.02391 0.00024
1812.86987 1.33872 0.01339 0.02338 0.00023
1813.82983 1.33912 0.01339 0.02296 0.00023
1814.79993 1.33955 0.01340 0.02289 0.00023
1815.75989 1.33977 0.01340 0.02295 0.00023
1816.71997 1.33996 0.01340 0.02281 0.00023
1817.68982 1.34023 0.01340 0.02277 0.00023
1818.64978 1.34036 0.01340 0.02295 0.00023
1819.61987 1.34030 0.01340 0.02294 0.00023
1820.57983 1.34023 0.01340 0.02278 0.00023
1821.54993 1.34028 0.01340 0.02248 0.00022
1822.50989 1.34044 0.01340 0.02223 0.00022
1823.46997 1.34067 0.01341 0.02203 0.00022
1824.43982 1.34093 0.01341 0.02188 0.00022
1825.39978 1.34118 0.01341 0.02188 0.00022
1826.36987 1.34123 0.01341 0.02198 0.00022
1827.32983 1.34110 0.01341 0.02188 0.00022
1828.29993 1.34103 0.01341 0.02145 0.00021
1829.25989 1.34128 0.01341 0.02091 0.00021
1830.21997 1.34183 0.01342 0.02054 0.00021
1831.18982 1.34244 0.01342 0.02057 0.00021
1832.14978 1.34285 0.01343 0.02083 0.00021
1833.11987 1.34299 0.01343 0.02114 0.00021
1834.07983 1.34282 0.01343 0.02140 0.00021
1835.04993 1.34253 0.01343 0.02125 0.00021
1836.00989 1.34248 0.01342 0.02076 0.00021
1836.96997 1.34276 0.01343 0.02037 0.00020
1837.93982 1.34317 0.01343 0.02016 0.00020
1838.89978 1.34353 0.01344 0.02018 0.00020
1839.86987 1.34374 0.01344 0.02026 0.00020
1840.82983 1.34386 0.01344 0.02024 0.00020
1841.79993 1.34402 0.01344 0.02016 0.00020
1842.75989 1.34425 0.01344 0.02009 0.00020
1843.71997 1.34450 0.01344 0.02017 0.00020
1844.68982 1.34462 0.01345 0.02037 0.00020
1845.64978 1.34455 0.01345 0.02053 0.00021
1846.61987 1.34438 0.01344 0.02051 0.00021
1847.57983 1.34420 0.01344 0.02036 0.00020
1848.54993 1.34408 0.01344 0.02005 0.00020
1849.50989 1.34416 0.01344 0.01959 0.00020
1850.46997 1.34444 0.01344 0.01926 0.00019
1851.43982 1.34468 0.01345 0.01917 0.00019
1852.39978 1.34489 0.01345 0.01892 0.00019
1853.36987 1.34521 0.01345 0.01871 0.00019
1854.32983 1.34553 0.01346 0.01870 0.00019
1855.29993 1.34584 0.01346 0.01863 0.00019
1856.25989 1.34617 0.01346 0.01869 0.00019
1857.21997 1.34641 0.01346 0.01891 0.00019
1858.18982 1.34642 0.01346 0.01922 0.00019
1859.14978 1.34619 0.01346 0.01936 0.00019
1860.11987 1.34600 0.01346 0.01913 0.00019
1861.07983 1.34590 0.01346 0.01897 0.00019
1862.04993 1.34585 0.01346 0.01862 0.00019
1863.00989 1.34610 0.01346 0.01811 0.00018
1863.96997 1.34651 0.01347 0.01807 0.00018
1864.93982 1.34671 0.01347 0.01819 0.00018
1865.89978 1.34669 0.01347 0.01824 0.00018
1866.86987 1.34662 0.01347 0.01809 0.00018
1867.82983 1.34668 0.01347 0.01781 0.00018
1868.79993 1.34679 0.01347 0.01769 0.00018
1869.75989 1.34693 0.01347 0.01745 0.00017
1870.71997 1.34711 0.01347 0.01734 0.00017
1871.68982 1.34718 0.01347 0.01733 0.00017
1872.64978 1.34718 0.01347 0.01711 0.00017
1873.61987 1.34718 0.01347 0.01693 0.00017
1874.57983 1.34720 0.01347 0.01655 0.00017
1875.54993 1.34746 0.01347 0.01603 0.00016
1876.50989 1.34795 0.01348 0.01572 0.00016
1877.46997 1.34842 0.01348 0.01571 0.00016
1878.43982 1.34874 0.01349 0.01578 0.00016
1879.39978 1.34900 0.01349 0.01582 0.00016
1880.36987 1.34912 0.01349 0.01601 0.00016
1881.32983 1.34892 0.01349 0.01616 0.00016
1882.29993 1.34864 0.01349 0.01577 0.00016
1883.25989 1.34874 0.01349 0.01507 0.00015
1884.21997 1.34924 0.01349 0.01456 0.00015
1885.18982 1.34986 0.01350 0.01433 0.00014
1886.14978 1.35052 0.01351 0.01427 0.00014
1887.11987 1.35110 0.01351 0.01453 0.00015
1888.07983 1.35137 0.01351 0.01497 0.00015
1889.04993 1.35132 0.01351 0.01527 0.00015
1890.00989 1.35122 0.01351 0.01526 0.00015
1890.96997 1.35127 0.01351 0.01510 0.00015
1891.93982 1.35136 0.01351 0.01511 0.00015
1892.89978 1.35141 0.01351 0.01498 0.00015
1893.86987 1.35156 0.01352 0.01480 0.00015
1894.82983 1.35172 0.01352 0.01479 0.00015
1895.79993 1.35182 0.01352 0.01465 0.00015
1896.75989 1.35201 0.01352 0.01446 0.00014
1897.71997 1.35226 0.01352 0.01439 0.00014
1898.68982 1.35246 0.01352 0.01437 0.00014
1899.64978 1.35262 0.01353 0.01433 0.00014
1900.61987 1.35281 0.01353 0.01424 0.00014
1901.57983 1.35304 0.01353 0.01423 0.00014
1902.54993 1.35313 0.01353 0.01436 0.00014
1903.50989 1.35312 0.01353 0.01426 0.00014
1904.46997 1.35323 0.01353 0.01405 0.00014
1905.43982 1.35340 0.01353 0.01396 0.00014
1906.39978 1.35352 0.01354 0.01385 0.00014
1907.36987 1.35374 0.01354 0.01360 0.00014
1908.32983 1.35409 0.01354 0.01350 0.00013
1909.29993 1.35438 0.01354 0.01359 0.00014
1910.25989 1.35452 0.01355 0.01368 0.00014
1911.22986 1.35458 0.01355 0.01367 0.00014
1912.18982 1.35467 0.01355 0.01359 0.00014
1913.14978 1.35477 0.01355 0.01349 0.00013
1914.11987 1.35492 0.01355 0.01334 0.00013
1915.07983 1.35516 0.01355 0.01319 0.00013
1916.04993 1.35545 0.01355 0.01313 0.00013
1917.00989 1.35572 0.01356 0.01316 0.00013
1917.97986 1.35593 0.01356 0.01328 0.00013
1918.93982 1.35595 0.01356 0.01347 0.00013
1919.89978 1.35581 0.01356 0.01344 0.00013
1920.86987 1.35574 0.01356 0.01317 0.00013
1921.82983 1.35588 0.01356 0.01280 0.00013
1922.79993 1.35621 0.01356 0.01253 0.00013
1923.75989 1.35662 0.01357 0.01242 0.00012
1924.72986 1.35699 0.01357 0.01247 0.00012
1925.68982 1.35720 0.01357 0.01263 0.00013
1926.64978 1.35725 0.01357 0.01273 0.00013
1927.61987 1.35728 0.01357 0.01262 0.00013
1928.57983 1.35740 0.01357 0.01247 0.00012
1929.54993 1.35760 0.01358 0.01234 0.00012
1930.50989 1.35791 0.01358 0.01217 0.00012
1931.47986 1.35826 0.01358 0.01224 0.00012
1932.43982 1.35840 0.01358 0.01250 0.00013
1933.39978 1.35832 0.01358 0.01257 0.00013
1934.36987 1.35820 0.01358 0.01239 0.00012
1935.32983 1.35829 0.01358 0.01202 0.00012
1936.29993 1.35859 0.01359 0.01172 0.00012
1937.25989 1.35893 0.01359 0.01160 0.00012
1938.22986 1.35936 0.01359 0.01138 0.00011
1939.18982 1.35984 0.01360 0.01148 0.00011
1940.14978 1.36011 0.01360 0.01178 0.00012
1941.11987 1.36018 0.01360 0.01186 0.00012
1942.07983 1.36022 0.01360 0.01189 0.00012
1943.04993 1.36040 0.01360 0.01169 0.00012
1944.00989 1.36073 0.01361 0.01164 0.00012
1944.97986 1.36098 0.01361 0.01184 0.00012
1945.93982 1.36121 0.01361 0.01179 0.00012
1946.89978 1.36142 0.01361 0.01206 0.00012
1947.86987 1.36138 0.01361 0.01233 0.00012
1948.82983 1.36125 0.01361 0.01223 0.00012
1949.79993 1.36121 0.01361 0.01213 0.00012
1950.75989 1.36129 0.01361 0.01186 0.00012
1951.72986 1.36147 0.01361 0.01168 0.00012
1952.68982 1.36170 0.01362 0.01155 0.00012
1953.64978 1.36206 0.01362 0.01131 0.00011
1954.61987 1.36243 0.01362 0.01149 0.00011
1955.57983 1.36258 0.01363 0.01165 0.00012
1956.54993 1.36264 0.01363 0.01168 0.00012
1957.50989 1.36266 0.01363 0.01171 0.00012
1958.47986 1.36270 0.01363 0.01153 0.00012
1959.43982 1.36281 0.01363 0.01137 0.00011
1960.39978 1.36300 0.01363 0.01112 0.00011
1961.36987 1.36338 0.01363 0.01082 0.00011
1962.32983 1.36387 0.01364 0.01080 0.00011
1963.29993 1.36432 0.01364 0.01090 0.00011
1964.25989 1.36467 0.01365 0.01110 0.00011
1965.22986 1.36487 0.01365 0.01140 0.00011
1966.18982 1.36495 0.01365 0.01157 0.00012
1967.14978 1.36496 0.01365 0.01171 0.00012
1968.11987 1.36492 0.01365 0.01172 0.00012
1969.07983 1.36500 0.01365 0.01152 0.00012
1970.04993 1.36526 0.01365 0.01142 0.00011
1971.00989 1.36552 0.01366 0.01147 0.00011
1971.97986 1.36573 0.01366 0.01154 0.00012
1972.93982 1.36584 0.01366 0.01167 0.00012
1973.89978 1.36589 0.01366 0.01169 0.00012
1974.86987 1.36593 0.01366 0.01164 0.00012
1975.82983 1.36604 0.01366 0.01148 0.00011
1976.79993 1.36638 0.01366 0.01122 0.00011
1977.75989 1.36689 0.01367 0.01127 0.00011
1978.72986 1.36718 0.01367 0.01171 0.00012
1979.68982 1.36711 0.01367 0.01199 0.00012
1980.64978 1.36696 0.01367 0.01195 0.00012
1981.61987 1.36699 0.01367 0.01172 0.00012
1982.57983 1.36721 0.01367 0.01152 0.00012
1983.54993 1.36761 0.01368 0.01138 0.00011
1984.50989 1.36812 0.01368 0.01144 0.00011
1985.47986 1.36850 0.01368 0.01188 0.00012
1986.43982 1.36847 0.01368 0.01242 0.00012
1987.39978 1.36819 0.01368 0.01259 0.00013
1988.36987 1.36797 0.01368 0.01247 0.00012
1989.32983 1.36794 0.01368 0.01224 0.00012
1990.29993 1.36811 0.01368 0.01201 0.00012
1991.25989 1.36833 0.01368 0.01199 0.00012
1992.22986 1.36849 0.01368 0.01200 0.00012
1993.18982 1.36856 0.01369 0.01203 0.00012
1994.14978 1.36857 0.01369 0.01197 0.00012
1995.11987 1.36869 0.01369 0.01171 0.00012
1996.07983 1.36899 0.01369 0.01152 0.00012
1997.04993 1.36936 0.01369 0.01153 0.00012
1998.00989 1.36967 0.01370 0.01162 0.00012
1998.97986 1.36988 0.01370 0.01182 0.00012
1999.93982 1.36996 0.01370 0.01199 0.00012
2000.89978 1.36990 0.01370 0.01212 0.00012
2001.86987 1.36980 0.01370 0.01204 0.00012
2002.82983 1.36980 0.01370 0.01178 0.00012
2003.79993 1.36999 0.01370 0.01152 0.00012
2004.75989 1.37032 0.01370 0.01130 0.00011
2005.72986 1.37067 0.01371 0.01127 0.00011
2006.68982 1.37102 0.01371 0.01123 0.00011
2007.64978 1.37138 0.01371 0.01126 0.00011
2008.61987 1.37173 0.01372 0.01143 0.00011
2009.57983 1.37195 0.01372 0.01164 0.00012
2010.54993 1.37206 0.01372 0.01183 0.00012
2011.50989 1.37219 0.01372 0.01185 0.00012
2012.47986 1.37241 0.01372 0.01193 0.00012
2013.43982 1.37252 0.01373 0.01221 0.00012
2014.39978 1.37250 0.01372 0.01230 0.00012
2015.36987 1.37255 0.01373 0.01226 0.00012
2016.32983 1.37264 0.01373 0.01233 0.00012
2017.29993 1.37259 0.01373 0.01244 0.00012
2018.25989 1.37249 0.01372 0.01227 0.00012
2019.22986 1.37263 0.01373 0.01189 0.00012
2020.18982 1.37297 0.01373 0.01174 0.00012
2021.14978 1.37332 0.01373 0.01169 0.00012
2022.11987 1.37372 0.01374 0.01165 0.00012
2023.07983 1.37409 0.01374 0.01186 0.00012
2024.04993 1.37432 0.01374 0.01212 0.00012
2025.00989 1.37440 0.01374 0.01232 0.00012
2025.97986 1.37444 0.01374 0.01244 0.00012
2026.93982 1.37452 0.01375 0.01244 0.00012
2027.89978 1.37460 0.01375 0.01256 0.00013
2028.86987 1.37464 0.01375 0.01256 0.00013
2029.82983 1.37473 0.01375 0.01250 0.00013
2030.79993 1.37485 0.01375 0.01253 0.00013
2031.75989 1.37499 0.01375 0.01244 0.00012
2032.72986 1.37512 0.01375 0.01248 0.00012
2033.68982 1.37520 0.01375 0.01245 0.00012
2034.64978 1.37534 0.01375 0.01224 0.00012
2035.61987 1.37561 0.01376 0.01217 0.00012
2036.57983 1.37593 0.01376 0.01206 0.00012
2037.54993 1.37628 0.01376 0.01210 0.00012
2038.50989 1.37662 0.01377 0.01217 0.00012
2039.47986 1.37698 0.01377 0.01229 0.00012
2040.43982 1.37723 0.01377 0.01261 0.00013
2041.39978 1.37733 0.01377 0.01282 0.00013
2042.36987 1.37743 0.01377 0.01293 0.00013
2043.32983 1.37750 0.01378 0.01310 0.00013
2044.29993 1.37751 0.01378 0.01316 0.00013
2045.25989 1.37762 0.01378 0.01307 0.00013
2046.22986 1.37786 0.01378 0.01305 0.00013
2047.18982 1.37809 0.01378 0.01319 0.00013
2048.14966 1.37826 0.01378 0.01329 0.00013
2049.11963 1.37838 0.01378 0.01344 0.00013
2050.07983 1.37843 0.01378 0.01357 0.00014
2051.04980 1.37845 0.01378 0.01354 0.00014
2052.00977 1.37858 0.01379 0.01344 0.00013
2052.97974 1.37889 0.01379 0.01328 0.00013
2053.93970 1.37931 0.01379 0.01340 0.00013
2054.89966 1.37962 0.01380 0.01366 0.00014
2055.86963 1.37981 0.01380 0.01393 0.00014
2056.82983 1.37991 0.01380 0.01423 0.00014
2057.79980 1.37990 0.01380 0.01449 0.00014
2058.75977 1.37981 0.01380 0.01467 0.00015
2059.72974 1.37968 0.01380 0.01471 0.00015
2060.68970 1.37961 0.01380 0.01460 0.00015
2061.64966 1.37964 0.01380 0.01445 0.00014
2062.61963 1.37982 0.01380 0.01424 0.00014
2063.57983 1.38008 0.01380 0.01416 0.00014
2064.54980 1.38039 0.01380 0.01410 0.00014
2065.50977 1.38077 0.01381 0.01409 0.00014
2066.47974 1.38115 0.01381 0.01431 0.00014
2067.43970 1.38142 0.01381 0.01457 0.00015
2068.39966 1.38154 0.01382 0.01490 0.00015
2069.36963 1.38155 0.01382 0.01512 0.00015
2070.32983 1.38157 0.01382 0.01519 0.00015
2071.29980 1.38156 0.01382 0.01535 0.00015
2072.25977 1.38152 0.01382 0.01533 0.00015
2073.22974 1.38167 0.01382 0.01511 0.00015
2074.18970 1.38200 0.01382 0.01513 0.00015
2075.14966 1.38226 0.01382 0.01531 0.00015
2076.11963 1.38240 0.01382 0.01549 0.00015
2077.07983 1.38259 0.01383 0.01556 0.00016
2078.04980 1.38276 0.01383 0.01582 0.00016
2079.00977 1.38272 0.01383 0.01611 0.00016
2079.97974 1.38265 0.01383 0.01605 0.00016
2080.93970 1.38274 0.01383 0.01598 0.00016
2081.89966 1.38291 0.01383 0.01598 0.00016
2082.86963 1.38310 0.01383 0.01597 0.00016
2083.82983 1.38337 0.01383 0.01596 0.00016
2084.79980 1.38374 0.01384 0.01604 0.00016
2085.75977 1.38404 0.01384 0.01638 0.00016
2086.72974 1.38416 0.01384 0.01674 0.00017
2087.68970 1.38418 0.01384 0.01700 0.00017
2088.64966 1.38412 0.01384 0.01726 0.00017
2089.61963 1.38398 0.01384 0.01734 0.00017
2090.57983 1.38400 0.01384 0.01718 0.00017
2091.54980 1.38430 0.01384 0.01712 0.00017
2092.50977 1.38460 0.01385 0.01740 0.00017
2093.47974 1.38471 0.01385 0.01776 0.00018
2094.43970 1.38469 0.01385 0.01806 0.00018
2095.39966 1.38450 0.01385 0.01840 0.00018
2096.36963 1.38412 0.01384 0.01852 0.00019
2097.32983 1.38381 0.01384 0.01824 0.00018
2098.29980 1.38387 0.01384 0.01777 0.00018
2099.25977 1.38418 0.01384 0.01760 0.00018
2100.22974 1.38443 0.01384 0.01764 0.00018
2101.18970 1.38460 0.01385 0.01760 0.00018
2102.14966 1.38484 0.01385 0.01753 0.00018
2103.11963 1.38516 0.01385 0.01756 0.00018
2104.07983 1.38542 0.01385 0.01774 0.00018
2105.04980 1.38560 0.01386 0.01790 0.00018
2106.00977 1.38581 0.01386 0.01800 0.00018
2106.97974 1.38596 0.01386 0.01830 0.00018
2107.93970 1.38591 0.01386 0.01855 0.00019
2108.89966 1.38576 0.01386 0.01857 0.00019
2109.86963 1.38572 0.01386 0.01838 0.00018
2110.82983 1.38600 0.01386 0.01804 0.00018
2111.79980 1.38648 0.01386 0.01805 0.00018
2112.75977 1.38688 0.01387 0.01829 0.00018
2113.72974 1.38713 0.01387 0.01852 0.00019
2114.68970 1.38728 0.01387 0.01883 0.00019
2115.64966 1.38735 0.01387 0.01898 0.00019
2116.61963 1.38745 0.01387 0.01907 0.00019
2117.57983 1.38768 0.01388 0.01913 0.00019
2118.54980 1.38804 0.01388 0.01925 0.00019
2119.50977 1.38831 0.01388 0.01975 0.00020
2120.47974 1.38827 0.01388 0.02025 0.00020
2121.43970 1.38801 0.01388 0.02051 0.00021
2122.39966 1.38780 0.01388 0.02045 0.00020
2123.36963 1.38793 0.01388 0.02017 0.00020
2124.32983 1.38825 0.01388 0.02026 0.00020
2125.29980 1.38855 0.01389 0.02045 0.00020
2126.25977 1.38879 0.01389 0.02076 0.00021
2127.22974 1.38878 0.01389 0.02133 0.00021
2128.18970 1.38844 0.01388 0.02161 0.00022
2129.14966 1.38813 0.01388 0.02145 0.00021
2130.11963 1.38816 0.01388 0.02111 0.00021
2131.07983 1.38849 0.01388 0.02092 0.00021
2132.04980 1.38888 0.01389 0.02101 0.00021
2133.00977 1.38919 0.01389 0.02120 0.00021
2133.97974 1.38948 0.01389 0.02141 0.00021
2134.93970 1.38963 0.01390 0.02185 0.00022
2135.89966 1.38958 0.01390 0.02215 0.00022
2136.86963 1.38958 0.01390 0.02217 0.00022
2137.82983 1.38975 0.01390 0.02230 0.00022
2138.79980 1.38986 0.01390 0.02260 0.00023
2139.75977 1.38985 0.01390 0.02282 0.00023
2140.72974 1.38985 0.01390 0.02293 0.00023
2141.68970 1.38991 0.01390 0.02303 0.00023
2142.65967 1.38998 0.01390 0.02317 0.00023
2143.61963 1.39011 0.01390 0.02324 0.00023
2144.57983 1.39030 0.01390 0.02340 0.00023
2145.54980 1.39045 0.01390 0.02372 0.00024
2146.50977 1.39044 0.01390 0.02403 0.00024
2147.47974 1.39041 0.01390 0.02421 0.00024
2148.43970 1.39039 0.01390 0.02439 0.00024
2149.40967 1.39034 0.01390 0.02458 0.00025
2150.36963 1.39030 0.01390 0.02465 0.00025
2151.32983 1.39035 0.01390 0.02469 0.00025
2152.29980 1.39043 0.01390 0.02483 0.00025
2153.25977 1.39045 0.01390 0.02500 0.00025
2154.22974 1.39047 0.01390 0.02504 0.00025
2155.18970 1.39059 0.01391 0.02509 0.00025
2156.15967 1.39076 0.01391 0.02521 0.00025
2157.11963 1.39093 0.01391 0.02538 0.00025
2158.07983 1.39107 0.01391 0.02562 0.00026
2159.04980 1.39126 0.01391 0.02581 0.00026
2160.00977 1.39148 0.01391 0.02617 0.00026
2160.97974 1.39151 0.01392 0.02675 0.00027
2161.93970 1.39129 0.01391 0.02717 0.00027
2162.90967 1.39104 0.01391 0.02739 0.00027
2163.86963 1.39091 0.01391 0.02752 0.00028
2164.82983 1.39077 0.01391 0.02776 0.00028
2165.79980 1.39054 0.01391 0.02795 0.00028
2166.75977 1.39029 0.01390 0.02800 0.00028
2167.72974 1.39010 0.01390 0.02798 0.00028
2168.68970 1.38998 0.01390 0.02787 0.00028
2169.65967 1.38995 0.01390 0.02776 0.00028
2170.61963 1.39011 0.01390 0.02757 0.00028
2171.57983 1.39037 0.01390 0.02766 0.00028
2172.54980 1.39051 0.01391 0.02795 0.00028
2173.50977 1.39052 0.01391 0.02812 0.00028
2174.47974 1.39047 0.01390 0.02834 0.00028
2175.43970 1.39044 0.01390 0.02838 0.00028
2176.40967 1.39049 0.01390 0.02846 0.00028
2177.36963 1.39051 0.01391 0.02868 0.00029
2178.32983 1.39053 0.01391 0.02876 0.00029
2179.29980 1.39049 0.01390 0.02901 0.00029
2180.25977 1.39030 0.01390 0.02919 0.00029
2181.22974 1.39016 0.01390 0.02900 0.00029
2182.18970 1.39029 0.01390 0.02886 0.00029
2183.15967 1.39054 0.01391 0.02888 0.00029
2184.11963 1.39080 0.01391 0.02905 0.00029
2185.07983 1.39098 0.01391 0.02934 0.00029
2186.04980 1.39104 0.01391 0.02971 0.00030
2187.00977 1.39097 0.01391 0.03000 0.00030
2187.97974 1.39085 0.01391 0.03022 0.00030
2188.93970 1.39076 0.01391 0.03032 0.00030
2189.90967 1.39071 0.01391 0.03042 0.00030
2190.86963 1.39069 0.01391 0.03052 0.00031
2191.82983 1.39076 0.01391 0.03053 0.00031
2192.79980 1.39089 0.01391 0.03071 0.00031
2193.75977 1.39093 0.01391 0.03097 0.00031
2194.72974 1.39101 0.01391 0.03108 0.00031
2195.68970 1.39119 0.01391 0.03134 0.00031
2196.65967 1.39126 0.01391 0.03186 0.00032
2197.61963 1.39109 0.01391 0.03231 0.00032
2198.57983 1.39081 0.01391 0.03262 0.00033
2199.54980 1.39056 0.01391 0.03276 0.00033
2200.50977 1.39044 0.01390 0.03288 0.00033
2201.47974 1.39031 0.01390 0.03314 0.00033
2202.43970 1.39012 0.01390 0.03331 0.00033
2203.40967 1.38995 0.01390 0.03348 0.00033
2204.36963 1.38977 0.01390 0.03371 0.00034
2205.32983 1.38946 0.01389 0.03392 0.00034
2206.29980 1.38904 0.01389 0.03402 0.00034
2207.25977 1.38871 0.01389 0.03379 0.00034
2208.22974 1.38867 0.01389 0.03351 0.00034
2209.18970 1.38882 0.01389 0.03348 0.00033
2210.15967 1.38887 0.01389 0.03367 0.00034
2211.11963 1.38878 0.01389 0.03383 0.00034
2212.07983 1.38872 0.01389 0.03387 0.00034
2213.04980 1.38868 0.01389 0.03405 0.00034
2214.00977 1.38847 0.01388 0.03429 0.00034
2214.97974 1.38817 0.01388 0.03428 0.00034
2215.93970 1.38812 0.01388 0.03402 0.00034
2216.90967 1.38834 0.01388 0.03398 0.00034
2217.86963 1.38847 0.01388 0.03433 0.00034
2218.82983 1.38837 0.01388 0.03461 0.00035
2219.79980 1.38820 0.01388 0.03481 0.00035
2220.75977 1.38811 0.01388 0.03491 0.00035
2221.72974 1.38795 0.01388 0.03523 0.00035
2222.68970 1.38766 0.01388 0.03543 0.00035
2223.65967 1.38748 0.01387 0.03535 0.00035
2224.61963 1.38734 0.01387 0.03565 0.00036
2225.57983 1.38700 0.01387 0.03585 0.00036
2226.54980 1.38661 0.01387 0.03585 0.00036
2227.50977 1.38624 0.01386 0.03586 0.00036
2228.47974 1.38594 0.01386 0.03564 0.00036
2229.43970 1.38578 0.01386 0.03545 0.00035
2230.40967 1.38574 0.01386 0.03531 0.00035
2231.36963 1.38571 0.01386 0.03527 0.00035
2232.32983 1.38554 0.01386 0.03540 0.00035
2233.29980 1.38529 0.01385 0.03524 0.00035
2234.25977 1.38520 0.01385 0.03499 0.00035
2235.22974 1.38524 0.01385 0.03488 0.00035
2236.18970 1.38527 0.01385 0.03481 0.00035
2237.15967 1.38531 0.01385 0.03476 0.00035
2238.11963 1.38543 0.01385 0.03467 0.00035
2239.07983 1.38569 0.01386 0.03471 0.00035
2240.04980 1.38591 0.01386 0.03509 0.00035
2241.00977 1.38583 0.01386 0.03564 0.00036
2241.97974 1.38544 0.01385 0.03606 0.00036
2242.93970 1.38495 0.01385 0.03622 0.00036
2243.90967 1.38446 0.01384 0.03623 0.00036
2244.86963 1.38398 0.01384 0.03612 0.00036
2245.82983 1.38368 0.01384 0.03571 0.00036
2246.79980 1.38366 0.01384 0.03538 0.00035
2247.75977 1.38376 0.01384 0.03526 0.00035
2248.72974 1.38381 0.01384 0.03532 0.00035
2249.68970 1.38372 0.01384 0.03548 0.00035
2250.65967 1.38352 0.01384 0.03554 0.00036
2251.61963 1.38325 0.01383 0.03558 0.00036
2252.57983 1.38297 0.01383 0.03547 0.00035
2253.54980 1.38277 0.01383 0.03527 0.00035
2254.50977 1.38263 0.01383 0.03512 0.00035
2255.47974 1.38260 0.01383 0.03485 0.00035
2256.43970 1.38276 0.01383 0.03471 0.00035
2257.40967 1.38287 0.01383 0.03495 0.00035
2258.36963 1.38262 0.01383 0.03528 0.00035
2259.32983 1.38212 0.01382 0.03530 0.00035
2260.29980 1.38177 0.01382 0.03494 0.00035
2261.25977 1.38167 0.01382 0.03464 0.00035
2262.22974 1.38160 0.01382 0.03453 0.00035
2263.18970 1.38148 0.01381 0.03435 0.00034
2264.15967 1.38143 0.01381 0.03409 0.00034
2265.11963 1.38145 0.01381 0.03395 0.00034
2266.07983 1.38142 0.01381 0.03385 0.00034
2267.04980 1.38141 0.01381 0.03367 0.00034
2268.00977 1.38148 0.01381 0.03355 0.00034
2268.97974 1.38160 0.01382 0.03349 0.00033
2269.93970 1.38166 0.01382 0.03363 0.00034
2270.90967 1.38152 0.01382 0.03384 0.00034
2271.86963 1.38121 0.01381 0.03387 0.00034
2272.82983 1.38090 0.01381 0.03372 0.00034
2273.79980 1.38074 0.01381 0.03339 0.00033
2274.75977 1.38075 0.01381 0.03316 0.00033
2275.72974 1.38075 0.01381 0.03310 0.00033
2276.68970 1.38070 0.01381 0.03297 0.00033
2277.65967 1.38057 0.01381 0.03295 0.00033
2278.61963 1.38042 0.01380 0.03273 0.00033
2279.57983 1.38043 0.01380 0.03237 0.00032
2280.54980 1.38053 0.01381 0.03231 0.00032
2281.50977 1.38053 0.01381 0.03219 0.00032
2282.47974 1.38058 0.01381 0.03200 0.00032
2283.43970 1.38076 0.01381 0.03191 0.00032
2284.40967 1.38087 0.01381 0.03206 0.00032
2285.36963 1.38072 0.01381 0.03228 0.00032
2286.32983 1.38044 0.01380 0.03220 0.00032
2287.29980 1.38035 0.01380 0.03195 0.00032
2288.25977 1.38027 0.01380 0.03196 0.00032
2289.22974 1.38001 0.01380 0.03192 0.00032
2290.18970 1.37986 0.01380 0.03147 0.00031
2291.15967 1.37998 0.01380 0.03118 0.00031
2292.11963 1.38004 0.01380 0.03120 0.00031
2293.07983 1.37997 0.01380 0.03105 0.00031
2294.04980 1.37994 0.01380 0.03089 0.00031
2295.00977 1.37994 0.01380 0.03076 0.00031
2295.97974 1.37984 0.01380 0.03064 0.00031
2296.93970 1.37972 0.01380 0.03038 0.00030
2297.90967 1.37984 0.01380 0.02985 0.00030
2298.86963 1.38018 0.01380 0.02967 0.00030
2299.82983 1.38045 0.01380 0.02969 0.00030
2300.79980 1.38075 0.01381 0.02963 0.00030
2301.75977 1.38101 0.01381 0.02996 0.00030
2302.72974 1.38089 0.01381 0.03046 0.00030
2303.68970 1.38043 0.01380 0.03067 0.00031
2304.65967 1.37984 0.01380 0.03059 0.00031
2305.61963 1.37944 0.01379 0.03003 0.00030
2306.57983 1.37943 0.01379 0.02941 0.00029
2307.54980 1.37961 0.01380 0.02906 0.00029
2308.50977 1.37983 0.01380 0.02874 0.00029
2309.47974 1.38016 0.01380 0.02851 0.00029
2310.43970 1.38057 0.01381 0.02848 0.00028
2311.40967 1.38083 0.01381 0.02878 0.00029
2312.36963 1.38071 0.01381 0.02918 0.00029
2313.32983 1.38043 0.01380 0.02919 0.00029
2314.29980 1.38020 0.01380 0.02915 0.00029
2315.25977 1.37988 0.01380 0.02910 0.00029
2316.22974 1.37958 0.01380 0.02871 0.00029
2317.18970 1.37954 0.01380 0.02821 0.00028
2318.15967 1.37963 0.01380 0.02793 0.00028
2319.11963 1.37972 0.01380 0.02764 0.00028
2320.07983 1.37987 0.01380 0.02731 0.00027
2321.04980 1.38007 0.01380 0.02716 0.00027
2322.00977 1.38024 0.01380 0.02699 0.00027
2322.97974 1.38043 0.01380 0.02686 0.00027
2323.93970 1.38065 0.01381 0.02676 0.00027
2324.90967 1.38078 0.01381 0.02683 0.00027
2325.86963 1.38073 0.01381 0.02687 0.00027
2326.82983 1.38073 0.01381 0.02658 0.00027
2327.79980 1.38096 0.01381 0.02636 0.00026
2328.75977 1.38122 0.01381 0.02637 0.00026
2329.72974 1.38142 0.01381 0.02644 0.00026
2330.68970 1.38145 0.01381 0.02665 0.00027
2331.65967 1.38136 0.01381 0.02669 0.00027
2332.61963 1.38126 0.01381 0.02664 0.00027
2333.57983 1.38117 0.01381 0.02659 0.00027
2334.54980 1.38115 0.01381 0.02636 0.00026
2335.50977 1.38123 0.01381 0.02629 0.00026
2336.47974 1.38122 0.01381 0.02631 0.00026
2337.43970 1.38111 0.01381 0.02624 0.00026
2338.40967 1.38093 0.01381 0.02610 0.00026
2339.36963 1.38081 0.01381 0.02572 0.00026
2340.32983 1.38101 0.01381 0.02521 0.00025
2341.29980 1.38147 0.01381 0.02502 0.00025
2342.25977 1.38183 0.01382 0.02522 0.00025
2343.22974 1.38182 0.01382 0.02559 0.00026
2344.18970 1.38150 0.01381 0.02571 0.00026
2345.15967 1.38112 0.01381 0.02551 0.00026
2346.11963 1.38085 0.01381 0.02508 0.00025
2347.07983 1.38083 0.01381 0.02443 0.00024
2348.04980 1.38122 0.01381 0.02376 0.00024
2349.00977 1.38184 0.01382 0.02352 0.00024
2349.97974 1.38232 0.01382 0.02364 0.00024
2350.93970 1.38264 0.01383 0.02372 0.00024
2351.90967 1.38292 0.01383 0.02387 0.00024
2352.86963 1.38310 0.01383 0.02415 0.00024
2353.82983 1.38308 0.01383 0.02445 0.00024
2354.79980 1.38289 0.01383 0.02467 0.00025
2355.75977 1.38260 0.01383 0.02469 0.00025
2356.72974 1.38230 0.01382 0.02456 0.00025
2357.68970 1.38208 0.01382 0.02424 0.00024
2358.65967 1.38206 0.01382 0.02378 0.00024
2359.61963 1.38229 0.01382 0.02341 0.00023
2360.57983 1.38261 0.01383 0.02326 0.00023
2361.54980 1.38281 0.01383 0.02336 0.00023
2362.50977 1.38278 0.01383 0.02344 0.00023
2363.47974 1.38269 0.01383 0.02329 0.00023
2364.43970 1.38268 0.01383 0.02309 0.00023
2365.40967 1.38273 0.01383 0.02286 0.00023
2366.36963 1.38289 0.01383 0.02260 0.00023
2367.32983 1.38314 0.01383 0.02247 0.00022
2368.29980 1.38331 0.01383 0.02252 0.00023
2369.25977 1.38332 0.01383 0.02254 0.00023
2370.22974 1.38325 0.01383 0.02246 0.00022
2371.18970 1.38321 0.01383 0.02223 0.00022
2372.15967 1.38332 0.01383 0.02189 0.00022
2373.11963 1.38355 0.01384 0.02170 0.00022
2374.07983 1.38378 0.01384 0.02162 0.00022
2375.04980 1.38396 0.01384 0.02159 0.00022
2376.00977 1.38402 0.01384 0.02162 0.00022
2376.97974 1.38399 0.01384 0.02150 0.00022
2377.93970 1.38407 0.01384 0.02120 0.00021
2378.90967 1.38431 0.01384 0.02099 0.00021
2379.86963 1.38457 0.01385 0.02090 0.00021
2380.82983 1.38485 0.01385 0.02082 0.00021
2381.79980 1.38512 0.01385 0.02089 0.00021
2382.75977 1.38524 0.01385 0.02109 0.00021
2383.72974 1.38518 0.01385 0.02116 0.00021
2384.68970 1.38509 0.01385 0.02111 0.00021
2385.65967 1.38510 0.01385 0.02088 0.00021
2386.61963 1.38524 0.01385 0.02073 0.00021
2387.57983 1.38534 0.01385 0.02073 0.00021
2388.54980 1.38540 0.01385 0.02062 0.00021
2389.50977 1.38540 0.01385 0.02061 0.00021
2390.47974 1.38531 0.01385 0.02047 0.00020
2391.43970 1.38532 0.01385 0.02006 0.00020
2392.40967 1.38551 0.01386 0.01974 0.00020
2393.36963 1.38581 0.01386 0.01943 0.00019
2394.32983 1.38623 0.01386 0.01920 0.00019
2395.29980 1.38667 0.01387 0.01922 0.00019
2396.25977 1.38700 0.01387 0.01934 0.00019
2397.22974 1.38723 0.01387 0.01946 0.00019
2398.18970 1.38737 0.01387 0.01963 0.00020
2399.15967 1.38740 0.01387 0.01973 0.00020
2400.11963 1.38742 0.01387 0.01969 0.00020
2401.07983 1.38756 0.01388 0.01961 0.00020
2402.04980 1.38774 0.01388 0.01965 0.00020
2403.00977 1.38782 0.01388 0.01978 0.00020
2403.97974 1.38786 0.01388 0.01979 0.00020
2404.93970 1.38788 0.01388 0.01985 0.00020
2405.90967 1.38779 0.01388 0.01995 0.00020
2406.86963 1.38760 0.01388 0.01982 0.00020
2407.82983 1.38757 0.01388 0.01947 0.00019
2408.79980 1.38778 0.01388 0.01917 0.00019
2409.75977 1.38801 0.01388 0.01912 0.00019
2410.72974 1.38815 0.01388 0.01908 0.00019
2411.68970 1.38828 0.01388 0.01896 0.00019
2412.65967 1.38842 0.01388 0.01893 0.00019
2413.61963 1.38853 0.01389 0.01885 0.00019
2414.57983 1.38862 0.01389 0.01880 0.00019
2415.54980 1.38871 0.01389 0.01869 0.00019
2416.50977 1.38882 0.01389 0.01851 0.00019
2417.47974 1.38906 0.01389 0.01831 0.00018
2418.43970 1.38942 0.01389 0.01818 0.00018
2419.40967 1.38974 0.01390 0.01834 0.00018
2420.36963 1.38988 0.01390 0.01847 0.00018
2421.32983 1.38998 0.01390 0.01850 0.00018
2422.29980 1.39011 0.01390 0.01857 0.00019
2423.25977 1.39018 0.01390 0.01864 0.00019
2424.22974 1.39020 0.01390 0.01868 0.00019
2425.18970 1.39029 0.01390 0.01860 0.00019
2426.15967 1.39040 0.01390 0.01868 0.00019
2427.11963 1.39034 0.01390 0.01882 0.00019
2428.08984 1.39017 0.01390 0.01872 0.00019
2429.04980 1.39016 0.01390 0.01841 0.00018
2430.00977 1.39040 0.01390 0.01812 0.00018
2430.97974 1.39073 0.01391 0.01809 0.00018
2431.93970 1.39092 0.01391 0.01823 0.00018
2432.90967 1.39101 0.01391 0.01828 0.00018
2433.86963 1.39108 0.01391 0.01834 0.00018
2434.83984 1.39100 0.01391 0.01849 0.00018
2435.79980 1.39080 0.01391 0.01840 0.00018
2436.75977 1.39072 0.01391 0.01805 0.00018
2437.72974 1.39090 0.01391 0.01768 0.00018
2438.68970 1.39124 0.01391 0.01746 0.00017
2439.65967 1.39159 0.01392 0.01748 0.00017
2440.61963 1.39186 0.01392 0.01754 0.00018
2441.58984 1.39204 0.01392 0.01771 0.00018
2442.54980 1.39204 0.01392 0.01794 0.00018
2443.50977 1.39192 0.01392 0.01793 0.00018
2444.47974 1.39184 0.01392 0.01782 0.00018
2445.43970 1.39186 0.01392 0.01762 0.00018
2446.40967 1.39200 0.01392 0.01741 0.00017
2447.36963 1.39222 0.01392 0.01732 0.00017
2448.33984 1.39241 0.01392 0.01734 0.00017
2449.29980 1.39254 0.01393 0.01738 0.00017
2450.25977 1.39262 0.01393 0.01742 0.00017
2451.22974 1.39262 0.01393 0.01750 0.00017
2452.18970 1.39255 0.01393 0.01749 0.00017
2453.15967 1.39247 0.01392 0.01739 0.00017
2454.11963 1.39245 0.01392 0.01721 0.00017
2455.08984 1.39247 0.01392 0.01704 0.00017
2456.04980 1.39247 0.01392 0.01693 0.00017
2457.00977 1.39241 0.01392 0.01672 0.00017
2457.97974 1.39239 0.01392 0.01635 0.00016
2458.93970 1.39257 0.01393 0.01585 0.00016
2459.90967 1.39301 0.01393 0.01543 0.00015
2460.86963 1.39355 0.01394 0.01529 0.00015
2461.83984 1.39404 0.01394 0.01532 0.00015
2462.79980 1.39448 0.01394 0.01545 0.00015
2463.75977 1.39470 0.01395 0.01587 0.00016
2464.72974 1.39455 0.01395 0.01616 0.00016
2465.68970 1.39440 0.01394 0.01596 0.00016
2466.65967 1.39455 0.01395 0.01571 0.00016
2467.61963 1.39476 0.01395 0.01574 0.00016
2468.58984 1.39483 0.01395 0.01580 0.00016
2469.54980 1.39489 0.01395 0.01568 0.00016
2470.50977 1.39500 0.01395 0.01565 0.00016
2471.47974 1.39496 0.01395 0.01571 0.00016
2472.43970 1.39484 0.01395 0.01547 0.00015
2473.40967 1.39498 0.01395 0.01499 0.00015
2474.36963 1.39534 0.01395 0.01475 0.00015
2475.33984 1.39569 0.01396 0.01467 0.00015
2476.29980 1.39603 0.01396 0.01458 0.00015
2477.25977 1.39642 0.01396 0.01458 0.00015
2478.22974 1.39674 0.01397 0.01480 0.00015
2479.18970 1.39688 0.01397 0.01504 0.00015
2480.15967 1.39684 0.01397 0.01524 0.00015
2481.11963 1.39668 0.01397 0.01530 0.00015
2482.08984 1.39652 0.01397 0.01509 0.00015
2483.04980 1.39657 0.01397 0.01471 0.00015
2484.00977 1.39688 0.01397 0.01438 0.00014
2484.97974 1.39731 0.01397 0.01429 0.00014
2485.93970 1.39769 0.01398 0.01437 0.00014
2486.90967 1.39793 0.01398 0.01461 0.00015
2487.86963 1.39793 0.01398 0.01489 0.00015
2488.83984 1.39767 0.01398 0.01500 0.00015
2489.79980 1.39744 0.01397 0.01467 0.00015
2490.75977 1.39759 0.01398 0.01411 0.00014
2491.72974 1.39801 0.01398 0.01389 0.00014
2492.68970 1.39840 0.01398 0.01385 0.00014
2493.65967 1.39878 0.01399 0.01383 0.00014
2494.61963 1.39906 0.01399 0.01408 0.00014
2495.58984 1.39905 0.01399 0.01434 0.00014
2496.54980 1.39888 0.01399 0.01429 0.00014
2497.50977 1.39894 0.01399 0.01394 0.00014
2498.47974 1.39922 0.01399 0.01374 0.00014
2499.43970 1.39944 0.01399 0.01378 0.00014
2500.40967 1.39968 0.01400 0.01357 0.00014
2501.36963 1.40012 0.01400 0.01351 0.00014
2502.33984 1.40039 0.01400 0.01391 0.00014
2503.29980 1.40034 0.01400 0.01408 0.00014
2504.25977 1.40038 0.01400 0.01391 0.00014
2505.22974 1.40055 0.01401 0.01400 0.00014
2506.18970 1.40051 0.01401 0.01416 0.00014
2507.15967 1.40039 0.01400 0.01400 0.00014
2508.11963 1.40045 0.01400 0.01371 0.00014
2509.08984 1.40067 0.01401 0.01354 0.00014
2510.04980 1.40087 0.01401 0.01345 0.00013
2511.00977 1.40109 0.01401 0.01334 0.00013
2511.97974 1.40135 0.01401 0.01328 0.00013
2512.93970 1.40147 0.01401 0.01340 0.00013
2513.90967 1.40154 0.01402 0.01324 0.00013
2514.86963 1.40184 0.01402 0.01297 0.00013
2515.83984 1.40221 0.01402 0.01308 0.00013
2516.79980 1.40242 0.01402 0.01319 0.00013
2517.75977 1.40267 0.01403 0.01317 0.00013
2518.72974 1.40291 0.01403 0.01343 0.00013
2519.68970 1.40282 0.01403 0.01381 0.00014
2520.65967 1.40254 0.01403 0.01373 0.00014
2521.61963 1.40253 0.01403 0.01336 0.00013
2522.58984 1.40271 0.01403 0.01321 0.00013
2523.54980 1.40284 0.01403 0.01314 0.00013
2524.50977 1.40305 0.01403 0.01286 0.00013
2525.47974 1.40346 0.01403 0.01276 0.00013
2526.43970 1.40373 0.01404 0.01304 0.00013
2527.40967 1.40371 0.01404 0.01320 0.00013
2528.36963 1.40367 0.01404 0.01310 0.00013
2529.33984 1.40371 0.01404 0.01299 0.00013
2530.29980 1.40375 0.01404 0.01286 0.00013
2531.25977 1.40390 0.01404 0.01253 0.00013
2532.22974 1.40433 0.01404 0.01225 0.00012
2533.18970 1.40481 0.01405 0.01238 0.00012
2534.15967 1.40504 0.01405 0.01267 0.00013
2535.11963 1.40510 0.01405 0.01283 0.00013
2536.08984 1.40510 0.01405 0.01293 0.00013
2537.04980 1.40502 0.01405 0.01298 0.00013
2538.00977 1.40491 0.01405 0.01287 0.00013
2538.97974 1.40487 0.01405 0.01259 0.00013
2539.93970 1.40504 0.01405 0.01225 0.00012
2540.90967 1.40541 0.01405 0.01201 0.00012
2541.86963 1.40569 0.01406 0.01208 0.00012
2542.83984 1.40583 0.01406 0.01203 0.00012
2543.79980 1.40610 0.01406 0.01176 0.00012
2544.75977 1.40652 0.01407 0.01178 0.00012
2545.72974 1.40686 0.01407 0.01196 0.00012
2546.68970 1.40711 0.01407 0.01211 0.00012
2547.65967 1.40722 0.01407 0.01248 0.00012
2548.61963 1.40705 0.01407 0.01278 0.00013
2549.58984 1.40667 0.01407 0.01278 0.00013
2550.54980 1.40640 0.01406 0.01239 0.00012
2551.50977 1.40646 0.01406 0.01180 0.00012
2552.47974 1.40682 0.01407 0.01139 0.00011
2553.43970 1.40737 0.01407 0.01108 0.00011
2554.40967 1.40804 0.01408 0.01112 0.00011
2555.36963 1.40837 0.01408 0.01166 0.00012
2556.33984 1.40832 0.01408 0.01194 0.00012
2557.29980 1.40818 0.01408 0.01196 0.00012
2558.25977 1.40810 0.01408 0.01191 0.00012
2559.22974 1.40808 0.01408 0.01169 0.00012
2560.18970 1.40808 0.01408 0.01154 0.00012
2561.15967 1.40820 0.01408 0.01116 0.00011
2562.11963 1.40852 0.01409 0.01087 0.00011
2563.08984 1.40888 0.01409 0.01083 0.00011
2564.04980 1.40913 0.01409 0.01077 0.00011
2565.00977 1.40936 0.01409 0.01074 0.00011
2565.97974 1.40964 0.01410 0.01064 0.00011
2566.93970 1.40995 0.01410 0.01067 0.00011
2567.90967 1.41013 0.01410 0.01084 0.00011
2568.86963 1.41026 0.01410 0.01082 0.00011
2569.83984 1.41042 0.01410 0.01088 0.00011
2570.79980 1.41044 0.01410 0.01105 0.00011
2571.75977 1.41033 0.01410 0.01096 0.00011
2572.72974 1.41033 0.01410 0.01072 0.00011
2573.68970 1.41041 0.01410 0.01050 0.00010
2574.65967 1.41052 0.01411 0.01025 0.00010
2575.61963 1.41079 0.01411 0.00985 0.00010
2576.58984 1.41127 0.01411 0.00962 0.00010
2577.54980 1.41172 0.01412 0.00969 0.00010
2578.50977 1.41194 0.01412 0.00984 0.00010
2579.47974 1.41208 0.01412 0.00977 0.00010
2580.43970 1.41231 0.01412 0.00966 0.00010
2581.40967 1.41257 0.01413 0.00967 0.00010
2582.36963 1.41275 0.01413 0.00965 0.00010
2583.33984 1.41299 0.01413 0.00956 0.00010
2584.29980 1.41327 0.01413 0.00954 0.00010
2585.25977 1.41353 0.01414 0.00963 0.00010
2586.22974 1.41362 0.01414 0.00977 0.00010
2587.18970 1.41357 0.01414 0.00974 0.00010
2588.15967 1.41365 0.01414 0.00939 0.00009
2589.11963 1.41402 0.01414 0.00911 0.00009
2590.08984 1.41442 0.01414 0.00913 0.00009
2591.04980 1.41470 0.01415 0.00916 0.00009
2592.00977 1.41498 0.01415 0.00911 0.00009
2592.97974 1.41526 0.01415 0.00922 0.00009
2593.93970 1.41546 0.01415 0.00928 0.00009
2594.90967 1.41558 0.01416 0.00938 0.00009
2595.86963 1.41568 0.01416 0.00931 0.00009
2596.83984 1.41585 0.01416 0.00919 0.00009
2597.79980 1.41608 0.01416 0.00914 0.00009
2598.75977 1.41636 0.01416 0.00904 0.00009
2599.72974 1.41670 0.01417 0.00905 0.00009
2600.68970 1.41695 0.01417 0.00920 0.00009
2601.65967 1.41719 0.01417 0.00923 0.00009
2602.61963 1.41740 0.01417 0.00943 0.00009
2603.58984 1.41742 0.01417 0.00969 0.00010
2604.54980 1.41729 0.01417 0.00972 0.00010
2605.50977 1.41725 0.01417 0.00954 0.00010
2606.47974 1.41738 0.01417 0.00936 0.00009
2607.43970 1.41747 0.01417 0.00937 0.00009
2608.40967 1.41746 0.01417 0.00924 0.00009
2609.36963 1.41752 0.01418 0.00893 0.00009
2610.33984 1.41767 0.01418 0.00868 0.00009
2611.29980 1.41787 0.01418 0.00836 0.00008
2612.25977 1.41828 0.01418 0.00792 0.00008
2613.22974 1.41890 0.01419 0.00776 0.00008
2614.18970 1.41943 0.01419 0.00788 0.00008
2615.15967 1.41982 0.01420 0.00802 0.00008
2616.11963 1.42021 0.01420 0.00814 0.00008
2617.08984 1.42045 0.01420 0.00853 0.00009
2618.04980 1.42034 0.01420 0.00883 0.00009
2619.00977 1.42021 0.01420 0.00865 0.00009
2619.97974 1.42037 0.01420 0.00837 0.00008
2620.93970 1.42062 0.01421 0.00836 0.00008
2621.90967 1.42078 0.01421 0.00831 0.00008
2622.86963 1.42102 0.01421 0.00815 0.00008
2623.83984 1.42135 0.01421 0.00817 0.00008
2624.79980 1.42146 0.01421 0.00839 0.00008
2625.75977 1.42142 0.01421 0.00832 0.00008
2626.72974 1.42154 0.01422 0.00801 0.00008
2627.68970 1.42181 0.01422 0.00791 0.00008
2628.65967 1.42203 0.01422 0.00787 0.00008
2629.61963 1.42224 0.01422 0.00773 0.00008
2630.58984 1.42248 0.01422 0.00768 0.00008
2631.54980 1.42264 0.01423 0.00768 0.00008
2632.50977 1.42277 0.01423 0.00752 0.00008
2633.47974 1.42304 0.01423 0.00730 0.00007
2634.43970 1.42331 0.01423 0.00730 0.00007
2635.40967 1.42347 0.01423 0.00724 0.00007
2636.36963 1.42362 0.01424 0.00706 0.00007
2637.33984 1.42387 0.01424 0.00680 0.00007
2638.29980 1.42420 0.01424 0.00660 0.00007
2639.25977 1.42461 0.01425 0.00640 0.00006
2640.22974 1.42516 0.01425 0.00627 0.00006
2641.18970 1.42559 0.01426 0.00652 0.00007
2642.15967 1.42574 0.01426 0.00667 0.00007
2643.11963 1.42591 0.01426 0.00648 0.00006
2644.08984 1.42623 0.01426 0.00639 0.00006
2645.04980 1.42660 0.01427 0.00633 0.00006
2646.00977 1.42697 0.01427 0.00634 0.00006
2646.97974 1.42740 0.01427 0.00633 0.00006
2647.93970 1.42781 0.01428 0.00652 0.00007
2648.90967 1.42794 0.01428 0.00693 0.00007
2649.86963 1.42788 0.01428 0.00693 0.00007
2650.83984 1.42798 0.01428 0.00672 0.00007
2651.79980 1.42823 0.01428 0.00663 0.00007
2652.75977 1.42852 0.01429 0.00656 0.00007
2653.72974 1.42878 0.01429 0.00659 0.00007
2654.68970 1.42892 0.01429 0.00666 0.00007
2655.65967 1.42902 0.01429 0.00649 0.00006
2656.61963 1.42926 0.01429 0.00627 0.00006
2657.58984 1.42966 0.01430 0.00607 0.00006
2658.54980 1.43008 0.01430 0.00607 0.00006
2659.50977 1.43046 0.01430 0.00609 0.00006
2660.47974 1.43091 0.01431 0.00609 0.00006
2661.43970 1.43122 0.01431 0.00646 0.00006
2662.40967 1.43116 0.01431 0.00678 0.00007
2663.36963 1.43102 0.01431 0.00657 0.00007
2664.33984 1.43116 0.01431 0.00625 0.00006
2665.29980 1.43147 0.01431 0.00601 0.00006
2666.25977 1.43178 0.01432 0.00587 0.00006
2667.22974 1.43222 0.01432 0.00562 0.00006
2668.18970 1.43279 0.01433 0.00557 0.00006
2669.15967 1.43318 0.01433 0.00590 0.00006
2670.11963 1.43329 0.01433 0.00602 0.00006
2671.08984 1.43344 0.01433 0.00588 0.00006
2672.04980 1.43371 0.01434 0.00581 0.00006
2673.01953 1.43400 0.01434 0.00570 0.00006
2673.97974 1.43439 0.01434 0.00555 0.00006
2674.93970 1.43486 0.01435 0.00556 0.00006
2675.90967 1.43536 0.01435 0.00562 0.00006
2676.86963 1.43575 0.01436 0.00594 0.00006
2677.83984 1.43593 0.01436 0.00627 0.00006
2678.79980 1.43595 0.01436 0.00644 0.00006
2679.76953 1.43587 0.01436 0.00654 0.00007
2680.72974 1.43583 0.01436 0.00632 0.00006
2681.68970 1.43598 0.01436 0.00606 0.00006
2682.65967 1.43618 0.01436 0.00588 0.00006
2683.61963 1.43648 0.01436 0.00555 0.00006
2684.58984 1.43701 0.01437 0.00529 0.00005
2685.54980 1.43752 0.01438 0.00539 0.00005
2686.51953 1.43785 0.01438 0.00550 0.00005
2687.47974 1.43815 0.01438 0.00545 0.00005
2688.43970 1.43849 0.01438 0.00551 0.00006
2689.40967 1.43884 0.01439 0.00555 0.00006
2690.36963 1.43913 0.01439 0.00568 0.00006
2691.33984 1.43923 0.01439 0.00592 0.00006
2692.29980 1.43929 0.01439 0.00573 0.00006
2693.26953 1.43951 0.01440 0.00561 0.00006
2694.22974 1.43975 0.01440 0.00553 0.00006
2695.18970 1.44003 0.01440 0.00534 0.00005
2696.15967 1.44032 0.01440 0.00531 0.00005
2697.11963 1.44064 0.01441 0.00513 0.00005
2698.08984 1.44104 0.01441 0.00502 0.00005
2699.04980 1.44134 0.01441 0.00509 0.00005
2700.01953 1.44167 0.01442 0.00483 0.00005
2700.97974 1.44222 0.01442 0.00469 0.00005
2701.93970 1.44274 0.01443 0.00487 0.00005
2702.90967 1.44308 0.01443 0.00503 0.00005
2703.86963 1.44338 0.01443 0.00509 0.00005
2704.83984 1.44370 0.01444 0.00519 0.00005
2705.79980 1.44391 0.01444 0.00536 0.00005
2706.76953 1.44404 0.01444 0.00534 0.00005
2707.72974 1.44425 0.01444 0.00521 0.00005
2708.68970 1.44461 0.01445 0.00508 0.00005
2709.65967 1.44501 0.01445 0.00508 0.00005
2710.61963 1.44532 0.01445 0.00517 0.00005
2711.58984 1.44557 0.01446 0.00513 0.00005
2712.54980 1.44592 0.01446 0.00504 0.00005
2713.51953 1.44632 0.01446 0.00507 0.00005
2714.47974 1.44664 0.01447 0.00521 0.00005
2715.43970 1.44686 0.01447 0.00526 0.00005
2716.40967 1.44713 0.01447 0.00520 0.00005
2717.36963 1.44741 0.01447 0.00525 0.00005
2718.33984 1.44761 0.01448 0.00530 0.00005
2719.29980 1.44777 0.01448 0.00518 0.00005
2720.26953 1.44809 0.01448 0.00495 0.00005
2721.22974 1.44859 0.01449 0.00480 0.00005
2722.18970 1.44900 0.01449 0.00500 0.00005
2723.15967 1.44921 0.01449 0.00506 0.00005
2724.11963 1.44940 0.01449 0.00495 0.00005
2725.08984 1.44966 0.01450 0.00478 0.00005
2726.04980 1.45007 0.01450 0.00450 0.00004
2727.01953 1.45072 0.01451 0.00428 0.00004
2727.97974 1.45141 0.01451 0.00441 0.00004
2728.93970 1.45197 0.01452 0.00466 0.00005
2729.90967 1.45238 0.01452 0.00497 0.00005
2730.86963 1.45264 0.01453 0.00533 0.00005
2731.83984 1.45274 0.01453 0.00557 0.00006
2732.79980 1.45268 0.01453 0.00573 0.00006
2733.76953 1.45264 0.01453 0.00555 0.00006
2734.72974 1.45286 0.01453 0.00518 0.00005
2735.68970 1.45320 0.01453 0.00505 0.00005
2736.65967 1.45360 0.01454 0.00478 0.00005
2737.61963 1.45416 0.01454 0.00458 0.00005
2738.58984 1.45479 0.01455 0.00468 0.00005
2739.54980 1.45530 0.01455 0.00483 0.00005
2740.51953 1.45559 0.01456 0.00520 0.00005
2741.47974 1.45572 0.01456 0.00528 0.00005
2742.43970 1.45590 0.01456 0.00521 0.00005
2743.40967 1.45611 0.01456 0.00525 0.00005
2744.36963 1.45628 0.01456 0.00508 0.00005
2745.33984 1.45654 0.01457 0.00487 0.00005
2746.29980 1.45698 0.01457 0.00455 0.00005
2747.26953 1.45761 0.01458 0.00437 0.00004
2748.22974 1.45822 0.01458 0.00446 0.00004
2749.18970 1.45877 0.01459 0.00454 0.00005
2750.15967 1.45922 0.01459 0.00482 0.00005
2751.11963 1.45950 0.01459 0.00505 0.00005
2752.08984 1.45965 0.01460 0.00517 0.00005
2753.04980 1.45979 0.01460 0.00515 0.00005
2754.01953 1.46003 0.01460 0.00494 0.00005
2754.97974 1.46040 0.01460 0.00479 0.00005
2755.93970 1.46083 0.01461 0.00466 0.00005
2756.90967 1.46129 0.01461 0.00458 0.00005
2757.86963 1.46176 0.01462 0.00454 0.00005
2758.83984 1.46230 0.01462 0.00446 0.00004
2759.79980 1.46285 0.01463 0.00457 0.00005
2760.76953 1.46328 0.01463 0.00478 0.00005
2761.72974 1.46361 0.01464 0.00486 0.00005
2762.68970 1.46399 0.01464 0.00488 0.00005
2763.65967 1.46433 0.01464 0.00502 0.00005
2764.61963 1.46457 0.01465 0.00505 0.00005
2765.58984 1.46492 0.01465 0.00488 0.00005
2766.54980 1.46545 0.01465 0.00484 0.00005
2767.51953 1.46590 0.01466 0.00502 0.00005
2768.47974 1.46617 0.01466 0.00513 0.00005
2769.43970 1.46648 0.01466 0.00501 0.00005
2770.40967 1.46691 0.01467 0.00498 0.00005
2771.36963 1.46730 0.01467 0.00502 0.00005
2772.33984 1.46768 0.01468 0.00495 0.00005
2773.29980 1.46817 0.01468 0.00485 0.00005
2774.26953 1.46871 0.01469 0.00491 0.00005
2775.22974 1.46912 0.01469 0.00505 0.00005
2776.18970 1.46955 0.01470 0.00499 0.00005
2777.15967 1.47013 0.01470 0.00503 0.00005
2778.11963 1.47059 0.01471 0.00536 0.00005
2779.08984 1.47079 0.01471 0.00557 0.00006
2780.04980 1.47099 0.01471 0.00551 0.00006
2781.01953 1.47131 0.01471 0.00540 0.00005
2781.97974 1.47166 0.01472 0.00533 0.00005
2782.93970 1.47212 0.01472 0.00509 0.00005
2783.90967 1.47279 0.01473 0.00494 0.00005
2784.86963 1.47356 0.01474 0.00502 0.00005
2785.83984 1.47423 0.01474 0.00536 0.00005
2786.79980 1.47459 0.01475 0.00584 0.00006
2787.76953 1.47471 0.01475 0.00610 0.00006
2788.72974 1.47479 0.01475 0.00607 0.00006
2789.68970 1.47511 0.01475 0.00582 0.00006
2790.65967 1.47562 0.01476 0.00572 0.00006
2791.61963 1.47613 0.01476 0.00576 0.00006
2792.58984 1.47671 0.01477 0.00569 0.00006
2793.54980 1.47740 0.01477 0.00590 0.00006
2794.51953 1.47770 0.01478 0.00652 0.00007
2795.47974 1.47766 0.01478 0.00667 0.00007
2796.43970 1.47772 0.01478 0.00641 0.00006
2797.40967 1.47821 0.01478 0.00614 0.00006
2798.36963 1.47856 0.01479 0.00627 0.00006
2799.33984 1.47843 0.01478 0.00639 0.00006
2800.15967 1.47873 0.01479 0.00522 0.00005
2801.11963 1.47989 0.01480 0.00489 0.00005
2802.08984 1.48095 0.01481 0.00506 0.00005
2803.04980 1.48162 0.01482 0.00532 0.00005
2804.01953 1.48231 0.01482 0.00538 0.00005
2804.97974 1.48306 0.01483 0.00559 0.00006
2805.93970 1.48367 0.01484 0.00606 0.00006
2806.90967 1.48405 0.01484 0.00638 0.00006
2807.86963 1.48450 0.01485 0.00650 0.00007
2808.83984 1.48501 0.01485 0.00681 0.00007
2809.79980 1.48537 0.01485 0.00723 0.00007
2810.76953 1.48553 0.01486 0.00751 0.00008
2811.72974 1.48568 0.01486 0.00763 0.00008
2812.68970 1.48579 0.01486 0.00770 0.00008
2813.65967 1.48590 0.01486 0.00758 0.00008
2814.61963 1.48617 0.01486 0.00722 0.00007
2815.58984 1.48671 0.01487 0.00689 0.00007
2816.54980 1.48738 0.01487 0.00671 0.00007
2817.51953 1.48816 0.01488 0.00660 0.00007
2818.47974 1.48906 0.01489 0.00666 0.00007
2819.43970 1.48986 0.01490 0.00714 0.00007
2820.40967 1.49023 0.01490 0.00782 0.00008
2821.36963 1.49025 0.01490 0.00816 0.00008
2822.33984 1.49021 0.01490 0.00818 0.00008
2823.29980 1.49029 0.01490 0.00793 0.00008
2824.26953 1.49062 0.01491 0.00746 0.00007
2825.22974 1.49128 0.01491 0.00705 0.00007
2826.18970 1.49211 0.01492 0.00685 0.00007
2827.15967 1.49303 0.01493 0.00687 0.00007
2828.11963 1.49382 0.01494 0.00717 0.00007
2829.08984 1.49436 0.01494 0.00756 0.00008
2830.04980 1.49470 0.01495 0.00779 0.00008
2831.01953 1.49504 0.01495 0.00782 0.00008
2831.97974 1.49546 0.01495 0.00779 0.00008
2832.93970 1.49595 0.01496 0.00775 0.00008
2833.90967 1.49648 0.01496 0.00770 0.00008
2834.86963 1.49712 0.01497 0.00762 0.00008
2835.83984 1.49784 0.01498 0.00767 0.00008
2836.79980 1.49843 0.01498 0.00795 0.00008
2837.76953 1.49891 0.01499 0.00800 0.00008
2838.72974 1.49945 0.01499 0.00801 0.00008
2839.68970 1.50004 0.01500 0.00807 0.00008
2840.65967 1.50077 0.01501 0.00802 0.00008
2841.61963 1.50158 0.01502 0.00827 0.00008
2842.58984 1.50218 0.01502 0.00880 0.00009
2843.54980 1.50253 0.01503 0.00915 0.00009
2844.51953 1.50272 0.01503 0.00946 0.00009
2845.47974 1.50280 0.01503 0.00950 0.00009
2846.43970 1.50304 0.01503 0.00920 0.00009
2847.40967 1.50358 0.01504 0.00888 0.00009
2848.36963 1.50419 0.01504 0.00882 0.00009
2849.33984 1.50473 0.01505 0.00867 0.00009
2850.29980 1.50538 0.01505 0.00837 0.00008
2851.26953 1.50624 0.01506 0.00814 0.00008
2852.22974 1.50726 0.01507 0.00802 0.00008
2853.18970 1.50838 0.01508 0.00818 0.00008
2854.15967 1.50937 0.01509 0.00868 0.00009
2855.11963 1.50993 0.01510 0.00934 0.00009
2856.08984 1.51019 0.01510 0.00962 0.00010
2857.04980 1.51068 0.01511 0.00938 0.00009
2858.01953 1.51152 0.01512 0.00936 0.00009
2858.97974 1.51240 0.01512 0.00957 0.00010
2859.93970 1.51342 0.01513 0.00971 0.00010
2860.90967 1.51441 0.01514 0.01049 0.00010
2861.86963 1.51475 0.01515 0.01160 0.00012
2862.83984 1.51449 0.01514 0.01210 0.00012
2863.79980 1.51445 0.01514 0.01181 0.00012
2864.76953 1.51494 0.01515 0.01147 0.00011
2865.72974 1.51557 0.01516 0.01151 0.00012
2866.68970 1.51617 0.01516 0.01148 0.00011
2867.65967 1.51688 0.01517 0.01144 0.00011
2868.61963 1.51751 0.01518 0.01172 0.00012
2869.58984 1.51799 0.01518 0.01180 0.00012
2870.54980 1.51862 0.01519 0.01167 0.00012
2871.51953 1.51944 0.01519 0.01176 0.00012
2872.47974 1.52015 0.01520 0.01205 0.00012
2873.43970 1.52065 0.01521 0.01234 0.00012
2874.40967 1.52105 0.01521 0.01240 0.00012
2875.36963 1.52155 0.01522 0.01227 0.00012
2876.33984 1.52228 0.01522 0.01205 0.00012
2877.29980 1.52329 0.01523 0.01190 0.00012
2878.26953 1.52439 0.01524 0.01219 0.00012
2879.22974 1.52529 0.01525 0.01266 0.00013
2880.18970 1.52593 0.01526 0.01320 0.00013
2881.15967 1.52631 0.01526 0.01368 0.00014
2882.11963 1.52660 0.01527 0.01377 0.00014
2883.08984 1.52704 0.01527 0.01366 0.00014
2884.04980 1.52778 0.01528 0.01341 0.00013
2885.01953 1.52877 0.01529 0.01336 0.00013
2885.97974 1.52982 0.01530 0.01357 0.00014
2886.93970 1.53090 0.01531 0.01391 0.00014
2887.90967 1.53176 0.01532 0.01474 0.00015
2888.86963 1.53209 0.01532 0.01556 0.00016
2889.83984 1.53216 0.01532 0.01583 0.00016
2890.79980 1.53223 0.01532 0.01592 0.00016
2891.76953 1.53247 0.01532 0.01550 0.00015
2892.72974 1.53330 0.01533 0.01479 0.00015
2893.68970 1.53471 0.01535 0.01455 0.00015
2894.65967 1.53615 0.01536 0.01500 0.00015
2895.61963 1.53716 0.01537 0.01584 0.00016
2896.58984 1.53774 0.01538 0.01664 0.00017
2897.54980 1.53794 0.01538 0.01730 0.00017
2898.51953 1.53790 0.01538 0.01753 0.00018
2899.47974 1.53802 0.01538 0.01717 0.00017
2900.43970 1.53875 0.01539 0.01650 0.00016
2901.40967 1.53998 0.01540 0.01627 0.00016
2902.36963 1.54107 0.01541 0.01664 0.00017
2903.33984 1.54197 0.01542 0.01679 0.00017
2904.29980 1.54297 0.01543 0.01696 0.00017
2905.26953 1.54396 0.01544 0.01744 0.00017
2906.22974 1.54476 0.01545 0.01790 0.00018
2907.19971 1.54537 0.01545 0.01842 0.00018
2908.15967 1.54596 0.01546 0.01869 0.00019
2909.11963 1.54655 0.01547 0.01902 0.00019
2910.08984 1.54680 0.01547 0.01953 0.00020
2911.04980 1.54695 0.01547 0.01917 0.00019
2912.01953 1.54766 0.01548 0.01844 0.00018
2912.97974 1.54898 0.01549 0.01794 0.00018
2913.94971 1.55060 0.01551 0.01783 0.00018
2914.90967 1.55227 0.01552 0.01819 0.00018
2915.86963 1.55392 0.01554 0.01881 0.00019
2916.83984 1.55538 0.01555 0.02000 0.00020
2917.79980 1.55619 0.01556 0.02156 0.00022
2918.76953 1.55641 0.01556 0.02280 0.00023
2919.72974 1.55635 0.01556 0.02365 0.00024
2920.69971 1.55607 0.01556 0.02428 0.00024
2921.65967 1.55571 0.01556 0.02426 0.00024
2922.61963 1.55562 0.01556 0.02375 0.00024
2923.58984 1.55603 0.01556 0.02293 0.00023
2924.54980 1.55705 0.01557 0.02209 0.00022
2925.51953 1.55847 0.01558 0.02176 0.00022
2926.47974 1.55986 0.01560 0.02180 0.00022
2927.44971 1.56126 0.01561 0.02188 0.00022
2928.40967 1.56264 0.01563 0.02233 0.00022
2929.36963 1.56384 0.01564 0.02295 0.00023
2930.33984 1.56480 0.01565 0.02362 0.00024
2931.29980 1.56564 0.01566 0.02419 0.00024
2932.26953 1.56643 0.01566 0.02479 0.00025
2933.22974 1.56690 0.01567 0.02552 0.00026
2934.19971 1.56706 0.01567 0.02578 0.00026
2935.15967 1.56748 0.01567 0.02536 0.00025
2936.11963 1.56858 0.01569 0.02482 0.00025
2937.08984 1.57011 0.01570 0.02483 0.00025
2938.04980 1.57159 0.01572 0.02525 0.00025
2939.01953 1.57286 0.01573 0.02596 0.00026
2939.97974 1.57377 0.01574 0.02682 0.00027
2940.94971 1.57441 0.01574 0.02745 0.00027
2941.90967 1.57489 0.01575 0.02790 0.00028
2942.86963 1.57539 0.01575 0.02799 0.00028
2943.83984 1.57630 0.01576 0.02768 0.00028
2944.79980 1.57756 0.01578 0.02781 0.00028
2945.76953 1.57878 0.01579 0.02820 0.00028
2946.72974 1.57990 0.01580 0.02856 0.00029
2947.69971 1.58100 0.01581 0.02907 0.00029
2948.65967 1.58201 0.01582 0.02954 0.00030
2949.61963 1.58302 0.01583 0.02999 0.00030
2950.58984 1.58407 0.01584 0.03051 0.00031
2951.54980 1.58502 0.01585 0.03114 0.00031
2952.51953 1.58574 0.01586 0.03182 0.00032
2953.47974 1.58628 0.01586 0.03219 0.00032
2954.44971 1.58705 0.01587 0.03213 0.00032
2955.40967 1.58816 0.01588 0.03216 0.00032
2956.36963 1.58949 0.01589 0.03235 0.00032
2957.33984 1.59104 0.01591 0.03272 0.00033
2958.29980 1.59262 0.01593 0.03365 0.00034
2959.26953 1.59367 0.01594 0.03517 0.00035
2960.22974 1.59394 0.01594 0.03649 0.00036
2961.19971 1.59376 0.01594 0.03722 0.00037
2962.15967 1.59361 0.01594 0.03725 0.00037
2963.11963 1.59388 0.01594 0.03669 0.00037
2964.08984 1.59478 0.01595 0.03606 0.00036
2965.04980 1.59608 0.01596 0.03571 0.00036
2966.01953 1.59756 0.01598 0.03560 0.00036
2966.97974 1.59908 0.01599 0.03575 0.00036
2967.94971 1.60058 0.01601 0.03611 0.00036
2968.90967 1.60196 0.01602 0.03658 0.00037
2969.86963 1.60318 0.01603 0.03713 0.00037
2970.83984 1.60448 0.01604 0.03742 0.00037
2971.79980 1.60610 0.01606 0.03787 0.00038
2972.76953 1.60742 0.01607 0.03921 0.00039
2973.72974 1.60791 0.01608 0.04036 0.00040
2974.69971 1.60822 0.01608 0.04055 0.00041
2975.65967 1.60888 0.01609 0.04056 0.00041
2976.61963 1.60968 0.01610 0.04051 0.00041
2977.58984 1.61073 0.01611 0.04010 0.00040
2978.54980 1.61238 0.01612 0.03956 0.00040
2979.51953 1.61457 0.01615 0.03961 0.00040
2980.47974 1.61660 0.01617 0.04043 0.00040
2981.44971 1.61822 0.01618 0.04138 0.00041
2982.40967 1.61965 0.01620 0.04220 0.00042
2983.36963 1.62082 0.01621 0.04328 0.00043
2984.33984 1.62165 0.01622 0.04403 0.00044
2985.29980 1.62261 0.01623 0.04418 0.00044
2986.26953 1.62402 0.01624 0.04432 0.00044
2987.22974 1.62577 0.01626 0.04467 0.00045
2988.19971 1.62763 0.01628 0.04545 0.00045
2989.15967 1.62910 0.01629 0.04677 0.00047
2990.11963 1.63004 0.01630 0.04790 0.00048
2991.08984 1.63082 0.01631 0.04855 0.00049
2992.04980 1.63175 0.01632 0.04895 0.00049
2993.01953 1.63297 0.01633 0.04917 0.00049
2993.97974 1.63449 0.01634 0.04955 0.00050
2994.94971 1.63611 0.01636 0.05025 0.00050
2995.90967 1.63742 0.01637 0.05134 0.00051
2996.86963 1.63828 0.01638 0.05224 0.00052
2997.83984 1.63904 0.01639 0.05261 0.00053
2998.79980 1.64006 0.01640 0.05270 0.00053
2999.76953 1.64145 0.01641 0.05266 0.00053
3000.72974 1.64317 0.01643 0.05278 0.00053
3001.69971 1.64504 0.01645 0.05320 0.00053
3002.65967 1.64691 0.01647 0.05378 0.00054
3003.61963 1.64865 0.01649 0.05466 0.00055
3004.58984 1.65019 0.01650 0.05552 0.00056
3005.54980 1.65166 0.01652 0.05620 0.00056
3006.51953 1.65322 0.01653 0.05688 0.00057
3007.47974 1.65483 0.01655 0.05756 0.00058
3008.44971 1.65647 0.01656 0.05835 0.00058
3009.40967 1.65803 0.01658 0.05920 0.00059
3010.36963 1.65953 0.01660 0.06001 0.00060
3011.33984 1.66093 0.01661 0.06086 0.00061
3012.29980 1.66218 0.01662 0.06153 0.00062
3013.26953 1.66367 0.01664 0.06173 0.00062
3014.22974 1.66552 0.01666 0.06209 0.00062
3015.19971 1.66750 0.01667 0.06270 0.00063
3016.15967 1.66954 0.01670 0.06328 0.00063
3017.11963 1.67165 0.01672 0.06414 0.00064
3018.08984 1.67367 0.01674 0.06519 0.00065
3019.04980 1.67567 0.01676 0.06610 0.00066
3020.01953 1.67775 0.01678 0.06726 0.00067
3020.97974 1.67957 0.01680 0.06872 0.00069
3021.94971 1.68103 0.01681 0.06998 0.00070
3022.90967 1.68246 0.01682 0.07078 0.00071
3023.86963 1.68428 0.01684 0.07131 0.00071
3024.83984 1.68648 0.01686 0.07213 0.00072
3025.79980 1.68872 0.01689 0.07329 0.00073
3026.76953 1.69101 0.01691 0.07457 0.00075
3027.72974 1.69298 0.01693 0.07643 0.00076
3028.69971 1.69426 0.01694 0.07826 0.00078
3029.65967 1.69535 0.01695 0.07913 0.00079
3030.61963 1.69683 0.01697 0.07974 0.00080
3031.58984 1.69878 0.01699 0.08023 0.00080
3032.54980 1.70119 0.01701 0.08082 0.00081
3033.51953 1.70392 0.01704 0.08205 0.00082
3034.47974 1.70639 0.01706 0.08383 0.00084
3035.44971 1.70821 0.01708 0.08595 0.00086
3036.40967 1.70951 0.01710 0.08746 0.00087
3037.36963 1.71098 0.01711 0.08829 0.00088
3038.33984 1.71294 0.01713 0.08908 0.00089
3039.29980 1.71526 0.01715 0.08993 0.00090
3040.26953 1.71786 0.01718 0.09111 0.00091
3041.22974 1.72041 0.01720 0.09276 0.00093
3042.19971 1.72268 0.01723 0.09467 0.00095
3043.15967 1.72453 0.01725 0.09657 0.00097
3044.11963 1.72615 0.01726 0.09810 0.00098
3045.08984 1.72792 0.01728 0.09922 0.00099
3046.04980 1.73005 0.01730 0.10021 0.00100
3047.01953 1.73249 0.01732 0.10142 0.00101
3047.97974 1.73492 0.01735 0.10287 0.00103
3048.94971 1.73726 0.01737 0.10435 0.00104
3049.90967 1.73969 0.01740 0.10559 0.00106
3050.86963 1.74249 0.01742 0.10685 0.00107
3051.83984 1.74553 0.01746 0.10856 0.00109
3052.79980 1.74852 0.01749 0.11055 0.00111
3053.76953 1.75142 0.01751 0.11285 0.00113
3054.72974 1.75400 0.01754 0.11542 0.00115
3055.69971 1.75629 0.01756 0.11787 0.00118
3056.65967 1.75834 0.01758 0.12023 0.00120
3057.61963 1.76034 0.01760 0.12225 0.00122
3058.58984 1.76264 0.01763 0.12398 0.00124
3059.54980 1.76516 0.01765 0.12598 0.00126
3060.51953 1.76770 0.01768 0.12807 0.00128
3061.47974 1.77029 0.01770 0.13011 0.00130
3062.44971 1.77296 0.01773 0.13240 0.00132
3063.40967 1.77550 0.01775 0.13471 0.00135
3064.36963 1.77803 0.01778 0.13694 0.00137
3065.33984 1.78064 0.01781 0.13916 0.00139
3066.29980 1.78338 0.01783 0.14130 0.00141
3067.26953 1.78639 0.01786 0.14349 0.00143
3068.22974 1.78958 0.01790 0.14594 0.00146
3069.19971 1.79289 0.01793 0.14866 0.00149
3070.15967 1.79609 0.01796 0.15176 0.00152
3071.11963 1.79904 0.01799 0.15505 0.00155
3072.08984 1.80183 0.01802 0.15833 0.00158
3073.04980 1.80444 0.01804 0.16160 0.00162
3074.01953 1.80690 0.01807 0.16479 0.00165
3074.97974 1.80948 0.01809 0.16751 0.00168
3075.94971 1.81257 0.01813 0.17019 0.00170
3076.90967 1.81597 0.01816 0.17331 0.00173
3077.86963 1.81940 0.01819 0.17679 0.00177
3078.83984 1.82273 0.01823 0.18063 0.00181
3079.79980 1.82588 0.01826 0.18454 0.00185
3080.76953 1.82908 0.01829 0.18848 0.00188
3081.72974 1.83222 0.01832 0.19272 0.00193
3082.69971 1.83523 0.01835 0.19709 0.00197
3083.65967 1.83820 0.01838 0.20133 0.00201
3084.61963 1.84144 0.01841 0.20569 0.00206
3085.58984 1.84469 0.01845 0.21075 0.00211
3086.54980 1.84736 0.01847 0.21620 0.00216
3087.51953 1.84973 0.01850 0.22123 0.00221
3088.47974 1.85215 0.01852 0.22622 0.00226
3089.44971 1.85452 0.01855 0.23150 0.00231
3090.40967 1.85664 0.01857 0.23664 0.00237
3091.36963 1.85883 0.01859 0.24156 0.00242
3092.33984 1.86140 0.01861 0.24651 0.00247
3093.29980 1.86415 0.01864 0.25199 0.00252
3094.26953 1.86666 0.01867 0.25800 0.00258
3095.22974 1.86878 0.01869 0.26408 0.00264
3096.19971 1.87077 0.01871 0.27009 0.00270
3097.15967 1.87276 0.01873 0.27619 0.00276
3098.11963 1.87485 0.01875 0.28242 0.00282
3099.08984 1.87676 0.01877 0.28938 0.00289
3100.04980 1.87801 0.01878 0.29662 0.00297
3101.01953 1.87876 0.01879 0.30350 0.00303
3101.97974 1.87927 0.01879 0.31030 0.00310
3102.94971 1.87965 0.01880 0.31678 0.00317
3103.90967 1.88016 0.01880 0.32298 0.00323
3104.86963 1.88099 0.01881 0.32923 0.00329
3105.83984 1.88219 0.01882 0.33582 0.00336
3106.79980 1.88322 0.01883 0.34340 0.00343
3107.76953 1.88344 0.01883 0.35150 0.00351
3108.72974 1.88291 0.01883 0.35934 0.00359
3109.69971 1.88199 0.01882 0.36702 0.00367
3110.65967 1.88056 0.01881 0.37467 0.00375
3111.61963 1.87860 0.01879 0.38177 0.00382
3112.58984 1.87669 0.01877 0.38804 0.00388
3113.54980 1.87523 0.01875 0.39421 0.00394
3114.51953 1.87395 0.01874 0.40056 0.00401
3115.47974 1.87266 0.01873 0.40706 0.00407
3116.44971 1.87128 0.01871 0.41371 0.00414
3117.40967 1.86973 0.01870 0.42054 0.00421
3118.36963 1.86788 0.01868 0.42747 0.00427
3119.33984 1.86561 0.01866 0.43448 0.00434
3120.29980 1.86304 0.01863 0.44124 0.00441
3121.26953 1.86033 0.01860 0.44777 0.00448
3122.22974 1.85755 0.01858 0.45432 0.00454
3123.19971 1.85445 0.01854 0.46094 0.00461
3124.15967 1.85097 0.01851 0.46735 0.00467
3125.11963 1.84717 0.01847 0.47340 0.00473
3126.08984 1.84317 0.01843 0.47906 0.00479
3127.04980 1.83908 0.01839 0.48434 0.00484
3128.01953 1.83517 0.01835 0.48890 0.00489
3128.97974 1.83199 0.01832 0.49314 0.00493
3129.94971 1.82920 0.01829 0.49810 0.00498
3130.90967 1.82614 0.01826 0.50349 0.00503
3131.86963 1.82271 0.01823 0.50879 0.00509
3132.83984 1.81890 0.01819 0.51415 0.00514
3133.79980 1.81480 0.01815 0.51924 0.00519
3134.76953 1.81054 0.01811 0.52387 0.00524
3135.72974 1.80630 0.01806 0.52840 0.00528
3136.69971 1.80198 0.01802 0.53259 0.00533
3137.65967 1.79774 0.01798 0.53654 0.00537
3138.61963 1.79348 0.01793 0.54035 0.00540
3139.58984 1.78929 0.01789 0.54374 0.00544
3140.54980 1.78561 0.01786 0.54687 0.00547
3141.51953 1.78214 0.01782 0.55047 0.00550
3142.47974 1.77848 0.01778 0.55432 0.00554
3143.44971 1.77450 0.01774 0.55799 0.00558
3144.40967 1.77048 0.01770 0.56145 0.00561
3145.36963 1.76646 0.01766 0.56474 0.00565
3146.33984 1.76224 0.01762 0.56804 0.00568
3147.29980 1.75801 0.01758 0.57089 0.00571
3148.26953 1.75391 0.01754 0.57338 0.00573
3149.22974 1.74986 0.01750 0.57602 0.00576
3150.19971 1.74592 0.01746 0.57792 0.00578
3151.15967 1.74252 0.01743 0.57973 0.00580
3152.12988 1.73947 0.01739 0.58177 0.00582
3153.08984 1.73660 0.01737 0.58384 0.00584
3154.04980 1.73391 0.01734 0.58616 0.00586
3155.01953 1.73124 0.01731 0.58863 0.00589
3155.97974 1.72840 0.01728 0.59145 0.00591
3156.94971 1.72525 0.01725 0.59411 0.00594
3157.90967 1.72216 0.01722 0.59639 0.00596
3158.87988 1.71915 0.01719 0.59878 0.00599
3159.83984 1.71604 0.01716 0.60110 0.00601
3160.79980 1.71286 0.01713 0.60302 0.00603
3161.76953 1.71000 0.01710 0.60445 0.00604
3162.72974 1.70794 0.01708 0.60565 0.00606
3163.69971 1.70648 0.01706 0.60751 0.00608
3164.65967 1.70506 0.01705 0.61003 0.00610
3165.62988 1.70348 0.01703 0.61276 0.00613
3166.58984 1.70175 0.01702 0.61585 0.00616
3167.54980 1.69964 0.01700 0.61916 0.00619
3168.51953 1.69705 0.01697 0.62229 0.00622
3169.47974 1.69428 0.01694 0.62497 0.00625
3170.44971 1.69186 0.01692 0.62692 0.00627
3171.40967 1.69011 0.01690 0.62901 0.00629
3172.37988 1.68881 0.01689 0.63139 0.00631
3173.33984 1.68778 0.01688 0.63423 0.00634
3174.29980 1.68661 0.01687 0.63787 0.00638
3175.26953 1.68505 0.01685 0.64167 0.00642
3176.22974 1.68309 0.01683 0.64573 0.00646
3177.19971 1.68049 0.01680 0.64983 0.00650
3178.15967 1.67742 0.01677 0.65326 0.00653
3179.12988 1.67444 0.01674 0.65584 0.00656
3180.08984 1.67232 0.01672 0.65773 0.00658
3181.04980 1.67120 0.01671 0.65995 0.00660
3182.01953 1.67049 0.01670 0.66308 0.00663
3182.97974 1.66973 0.01670 0.66670 0.00667
3183.94971 1.66903 0.01669 0.67063 0.00671
3184.90967 1.66824 0.01668 0.67532 0.00675
3185.87988 1.66674 0.01667 0.68064 0.00681
3186.83984 1.66460 0.01665 0.68559 0.00686
3187.79980 1.66243 0.01662 0.69008 0.00690
3188.76953 1.66044 0.01660 0.69471 0.00695
3189.72974 1.65840 0.01658 0.69957 0.00700
3190.69971 1.65623 0.01656 0.70437 0.00704
3191.65967 1.65424 0.01654 0.70908 0.00709
3192.62988 1.65243 0.01652 0.71419 0.00714
3193.58984 1.65055 0.01651 0.71970 0.00720
3194.54980 1.64840 0.01648 0.72554 0.00726
3195.51953 1.64595 0.01646 0.73155 0.00732
3196.47974 1.64321 0.01643 0.73774 0.00738
3197.44971 1.64024 0.01640 0.74386 0.00744
3198.40967 1.63721 0.01637 0.75008 0.00750
3199.37988 1.63385 0.01634 0.75667 0.00757
3200.33984 1.63018 0.01630 0.76302 0.00763
3201.29980 1.62659 0.01627 0.76917 0.00769
3202.26953 1.62292 0.01623 0.77589 0.00776
3203.22974 1.61894 0.01619 0.78270 0.00783
3204.19971 1.61473 0.01615 0.78940 0.00789
3205.15967 1.61061 0.01611 0.79630 0.00796
3206.12988 1.60644 0.01606 0.80354 0.00804
3207.08984 1.60175 0.01602 0.81162 0.00812
3208.04980 1.59627 0.01596 0.81962 0.00820
3209.01953 1.59043 0.01590 0.82734 0.00827
3209.97974 1.58412 0.01584 0.83576 0.00836
3210.94971 1.57672 0.01577 0.84394 0.00844
3211.90967 1.56896 0.01569 0.85118 0.00851
3212.87988 1.56137 0.01561 0.85818 0.00858
3213.83984 1.55386 0.01554 0.86549 0.00865
3214.79980 1.54572 0.01546 0.87333 0.00873
3215.76953 1.53682 0.01537 0.88081 0.00881
3216.72974 1.52765 0.01528 0.88819 0.00888
3217.69971 1.51742 0.01517 0.89605 0.00896
3218.65967 1.50618 0.01506 0.90288 0.00903
3219.62988 1.49465 0.01495 0.90843 0.00908
3220.58984 1.48355 0.01484 0.91363 0.00914
3221.54980 1.47245 0.01472 0.91868 0.00919
3222.51953 1.46106 0.01461 0.92367 0.00924
3223.47974 1.44972 0.01450 0.92845 0.00928
3224.44971 1.43777 0.01438 0.93373 0.00934
3225.40967 1.42465 0.01425 0.93907 0.00939
3226.37988 1.41025 0.01410 0.94301 0.00943
3227.33984 1.39573 0.01396 0.94557 0.00946
3228.29980 1.38135 0.01381 0.94705 0.00947
3229.26953 1.36722 0.01367 0.94750 0.00947
3230.22974 1.35400 0.01354 0.94726 0.00947
3231.19971 1.34128 0.01341 0.94712 0.00947
3232.15967 1.32871 0.01329 0.94741 0.00947
3233.12988 1.31554 0.01316 0.94761 0.00948
3234.08984 1.30189 0.01302 0.94754 0.00948
3235.04980 1.28764 0.01288 0.94667 0.00947
3236.01953 1.27308 0.01273 0.94449 0.00944
3236.97974 1.25892 0.01259 0.94134 0.00941
3237.94971 1.24505 0.01245 0.93725 0.00937
3238.90967 1.23219 0.01232 0.93213 0.00932
3239.87988 1.22024 0.01220 0.92692 0.00927
3240.83984 1.20874 0.01209 0.92218 0.00922
3241.79980 1.19712 0.01197 0.91708 0.00917
3242.76953 1.18566 0.01186 0.91121 0.00911
3243.72974 1.17500 0.01175 0.90493 0.00905
3244.69971 1.16508 0.01165 0.89843 0.00898
3245.65967 1.15601 0.01156 0.89235 0.00892
3246.62988 1.14686 0.01147 0.88715 0.00887
3247.58984 1.13686 0.01137 0.88238 0.00882
3248.54980 1.12602 0.01126 0.87647 0.00876
3249.51953 1.11535 0.01115 0.86894 0.00869
3250.47974 1.10551 0.01106 0.86084 0.00861
3251.44971 1.09637 0.01096 0.85188 0.00852
3252.40967 1.08898 0.01089 0.84203 0.00842
3253.37988 1.08320 0.01083 0.83320 0.00833
3254.33984 1.07741 0.01077 0.82624 0.00826
3255.29980 1.07093 0.01071 0.81890 0.00819
3256.26953 1.06495 0.01065 0.81058 0.00811
3257.22974 1.05977 0.01060 0.80313 0.00803
3258.19971 1.05428 0.01054 0.79624 0.00796
3259.15967 1.04864 0.01049 0.78871 0.00789
3260.12988 1.04362 0.01044 0.78069 0.00781
3261.08984 1.03940 0.01039 0.77315 0.00773
3262.04980 1.03502 0.01035 0.76650 0.00766
3263.01953 1.03027 0.01030 0.75928 0.00759
3263.97974 1.02604 0.01026 0.75152 0.00752
3264.94971 1.02233 0.01022 0.74413 0.00744
3265.90967 1.01883 0.01019 0.73687 0.00737
3266.87988 1.01559 0.01016 0.72946 0.00729
3267.83984 1.01303 0.01013 0.72216 0.00722
3268.79980 1.01096 0.01011 0.71557 0.00716
3269.76953 1.00857 0.01009 0.70993 0.00710
3270.72974 1.00557 0.01006 0.70420 0.00704
3271.69971 1.00241 0.01002 0.69798 0.00698
3272.65967 0.99952 0.01000 0.69159 0.00692
3273.62988 0.99684 0.00997 0.68512 0.00685
3274.58984 0.99445 0.00994 0.67864 0.00679
3275.54980 0.99226 0.00992 0.67224 0.00672
3276.51953 0.99041 0.00990 0.66570 0.00666
3277.47974 0.98896 0.00989 0.65944 0.00659
3278.44971 0.98755 0.00988 0.65371 0.00654
3279.40967 0.98616 0.00986 0.64784 0.00648
3280.37988 0.98502 0.00985 0.64213 0.00642
3281.33984 0.98392 0.00984 0.63692 0.00637
3282.29980 0.98266 0.00983 0.63178 0.00632
3283.26953 0.98140 0.00981 0.62656 0.00627
3284.22974 0.98022 0.00980 0.62149 0.00621
3285.19971 0.97898 0.00979 0.61653 0.00617
3286.15967 0.97771 0.00978 0.61153 0.00612
3287.12988 0.97648 0.00976 0.60644 0.00606
3288.08984 0.97521 0.00975 0.60146 0.00601
3289.04980 0.97403 0.00974 0.59608 0.00596
3290.01953 0.97357 0.00974 0.59026 0.00590
3290.97974 0.97375 0.00974 0.58532 0.00585
3291.94971 0.97367 0.00974 0.58121 0.00581
3292.90967 0.97330 0.00973 0.57692 0.00577
3293.87988 0.97287 0.00973 0.57282 0.00573
3294.83984 0.97208 0.00972 0.56899 0.00569
3295.79980 0.97114 0.00971 0.56448 0.00564
3296.76953 0.97086 0.00971 0.55952 0.00560
3297.72974 0.97102 0.00971 0.55537 0.00555
3298.69971 0.97088 0.00971 0.55171 0.00552
3299.65967 0.97056 0.00971 0.54768 0.00548
3300.62988 0.97036 0.00970 0.54377 0.00544
3301.58984 0.97005 0.00970 0.54002 0.00540
3302.54980 0.96979 0.00970 0.53585 0.00536
3303.51953 0.97023 0.00970 0.53144 0.00531
3304.47974 0.97116 0.00971 0.52792 0.00528
3305.44971 0.97170 0.00972 0.52530 0.00525
3306.40967 0.97175 0.00972 0.52245 0.00522
3307.37988 0.97185 0.00972 0.51948 0.00519
3308.33984 0.97182 0.00972 0.51705 0.00517
3309.29980 0.97130 0.00971 0.51457 0.00515
3310.26953 0.97058 0.00971 0.51158 0.00512
3311.22974 0.97003 0.00970 0.50835 0.00508
3312.19971 0.96979 0.00970 0.50496 0.00505
3313.15967 0.96987 0.00970 0.50167 0.00502
3314.12988 0.97025 0.00970 0.49860 0.00499
3315.08984 0.97090 0.00971 0.49592 0.00496
3316.04980 0.97123 0.00971 0.49418 0.00494
3317.01953 0.97068 0.00971 0.49260 0.00493
3317.97974 0.96968 0.00970 0.49015 0.00490
3318.94971 0.96885 0.00969 0.48738 0.00487
3319.90967 0.96835 0.00968 0.48431 0.00484
3320.87988 0.96820 0.00968 0.48123 0.00481
3321.83984 0.96844 0.00968 0.47835 0.00478
3322.79980 0.96894 0.00969 0.47580 0.00476
3323.76953 0.96935 0.00969 0.47398 0.00474
3324.72974 0.96933 0.00969 0.47234 0.00472
3325.69971 0.96899 0.00969 0.47068 0.00471
3326.65967 0.96815 0.00968 0.46920 0.00469
3327.62988 0.96698 0.00967 0.46695 0.00467
3328.58984 0.96622 0.00966 0.46403 0.00464
3329.54980 0.96609 0.00966 0.46125 0.00461
3330.51953 0.96643 0.00966 0.45868 0.00459
3331.47974 0.96698 0.00967 0.45677 0.00457
3332.44971 0.96726 0.00967 0.45555 0.00456
3333.40967 0.96704 0.00967 0.45455 0.00455
3334.37988 0.96614 0.00966 0.45368 0.00454
3335.33984 0.96471 0.00965 0.45232 0.00452
3336.29980 0.96346 0.00963 0.45003 0.00450
3337.26953 0.96275 0.00963 0.44786 0.00448
3338.22974 0.96217 0.00962 0.44603 0.00446
3339.19971 0.96129 0.00961 0.44443 0.00444
3340.15967 0.96027 0.00960 0.44247 0.00442
3341.12988 0.95940 0.00959 0.44034 0.00440
3342.08984 0.95846 0.00958 0.43854 0.00439
3343.04980 0.95749 0.00957 0.43621 0.00436
3344.01953 0.95710 0.00957 0.43358 0.00434
3344.97974 0.95713 0.00957 0.43173 0.00432
3345.94971 0.95708 0.00957 0.43033 0.00430
3346.90967 0.95651 0.00957 0.42954 0.00430
3347.87988 0.95519 0.00955 0.42866 0.00429
3348.83984 0.95351 0.00954 0.42706 0.00427
3349.79980 0.95194 0.00952 0.42506 0.00425
3350.76953 0.95094 0.00951 0.42244 0.00422
3351.72974 0.95055 0.00951 0.42039 0.00420
3352.69971 0.95016 0.00950 0.41900 0.00419
3353.65967 0.94953 0.00950 0.41779 0.00418
3354.62988 0.94837 0.00948 0.41718 0.00417
3355.58984 0.94650 0.00946 0.41630 0.00416
3356.54980 0.94438 0.00944 0.41471 0.00415
3357.51953 0.94218 0.00942 0.41305 0.00413
3358.47974 0.93986 0.00940 0.41086 0.00411
3359.44971 0.93770 0.00938 0.40809 0.00408
3360.40967 0.93617 0.00936 0.40489 0.00405
3361.37988 0.93521 0.00935 0.40192 0.00402
3362.33984 0.93459 0.00935 0.39932 0.00399
3363.29980 0.93421 0.00934 0.39694 0.00397
3364.26953 0.93384 0.00934 0.39537 0.00395
3365.22974 0.93277 0.00933 0.39438 0.00394
3366.19971 0.93080 0.00931 0.39316 0.00393
3367.15967 0.92860 0.00929 0.39097 0.00391
3368.12988 0.92670 0.00927 0.38840 0.00388
3369.08984 0.92514 0.00925 0.38575 0.00386
3370.04980 0.92383 0.00924 0.38306 0.00383
3371.01953 0.92278 0.00923 0.38050 0.00380
3371.97974 0.92167 0.00922 0.37841 0.00378
3372.94971 0.92011 0.00920 0.37643 0.00376
3373.90967 0.91831 0.00918 0.37399 0.00374
3374.87988 0.91655 0.00917 0.37121 0.00371
3375.83984 0.91516 0.00915 0.36809 0.00368
3376.79980 0.91428 0.00914 0.36501 0.00365
3377.76953 0.91358 0.00914 0.36252 0.00363
3378.72974 0.91278 0.00913 0.36019 0.00360
3379.69971 0.91179 0.00912 0.35815 0.00358
3380.65967 0.91040 0.00910 0.35635 0.00356
3381.62988 0.90846 0.00908 0.35424 0.00354
3382.58984 0.90635 0.00906 0.35164 0.00352
3383.54980 0.90458 0.00905 0.34836 0.00348
3384.51953 0.90311 0.00903 0.34536 0.00345
3385.47974 0.90152 0.00902 0.34246 0.00342
3386.44971 0.89985 0.00900 0.33904 0.00339
3387.40967 0.89859 0.00899 0.33540 0.00335
3388.37988 0.89770 0.00898 0.33181 0.00332
3389.33984 0.89689 0.00897 0.32859 0.00329
3390.29980 0.89619 0.00896 0.32515 0.00325
3391.26953 0.89577 0.00896 0.32190 0.00322
3392.22974 0.89527 0.00895 0.31923 0.00319
3393.19971 0.89445 0.00894 0.31646 0.00316
3394.15967 0.89344 0.00893 0.31368 0.00314
3395.12988 0.89229 0.00892 0.31067 0.00311
3396.08984 0.89131 0.00891 0.30726 0.00307
3397.04980 0.89056 0.00891 0.30400 0.00304
3398.01953 0.88999 0.00890 0.30066 0.00301
3398.97974 0.88949 0.00889 0.29761 0.00298
3399.94971 0.88890 0.00889 0.29475 0.00295
3400.90967 0.88811 0.00888 0.29188 0.00292
3401.87988 0.88695 0.00887 0.28912 0.00289
3402.83984 0.88562 0.00886 0.28571 0.00286
3403.79980 0.88456 0.00885 0.28194 0.00282
3404.76953 0.88391 0.00884 0.27807 0.00278
3405.72974 0.88347 0.00883 0.27439 0.00274
3406.69971 0.88296 0.00883 0.27094 0.00271
3407.65967 0.88241 0.00882 0.26721 0.00267
3408.62988 0.88197 0.00882 0.26345 0.00263
3409.58984 0.88153 0.00882 0.25972 0.00260
3410.54980 0.88132 0.00881 0.25553 0.00256
3411.51953 0.88159 0.00882 0.25145 0.00251
3412.47974 0.88214 0.00882 0.24775 0.00248
3413.44971 0.88267 0.00883 0.24443 0.00244
3414.40967 0.88290 0.00883 0.24145 0.00241
3415.37988 0.88272 0.00883 0.23834 0.00238
3416.33984 0.88252 0.00883 0.23478 0.00235
3417.29980 0.88243 0.00882 0.23122 0.00231
3418.26953 0.88225 0.00882 0.22759 0.00228
3419.22974 0.88237 0.00882 0.22331 0.00223
3420.19971 0.88312 0.00883 0.21923 0.00219
3421.15967 0.88378 0.00884 0.21599 0.00216
3422.12988 0.88400 0.00884 0.21242 0.00212
3423.08984 0.88439 0.00884 0.20833 0.00208
3424.04980 0.88520 0.00885 0.20440 0.00204
3425.01953 0.88600 0.00886 0.20068 0.00201
3425.97974 0.88676 0.00887 0.19668 0.00197
3426.94971 0.88830 0.00888 0.19209 0.00192
3427.90967 0.89063 0.00891 0.18847 0.00188
3428.87988 0.89248 0.00892 0.18626 0.00186
3429.83984 0.89337 0.00893 0.18367 0.00184
3430.80957 0.89435 0.00894 0.18030 0.00180
3431.76953 0.89564 0.00896 0.17729 0.00177
3432.72974 0.89648 0.00896 0.17466 0.00175
3433.69971 0.89731 0.00897 0.17094 0.00171
3434.65967 0.89909 0.00899 0.16700 0.00167
3435.62988 0.90130 0.00901 0.16435 0.00164
3436.58984 0.90285 0.00903 0.16218 0.00162
3437.55957 0.90372 0.00904 0.15980 0.00160
3438.51953 0.90452 0.00905 0.15672 0.00157
3439.47974 0.90572 0.00906 0.15333 0.00153
3440.44971 0.90717 0.00907 0.15018 0.00150
3441.40967 0.90885 0.00909 0.14678 0.00147
3442.37988 0.91094 0.00911 0.14364 0.00144
3443.33984 0.91307 0.00913 0.14105 0.00141
3444.30957 0.91495 0.00915 0.13860 0.00139
3445.26953 0.91665 0.00917 0.13610 0.00136
3446.22974 0.91849 0.00918 0.13334 0.00133
3447.19971 0.92062 0.00921 0.13077 0.00131
3448.15967 0.92279 0.00923 0.12853 0.00129
3449.12988 0.92480 0.00925 0.12656 0.00127
3450.08984 0.92654 0.00927 0.12465 0.00125
3451.05957 0.92808 0.00928 0.12262 0.00123
3452.01953 0.92949 0.00929 0.12043 0.00120
3452.97974 0.93109 0.00931 0.11782 0.00118
3453.94971 0.93307 0.00933 0.11525 0.00115
3454.90967 0.93509 0.00935 0.11304 0.00113
3455.87988 0.93724 0.00937 0.11054 0.00111
3456.83984 0.93974 0.00940 0.10822 0.00108
3457.80957 0.94250 0.00942 0.10634 0.00106
3458.76953 0.94527 0.00945 0.10488 0.00105
3459.72974 0.94783 0.00948 0.10402 0.00104
3460.69971 0.94976 0.00950 0.10359 0.00104
3461.65967 0.95089 0.00951 0.10296 0.00103
3462.62988 0.95165 0.00952 0.10157 0.00102
3463.58984 0.95263 0.00953 0.09947 0.00099
3464.55957 0.95415 0.00954 0.09708 0.00097
3465.51953 0.95657 0.00957 0.09450 0.00094
3466.47974 0.95972 0.00960 0.09293 0.00093
3467.44971 0.96232 0.00962 0.09292 0.00093
3468.40967 0.96377 0.00964 0.09268 0.00093
3469.37988 0.96486 0.00965 0.09179 0.00092
3470.33984 0.96584 0.00966 0.09083 0.00091
3471.30957 0.96679 0.00967 0.08932 0.00089
3472.26953 0.96817 0.00968 0.08735 0.00087
3473.22974 0.97029 0.00970 0.08558 0.00086
3474.19971 0.97256 0.00973 0.08475 0.00085
3475.15967 0.97397 0.00974 0.08463 0.00085
3476.12988 0.97482 0.00975 0.08357 0.00084
3477.08984 0.97591 0.00976 0.08214 0.00082
3478.05957 0.97709 0.00977 0.08098 0.00081
3479.01953 0.97824 0.00978 0.07938 0.00079
3479.97974 0.97980 0.00980 0.07766 0.00078
3480.94971 0.98159 0.00982 0.07638 0.00076
3481.90967 0.98309 0.00983 0.07536 0.00075
3482.87988 0.98451 0.00985 0.07394 0.00074
3483.83984 0.98631 0.00986 0.07236 0.00072
3484.80957 0.98839 0.00988 0.07131 0.00071
3485.76953 0.99032 0.00990 0.07060 0.00071
3486.72974 0.99192 0.00992 0.07012 0.00070
3487.69971 0.99328 0.00993 0.06953 0.00070
3488.65967 0.99444 0.00994 0.06885 0.00069
3489.62988 0.99536 0.00995 0.06813 0.00068
3490.58984 0.99638 0.00996 0.06673 0.00067
3491.55957 0.99784 0.00998 0.06535 0.00065
3492.51953 0.99940 0.00999 0.06437 0.00064
3493.47974 1.00111 0.01001 0.06315 0.00063
3494.44971 1.00296 0.01003 0.06252 0.00063
3495.40967 1.00434 0.01004 0.06234 0.00062
3496.37988 1.00535 0.01005 0.06169 0.00062
3497.33984 1.00632 0.01006 0.06095 0.00061
3498.30957 1.00716 0.01007 0.06011 0.00060
3499.26953 1.00798 0.01008 0.05876 0.00059
3500.22974 1.00937 0.01009 0.05698 0.00057
3501.19971 1.01164 0.01012 0.05546 0.00055
3502.15967 1.01399 0.01014 0.05517 0.00055
3503.12988 1.01545 0.01015 0.05560 0.00056
3504.08984 1.01622 0.01016 0.05525 0.00055
3505.05957 1.01709 0.01017 0.05452 0.00055
3506.01953 1.01789 0.01018 0.05397 0.00054
3506.97974 1.01865 0.01019 0.05283 0.00053
3507.94971 1.01994 0.01020 0.05135 0.00051
3508.90967 1.02169 0.01022 0.05042 0.00050
3509.87988 1.02326 0.01023 0.05004 0.00050
3510.83984 1.02432 0.01024 0.04976 0.00050
3511.80957 1.02519 0.01025 0.04897 0.00049
3512.76953 1.02624 0.01026 0.04800 0.00048
3513.72974 1.02746 0.01027 0.04711 0.00047
3514.69971 1.02876 0.01029 0.04621 0.00046
3515.65967 1.03013 0.01030 0.04539 0.00045
3516.62988 1.03156 0.01032 0.04468 0.00045
3517.58984 1.03297 0.01033 0.04408 0.00044
3518.55957 1.03417 0.01034 0.04372 0.00044
3519.51953 1.03516 0.01035 0.04309 0.00043
3520.47974 1.03631 0.01036 0.04214 0.00042
3521.44971 1.03777 0.01038 0.04134 0.00041
3522.40967 1.03921 0.01039 0.04084 0.00041
3523.37988 1.04050 0.01041 0.04037 0.00040
3524.33984 1.04183 0.01042 0.03973 0.00040
3525.30957 1.04338 0.01043 0.03926 0.00039
3526.26953 1.04474 0.01045 0.03925 0.00039
3527.22974 1.04565 0.01046 0.03927 0.00039
3528.19971 1.04655 0.01047 0.03871 0.00039
3529.15967 1.04758 0.01048 0.03845 0.00038
3530.12988 1.04825 0.01048 0.03840 0.00038
3531.08984 1.04857 0.01049 0.03775 0.00038
3532.05957 1.04917 0.01049 0.03652 0.00037
3533.01953 1.05038 0.01050 0.03514 0.00035
3533.97974 1.05208 0.01052 0.03412 0.00034
3534.94971 1.05378 0.01054 0.03373 0.00034
3535.90967 1.05527 0.01055 0.03338 0.00033
3536.87988 1.05675 0.01057 0.03315 0.00033
3537.83984 1.05805 0.01058 0.03324 0.00033
3538.80957 1.05888 0.01059 0.03342 0.00033
3539.76953 1.05943 0.01059 0.03312 0.00033
3540.72974 1.06020 0.01060 0.03237 0.00032
3541.69971 1.06132 0.01061 0.03175 0.00032
3542.65967 1.06242 0.01062 0.03135 0.00031
3543.62988 1.06345 0.01063 0.03092 0.00031
3544.58984 1.06473 0.01065 0.03027 0.00030
3545.55957 1.06611 0.01066 0.03021 0.00030
3546.51953 1.06697 0.01067 0.03052 0.00031
3547.47974 1.06747 0.01067 0.03021 0.00030
3548.44971 1.06807 0.01068 0.02965 0.00030
3549.40967 1.06888 0.01069 0.02889 0.00029
3550.37988 1.07007 0.01070 0.02797 0.00028
3551.33984 1.07159 0.01072 0.02746 0.00027
3552.30957 1.07313 0.01073 0.02734 0.00027
3553.26953 1.07441 0.01074 0.02755 0.00028
3554.22974 1.07540 0.01075 0.02782 0.00028
3555.19971 1.07609 0.01076 0.02812 0.00028
3556.15967 1.07646 0.01076 0.02829 0.00028
3557.12988 1.07675 0.01077 0.02800 0.00028
3558.08984 1.07711 0.01077 0.02764 0.00028
3559.05957 1.07747 0.01077 0.02711 0.00027
3560.01953 1.07792 0.01078 0.02631 0.00026
3560.97974 1.07861 0.01079 0.02540 0.00025
3561.94971 1.07960 0.01080 0.02446 0.00024
3562.90967 1.08075 0.01081 0.02375 0.00024
3563.87988 1.08197 0.01082 0.02317 0.00023
3564.83984 1.08324 0.01083 0.02265 0.00023
3565.80957 1.08455 0.01085 0.02235 0.00022
3566.76953 1.08590 0.01086 0.02212 0.00022
3567.72974 1.08717 0.01087 0.02224 0.00022
3568.69971 1.08812 0.01088 0.02259 0.00023
3569.65967 1.08874 0.01089 0.02272 0.00023
3570.62988 1.08929 0.01089 0.02268 0.00023
3571.58984 1.08979 0.01090 0.02254 0.00023
3572.55957 1.09029 0.01090 0.02228 0.00022
3573.51953 1.09084 0.01091 0.02185 0.00022
3574.47974 1.09147 0.01091 0.02147 0.00021
3575.44971 1.09200 0.01092 0.02110 0.00021
3576.40967 1.09261 0.01093 0.02038 0.00020
3577.37988 1.09354 0.01094 0.01960 0.00020
3578.33984 1.09469 0.01095 0.01913 0.00019
3579.30957 1.09583 0.01096 0.01887 0.00019
3580.26953 1.09678 0.01097 0.01883 0.00019
3581.22974 1.09751 0.01098 0.01871 0.00019
3582.19971 1.09818 0.01098 0.01844 0.00018
3583.15967 1.09882 0.01099 0.01812 0.00018
3584.12988 1.09960 0.01100 0.01752 0.00018
3585.08984 1.10062 0.01101 0.01700 0.00017
3586.05957 1.10168 0.01102 0.01677 0.00017
3587.01953 1.10269 0.01103 0.01649 0.00016
3587.97974 1.10376 0.01104 0.01633 0.00016
3588.94971 1.10470 0.01105 0.01639 0.00016
3589.90967 1.10551 0.01106 0.01634 0.00016
3590.87988 1.10622 0.01106 0.01631 0.00016
3591.83984 1.10682 0.01107 0.01621 0.00016
3592.80957 1.10751 0.01108 0.01578 0.00016
3593.76953 1.10840 0.01108 0.01547 0.00015
3594.72974 1.10931 0.01109 0.01529 0.00015
3595.69971 1.11036 0.01110 0.01503 0.00015
3596.65967 1.11135 0.01111 0.01518 0.00015
3597.62988 1.11211 0.01112 0.01542 0.00015
3598.58984 1.11263 0.01113 0.01542 0.00015
3599.55957 1.11323 0.01113 0.01532 0.00015
3600.51953 1.11404 0.01114 0.01497 0.00015
3601.62988 1.11490 0.01115 0.01542 0.00015
3602.58984 1.11530 0.01115 0.01542 0.00015
3603.55957 1.11563 0.01116 0.01532 0.00015
3604.51953 1.11615 0.01116 0.01497 0.00015
3605.47974 1.11663 0.01117 0.01485 0.00015
3606.44971 1.11703 0.01117 0.01459 0.00015
3607.40967 1.11759 0.01118 0.01392 0.00014
3608.37988 1.11841 0.01118 0.01358 0.00014
3609.33984 1.11920 0.01119 0.01327 0.00013
3610.30957 1.12015 0.01120 0.01288 0.00013
3611.26953 1.12110 0.01121 0.01294 0.00013
3612.22974 1.12175 0.01122 0.01310 0.00013
3613.19971 1.12211 0.01122 0.01304 0.00013
3614.15967 1.12257 0.01123 0.01255 0.00013
3615.12988 1.12345 0.01123 0.01191 0.00012
3616.08984 1.12459 0.01125 0.01168 0.00012
3617.05957 1.12574 0.01126 0.01169 0.00012
3618.01953 1.12681 0.01127 0.01195 0.00012
3618.97974 1.12751 0.01128 0.01259 0.00013
3619.94971 1.12771 0.01128 0.01304 0.00013
3620.90967 1.12777 0.01128 0.01295 0.00013
3621.87988 1.12811 0.01128 0.01255 0.00013
3622.83984 1.12870 0.01129 0.01228 0.00012
3623.80957 1.12933 0.01129 0.01214 0.00012
3624.76953 1.12990 0.01130 0.01204 0.00012
3625.72974 1.13037 0.01130 0.01197 0.00012
3626.69971 1.13077 0.01131 0.01177 0.00012
3627.65967 1.13140 0.01131 0.01125 0.00011
3628.62988 1.13227 0.01132 0.01104 0.00011
3629.58984 1.13310 0.01133 0.01112 0.00011
3630.55957 1.13373 0.01134 0.01124 0.00011
3631.51953 1.13410 0.01134 0.01148 0.00011
3632.47974 1.13431 0.01134 0.01132 0.00011
3633.44971 1.13469 0.01135 0.01090 0.00011
3634.40967 1.13528 0.01135 0.01053 0.00011
3635.37988 1.13607 0.01136 0.01018 0.00010
3636.33984 1.13688 0.01137 0.01012 0.00010
3637.30957 1.13758 0.01138 0.01019 0.00010
3638.26953 1.13816 0.01138 0.01019 0.00010
3639.22974 1.13851 0.01139 0.01036 0.00010
3640.19971 1.13883 0.01139 0.01000 0.00010
3641.15967 1.13958 0.01140 0.00943 0.00009
3642.12988 1.14053 0.01141 0.00952 0.00010
3643.08984 1.14115 0.01141 0.00973 0.00010
3644.05957 1.14160 0.01142 0.00974 0.00010
3645.01953 1.14211 0.01142 0.00969 0.00010
3645.97974 1.14262 0.01143 0.00970 0.00010
3646.94971 1.14298 0.01143 0.00976 0.00010
3647.90967 1.14335 0.01143 0.00952 0.00010
3648.87988 1.14394 0.01144 0.00923 0.00009
3649.83984 1.14449 0.01144 0.00930 0.00009
3650.80957 1.14490 0.01145 0.00911 0.00009
3651.76953 1.14551 0.01146 0.00875 0.00009
3652.72974 1.14636 0.01146 0.00862 0.00009
3653.69971 1.14711 0.01147 0.00884 0.00009
3654.65967 1.14763 0.01148 0.00906 0.00009
3655.62988 1.14809 0.01148 0.00917 0.00009
3656.58984 1.14840 0.01148 0.00948 0.00009
3657.55957 1.14838 0.01148 0.00964 0.00010
3658.51953 1.14835 0.01148 0.00924 0.00009
3659.47974 1.14871 0.01149 0.00864 0.00009
3660.44971 1.14931 0.01149 0.00832 0.00008
3661.40967 1.14979 0.01150 0.00816 0.00008
3662.37988 1.15031 0.01150 0.00773 0.00008
3663.33984 1.15109 0.01151 0.00735 0.00007
3664.30957 1.15183 0.01152 0.00745 0.00007
3665.26953 1.15229 0.01152 0.00740 0.00007
3666.22974 1.15283 0.01153 0.00708 0.00007
3667.19971 1.15355 0.01154 0.00691 0.00007
3668.15967 1.15431 0.01154 0.00684 0.00007
3669.12988 1.15498 0.01155 0.00691 0.00007
3670.08984 1.15558 0.01156 0.00693 0.00007
3671.05957 1.15635 0.01156 0.00680 0.00007
3672.01953 1.15715 0.01157 0.00718 0.00007
3672.97974 1.15756 0.01158 0.00774 0.00008
3673.94971 1.15756 0.01158 0.00806 0.00008
3674.90967 1.15744 0.01157 0.00799 0.00008
3675.87988 1.15752 0.01158 0.00748 0.00007
3676.83984 1.15794 0.01158 0.00691 0.00007
3677.80957 1.15863 0.01159 0.00642 0.00006
3678.76953 1.15960 0.01160 0.00597 0.00006
3679.73975 1.16076 0.01161 0.00602 0.00006
3680.69971 1.16163 0.01162 0.00652 0.00007
3681.65967 1.16200 0.01162 0.00704 0.00007
3682.62988 1.16228 0.01162 0.00703 0.00007
3683.58984 1.16282 0.01163 0.00695 0.00007
3684.55957 1.16346 0.01163 0.00718 0.00007
3685.51953 1.16396 0.01164 0.00745 0.00007
3686.48975 1.16425 0.01164 0.00780 0.00008
3687.44971 1.16448 0.01164 0.00789 0.00008
3688.40967 1.16488 0.01165 0.00785 0.00008
3689.37988 1.16528 0.01165 0.00816 0.00008
3690.33984 1.16556 0.01166 0.00836 0.00008
3691.30957 1.16571 0.01166 0.00861 0.00009
3692.26953 1.16567 0.01166 0.00883 0.00009
3693.23975 1.16565 0.01166 0.00857 0.00009
3694.19971 1.16584 0.01166 0.00843 0.00008
3695.15967 1.16611 0.01166 0.00829 0.00008
3696.12988 1.16633 0.01166 0.00827 0.00008
3697.08984 1.16639 0.01166 0.00830 0.00008
3698.05957 1.16630 0.01166 0.00804 0.00008
3699.01953 1.16622 0.01166 0.00758 0.00008
3699.98975 1.16643 0.01166 0.00670 0.00007
3700.94971 1.16720 0.01167 0.00575 0.00006
3701.90967 1.16832 0.01168 0.00540 0.00005
3702.87988 1.16937 0.01169 0.00543 0.00005
3703.83984 1.17016 0.01170 0.00571 0.00006
3704.80957 1.17073 0.01171 0.00604 0.00006
3705.76953 1.17104 0.01171 0.00637 0.00006
3706.73975 1.17115 0.01171 0.00651 0.00007
3707.69971 1.17140 0.01171 0.00622 0.00006
3708.65967 1.17185 0.01172 0.00612 0.00006
3709.62988 1.17219 0.01172 0.00617 0.00006
3710.58984 1.17256 0.01173 0.00588 0.00006
3711.55957 1.17324 0.01173 0.00564 0.00006
3712.51953 1.17397 0.01174 0.00582 0.00006
3713.48975 1.17443 0.01174 0.00621 0.00006
3714.44971 1.17464 0.01175 0.00643 0.00006
3715.40967 1.17481 0.01175 0.00651 0.00007
3716.37988 1.17494 0.01175 0.00657 0.00007
3717.33984 1.17501 0.01175 0.00647 0.00006
3718.30957 1.17524 0.01175 0.00611 0.00006
3719.26953 1.17572 0.01176 0.00583 0.00006
3720.23975 1.17618 0.01176 0.00585 0.00006
3721.19971 1.17655 0.01177 0.00573 0.00006
3722.15967 1.17704 0.01177 0.00555 0.00006
3723.12988 1.17753 0.01178 0.00564 0.00006
3724.08984 1.17798 0.01178 0.00560 0.00006
3725.05957 1.17843 0.01178 0.00572 0.00006
3726.01953 1.17879 0.01179 0.00596 0.00006
3726.98975 1.17887 0.01179 0.00621 0.00006
3727.94971 1.17861 0.01179 0.00632 0.00006
3728.90967 1.17842 0.01178 0.00564 0.00006
3729.87988 1.17881 0.01179 0.00477 0.00005
3730.83984 1.17960 0.01180 0.00425 0.00004
3731.80957 1.18055 0.01181 0.00393 0.00004
3732.76953 1.18141 0.01181 0.00400 0.00004
3733.73975 1.18216 0.01182 0.00409 0.00004
3734.69971 1.18290 0.01183 0.00419 0.00004
3735.65967 1.18356 0.01184 0.00458 0.00005
3736.62988 1.18402 0.01184 0.00490 0.00005
3737.58984 1.18447 0.01184 0.00514 0.00005
3738.55957 1.18498 0.01185 0.00547 0.00005
3739.51953 1.18525 0.01185 0.00611 0.00006
3740.48975 1.18509 0.01185 0.00661 0.00007
3741.44971 1.18483 0.01185 0.00655 0.00007
3742.40967 1.18488 0.01185 0.00623 0.00006
3743.37988 1.18513 0.01185 0.00611 0.00006
3744.33984 1.18532 0.01185 0.00602 0.00006
3745.30957 1.18562 0.01186 0.00574 0.00006
3746.26953 1.18608 0.01186 0.00559 0.00006
3747.23975 1.18640 0.01186 0.00577 0.00006
3748.19971 1.18656 0.01187 0.00560 0.00006
3749.15967 1.18692 0.01187 0.00526 0.00005
3750.12988 1.18758 0.01188 0.00503 0.00005
3751.08984 1.18836 0.01188 0.00507 0.00005
3752.05957 1.18893 0.01189 0.00558 0.00006
3753.01953 1.18914 0.01189 0.00597 0.00006
3753.98975 1.18924 0.01189 0.00613 0.00006
3754.94971 1.18930 0.01189 0.00626 0.00006
3755.90967 1.18933 0.01189 0.00621 0.00006
3756.87988 1.18956 0.01190 0.00593 0.00006
3757.83984 1.19002 0.01190 0.00582 0.00006
3758.80957 1.19030 0.01190 0.00610 0.00006
3759.76953 1.19032 0.01190 0.00609 0.00006
3760.73975 1.19057 0.01191 0.00564 0.00006
3761.69971 1.19112 0.01191 0.00552 0.00006
3762.65967 1.19161 0.01192 0.00564 0.00006
3763.62988 1.19197 0.01192 0.00575 0.00006
3764.58984 1.19229 0.01192 0.00589 0.00006
3765.55957 1.19242 0.01192 0.00614 0.00006
3766.51953 1.19222 0.01192 0.00620 0.00006
3767.48975 1.19229 0.01192 0.00542 0.00005
3768.44971 1.19318 0.01193 0.00468 0.00005
3769.40967 1.19424 0.01194 0.00503 0.00005
3770.37988 1.19484 0.01195 0.00556 0.00006
3771.33984 1.19513 0.01195 0.00596 0.00006
3772.30957 1.19524 0.01195 0.00641 0.00006
3773.26953 1.19517 0.01195 0.00656 0.00007
3774.23975 1.19509 0.01195 0.00651 0.00007
3775.19971 1.19522 0.01195 0.00612 0.00006
3776.15967 1.19593 0.01196 0.00563 0.00006
3777.12988 1.19683 0.01197 0.00601 0.00006
3778.08984 1.19717 0.01197 0.00683 0.00007
3779.05957 1.19703 0.01197 0.00721 0.00007
3780.01953 1.19682 0.01197 0.00735 0.00007
3780.98975 1.19670 0.01197 0.00719 0.00007
3781.94971 1.19669 0.01197 0.00695 0.00007
3782.90967 1.19690 0.01197 0.00651 0.00007
3783.87988 1.19765 0.01198 0.00593 0.00006
3784.83984 1.19870 0.01199 0.00616 0.00006
3785.80957 1.19938 0.01199 0.00705 0.00007
3786.76953 1.19940 0.01199 0.00797 0.00008
3787.73975 1.19884 0.01199 0.00870 0.00009
3788.69971 1.19802 0.01198 0.00872 0.00009
3789.65967 1.19747 0.01197 0.00809 0.00008
3790.62988 1.19740 0.01197 0.00735 0.00007
3791.58984 1.19772 0.01198 0.00663 0.00007
3792.55957 1.19828 0.01198 0.00614 0.00006
3793.51953 1.19896 0.01199 0.00586 0.00006
3794.48975 1.19972 0.01200 0.00576 0.00006
3795.44971 1.20033 0.01200 0.00605 0.00006
3796.40967 1.20076 0.01201 0.00631 0.00006
3797.37988 1.20111 0.01201 0.00658 0.00007
3798.33984 1.20116 0.01201 0.00710 0.00007
3799.30957 1.20101 0.01201 0.00711 0.00007
3800.26953 1.20100 0.01201 0.00692 0.00007
3801.23975 1.20117 0.01201 0.00677 0.00007
3802.19971 1.20150 0.01201 0.00647 0.00006
3803.15967 1.20191 0.01202 0.00654 0.00007
3804.12988 1.20224 0.01202 0.00659 0.00007
3805.08984 1.20249 0.01202 0.00664 0.00007
3806.05957 1.20276 0.01203 0.00667 0.00007
3807.01953 1.20319 0.01203 0.00660 0.00007
3807.98975 1.20368 0.01204 0.00695 0.00007
3808.94971 1.20378 0.01204 0.00757 0.00008
3809.90967 1.20350 0.01204 0.00791 0.00008
3810.87988 1.20307 0.01203 0.00791 0.00008
3811.83984 1.20271 0.01203 0.00755 0.00008
3812.80957 1.20277 0.01203 0.00673 0.00007
3813.76953 1.20341 0.01203 0.00614 0.00006
3814.73975 1.20414 0.01204 0.00622 0.00006
3815.69971 1.20459 0.01205 0.00641 0.00006
3816.65967 1.20500 0.01205 0.00654 0.00007
3817.62988 1.20528 0.01205 0.00702 0.00007
3818.58984 1.20497 0.01205 0.00760 0.00008
3819.55957 1.20431 0.01204 0.00744 0.00007
3820.51953 1.20412 0.01204 0.00645 0.00006
3821.48975 1.20467 0.01205 0.00570 0.00006
3822.44971 1.20539 0.01205 0.00544 0.00005
3823.40967 1.20610 0.01206 0.00531 0.00005
3824.37988 1.20701 0.01207 0.00528 0.00005
3825.33984 1.20763 0.01208 0.00608 0.00006
3826.30957 1.20747 0.01207 0.00686 0.00007
3827.26953 1.20723 0.01207 0.00658 0.00007
3828.23975 1.20747 0.01207 0.00643 0.00006
3829.19971 1.20770 0.01208 0.00662 0.00007
3830.15967 1.20779 0.01208 0.00662 0.00007
3831.12988 1.20794 0.01208 0.00661 0.00007
3832.08984 1.20809 0.01208 0.00666 0.00007
3833.05957 1.20802 0.01208 0.00680 0.00007
3834.01953 1.20787 0.01208 0.00649 0.00006
3834.98975 1.20816 0.01208 0.00580 0.00006
3835.94971 1.20882 0.01209 0.00559 0.00006
3836.90967 1.20940 0.01209 0.00568 0.00006
3837.87988 1.20987 0.01210 0.00579 0.00006
3838.83984 1.21034 0.01210 0.00596 0.00006
3839.80957 1.21076 0.01211 0.00632 0.00006
3840.76953 1.21088 0.01211 0.00687 0.00007
3841.73975 1.21070 0.01211 0.00718 0.00007
3842.69971 1.21049 0.01210 0.00715 0.00007
3843.65967 1.21052 0.01211 0.00692 0.00007
3844.62988 1.21079 0.01211 0.00679 0.00007
3845.58984 1.21099 0.01211 0.00700 0.00007
3846.55957 1.21099 0.01211 0.00711 0.00007
3847.51953 1.21092 0.01211 0.00708 0.00007
3848.48975 1.21080 0.01211 0.00700 0.00007
3849.44971 1.21076 0.01211 0.00661 0.00007
3850.40967 1.21104 0.01211 0.00613 0.00006
3851.37988 1.21159 0.01212 0.00591 0.00006
3852.33984 1.21210 0.01212 0.00602 0.00006
3853.30957 1.21232 0.01212 0.00635 0.00006
3854.26953 1.21225 0.01212 0.00649 0.00006
3855.23975 1.21202 0.01212 0.00638 0.00006
3856.19971 1.21201 0.01212 0.00577 0.00006
3857.15967 1.21260 0.01213 0.00502 0.00005
3858.12988 1.21359 0.01214 0.00495 0.00005
3859.08984 1.21427 0.01214 0.00544 0.00005
3860.05957 1.21449 0.01214 0.00591 0.00006
3861.01953 1.21460 0.01215 0.00606 0.00006
3861.98975 1.21475 0.01215 0.00626 0.00006
3862.94971 1.21470 0.01215 0.00653 0.00007
3863.90967 1.21465 0.01215 0.00635 0.00006
3864.87988 1.21491 0.01215 0.00615 0.00006
3865.83984 1.21513 0.01215 0.00638 0.00006
3866.80957 1.21509 0.01215 0.00641 0.00006
3867.76953 1.21516 0.01215 0.00614 0.00006
3868.73975 1.21553 0.01216 0.00588 0.00006
3869.69971 1.21585 0.01216 0.00607 0.00006
3870.65967 1.21592 0.01216 0.00613 0.00006
3871.62988 1.21611 0.01216 0.00579 0.00006
3872.58984 1.21654 0.01217 0.00570 0.00006
3873.55957 1.21700 0.01217 0.00575 0.00006
3874.51953 1.21746 0.01217 0.00586 0.00006
3875.48975 1.21781 0.01218 0.00626 0.00006
3876.44971 1.21795 0.01218 0.00659 0.00007
3877.40967 1.21787 0.01218 0.00695 0.00007
3878.37988 1.21764 0.01218 0.00702 0.00007
3879.33984 1.21764 0.01218 0.00667 0.00007
3880.30957 1.21794 0.01218 0.00658 0.00007
3881.26953 1.21810 0.01218 0.00679 0.00007
3882.23975 1.21805 0.01218 0.00680 0.00007
3883.19971 1.21806 0.01218 0.00657 0.00007
3884.15967 1.21827 0.01218 0.00633 0.00006
3885.12988 1.21857 0.01219 0.00615 0.00006
3886.08984 1.21891 0.01219 0.00602 0.00006
3887.05957 1.21951 0.01220 0.00576 0.00006
3888.01953 1.22034 0.01220 0.00599 0.00006
3888.98975 1.22074 0.01221 0.00694 0.00007
3889.94971 1.22051 0.01221 0.00758 0.00008
3890.90967 1.22017 0.01220 0.00770 0.00008
3891.87988 1.21982 0.01220 0.00785 0.00008
3892.83984 1.21945 0.01219 0.00754 0.00008
3893.80957 1.21940 0.01219 0.00691 0.00007
3894.76953 1.21985 0.01220 0.00630 0.00006
3895.73975 1.22074 0.01221 0.00599 0.00006
3896.69971 1.22162 0.01222 0.00645 0.00006
3897.65967 1.22193 0.01222 0.00737 0.00007
3898.62988 1.22164 0.01222 0.00798 0.00008
3899.58984 1.22113 0.01221 0.00816 0.00008
3900.55957 1.22089 0.01221 0.00779 0.00008
3901.51953 1.22108 0.01221 0.00752 0.00008
3902.48975 1.22127 0.01221 0.00775 0.00008
3903.44971 1.22114 0.01221 0.00791 0.00008
3904.40967 1.22085 0.01221 0.00789 0.00008
3905.37988 1.22054 0.01221 0.00760 0.00008
3906.33984 1.22040 0.01220 0.00696 0.00007
3907.30957 1.22067 0.01221 0.00618 0.00006
3908.26953 1.22155 0.01222 0.00546 0.00005
3909.23975 1.22277 0.01223 0.00552 0.00006
3910.19971 1.22347 0.01223 0.00654 0.00007
3911.15967 1.22331 0.01223 0.00738 0.00007
3912.12988 1.22274 0.01223 0.00769 0.00008
3913.08984 1.22220 0.01222 0.00746 0.00007
3914.05957 1.22194 0.01222 0.00684 0.00007
3915.01953 1.22202 0.01222 0.00618 0.00006
3915.98975 1.22253 0.01223 0.00532 0.00005
3916.94971 1.22360 0.01224 0.00475 0.00005
3917.91992 1.22488 0.01225 0.00499 0.00005
3918.87988 1.22568 0.01226 0.00588 0.00006
3919.83984 1.22575 0.01226 0.00682 0.00007
3920.80957 1.22550 0.01225 0.00715 0.00007
3921.76953 1.22546 0.01225 0.00714 0.00007
3922.73975 1.22548 0.01225 0.00735 0.00007
3923.69971 1.22547 0.01225 0.00732 0.00007
3924.66992 1.22581 0.01226 0.00703 0.00007
3925.62988 1.22642 0.01226 0.00733 0.00007
3926.58984 1.22656 0.01227 0.00820 0.00008
3927.55957 1.22612 0.01226 0.00866 0.00009
3928.51953 1.22578 0.01226 0.00849 0.00008
3929.48975 1.22580 0.01226 0.00836 0.00008
3930.44971 1.22581 0.01226 0.00853 0.00009
3931.41992 1.22566 0.01226 0.00857 0.00009
3932.37988 1.22546 0.01225 0.00846 0.00008
3933.33984 1.22533 0.01225 0.00820 0.00008
3934.30957 1.22559 0.01226 0.00760 0.00008
3935.26953 1.22610 0.01226 0.00760 0.00008
3936.23975 1.22632 0.01226 0.00793 0.00008
3937.19971 1.22630 0.01226 0.00792 0.00008
3938.16992 1.22656 0.01227 0.00771 0.00008
3939.12988 1.22698 0.01227 0.00787 0.00008
3940.08984 1.22692 0.01227 0.00852 0.00009
3941.05957 1.22648 0.01226 0.00843 0.00008
3942.01953 1.22664 0.01227 0.00769 0.00008
3942.98975 1.22737 0.01227 0.00768 0.00008
3943.94971 1.22784 0.01228 0.00831 0.00008
3944.91992 1.22778 0.01228 0.00894 0.00009
3945.87988 1.22747 0.01227 0.00934 0.00009
3946.83984 1.22694 0.01227 0.00966 0.00010
3947.80957 1.22608 0.01226 0.00971 0.00010
3948.76953 1.22529 0.01225 0.00889 0.00009
3949.73975 1.22518 0.01225 0.00760 0.00008
3950.69971 1.22592 0.01226 0.00647 0.00006
3951.66992 1.22707 0.01227 0.00610 0.00006
3952.62988 1.22801 0.01228 0.00640 0.00006
3953.58984 1.22858 0.01229 0.00677 0.00007
3954.55957 1.22898 0.01229 0.00721 0.00007
3955.51953 1.22922 0.01229 0.00769 0.00008
3956.48975 1.22934 0.01229 0.00815 0.00008
3957.44971 1.22924 0.01229 0.00873 0.00009
3958.41992 1.22883 0.01229 0.00915 0.00009
3959.37988 1.22826 0.01228 0.00923 0.00009
3960.33984 1.22776 0.01228 0.00895 0.00009
3961.30957 1.22753 0.01228 0.00836 0.00008
3962.26953 1.22771 0.01228 0.00777 0.00008
3963.23975 1.22805 0.01228 0.00748 0.00007
3964.19971 1.22844 0.01228 0.00726 0.00007
3965.16992 1.22894 0.01229 0.00713 0.00007
3966.12988 1.22937 0.01229 0.00740 0.00007
3967.08984 1.22965 0.01230 0.00765 0.00008
3968.05957 1.22967 0.01230 0.00808 0.00008
3969.01953 1.22924 0.01229 0.00846 0.00008
3969.98975 1.22885 0.01229 0.00785 0.00008
3970.94971 1.22907 0.01229 0.00718 0.00007
3971.91992 1.22981 0.01230 0.00679 0.00007
3972.87988 1.23071 0.01231 0.00686 0.00007
3973.83984 1.23140 0.01231 0.00762 0.00008
3974.80957 1.23175 0.01232 0.00839 0.00008
3975.76953 1.23152 0.01232 0.00963 0.00010
3976.73975 1.23033 0.01230 0.01059 0.00011
3977.69971 1.22901 0.01229 0.01007 0.00010
3978.66992 1.22844 0.01228 0.00902 0.00009
3979.62988 1.22841 0.01228 0.00828 0.00008
3980.58984 1.22867 0.01229 0.00745 0.00007
3981.55957 1.22953 0.01230 0.00666 0.00007
3982.51953 1.23063 0.01231 0.00692 0.00007
3983.48975 1.23093 0.01231 0.00802 0.00008
3984.44971 1.23035 0.01230 0.00853 0.00009
3985.41992 1.22975 0.01230 0.00819 0.00008
3986.37988 1.22955 0.01230 0.00763 0.00008
3987.33984 1.22956 0.01230 0.00713 0.00007
3988.30957 1.23001 0.01230 0.00627 0.00006
3989.26953 1.23109 0.01231 0.00582 0.00006
3990.23975 1.23198 0.01232 0.00658 0.00007
3991.19971 1.23208 0.01232 0.00728 0.00007
3992.16992 1.23194 0.01232 0.00744 0.00007
3993.12988 1.23195 0.01232 0.00751 0.00008
3994.08984 1.23200 0.01232 0.00762 0.00008
3995.05957 1.23208 0.01232 0.00764 0.00008
3996.01953 1.23222 0.01232 0.00773 0.00008
3996.98975 1.23232 0.01232 0.00795 0.00008
3997.94971 1.23226 0.01232 0.00821 0.00008
4000.00000 1.23200 0.01232 0.00830 0.00008
4001.80957 1.23168 0.01232 0.00809 0.00008
4002.76953 1.23190 0.01232 0.00767 0.00008
4003.73975 1.23237 0.01232 0.00767 0.00008
4004.69971 1.23279 0.01233 0.00806 0.00008
