#SUBSTANCE=Sulphuric acid
#DESCRIPTION=Refractive indices of 76 wt% sulphuric acid from 400 to 7500 cm-1 at 298 K
#TEMPERATURE=298 K
#CONCENTRATION=76 wt%
#DOI=10.1021/jp026576n
#REFERENCE=Spectroscopic Study of Aqueous H2SO4 at Different Temperatures and Compositions:  Variations in Dissociation and Optical Properties
##Cathrine E. Lund Myhre,†, Daniel H. Christensen,‡, Flemming M. Nicolaisen,‡ and, and Claus J. Nielsen*,†
##The Journal of Physical Chemistry A 2003 107 (12), 1979-1991 
#FORMAT=WAVN N K
7498.52083	1.41318	0.01445
7497.02072	1.41319	0.01443
7495.52061	1.41321	0.01441
7494.0205	1.41322	0.01439
7492.52039	1.4132	0.01437
7491.02027	1.41317	0.01437
7489.52016	1.41314	0.01438
7488.02005	1.41313	0.01438
7486.51994	1.41311	0.01439
7485.01983	1.41311	0.0144
7483.51971	1.41311	0.0144
7482.0196	1.41311	0.01441
7480.51949	1.41312	0.01441
7479.01938	1.41315	0.01441
7477.51927	1.41316	0.01441
7476.01916	1.41317	0.0144
7474.51904	1.41317	0.0144
7473.01893	1.41314	0.01439
7471.51882	1.41312	0.0144
7470.01871	1.41311	0.0144
7468.5186	1.4131	0.01441
7467.01848	1.41309	0.01442
7465.51837	1.41309	0.01443
7464.01826	1.4131	0.01444
7462.51815	1.41312	0.01446
7461.01804	1.41315	0.01447
7459.51793	1.41319	0.01447
7458.01781	1.41323	0.01445
7456.5177	1.41326	0.01444
7455.01759	1.41328	0.01441
7453.51748	1.41329	0.01439
7452.01737	1.41331	0.01435
7450.51725	1.41331	0.01432
7449.01714	1.4133	0.01429
7447.51703	1.41328	0.01426
7446.01692	1.41324	0.01423
7444.51681	1.41321	0.01422
7443.0167	1.41318	0.01421
7441.51658	1.41314	0.01422
7440.01647	1.41309	0.01422
7438.51636	1.41306	0.01425
7437.01625	1.41304	0.01427
7435.51614	1.41305	0.01429
7434.01602	1.41306	0.0143
7432.51591	1.41309	0.01431
7431.0158	1.41312	0.01431
7429.51569	1.41315	0.01431
7428.01558	1.41318	0.0143
7426.51547	1.4132	0.01429
7425.01535	1.41321	0.01426
7423.51524	1.41319	0.01424
7422.01513	1.41315	0.01422
7420.51502	1.41311	0.01421
7419.01491	1.41307	0.01421
7417.51479	1.41302	0.01423
7416.01468	1.41299	0.01425
7414.51457	1.41298	0.01428
7413.01446	1.41298	0.01431
7411.51435	1.41301	0.01434
7410.01424	1.41304	0.01436
7408.51412	1.41309	0.01437
7407.01401	1.41314	0.01437
7405.5139	1.41318	0.01437
7404.01379	1.41322	0.01435
7402.51368	1.41324	0.01434
7401.01356	1.41325	0.01431
7399.51345	1.41325	0.01429
7398.01334	1.41323	0.01425
7396.51323	1.41322	0.01424
7395.01312	1.4132	0.01422
7393.51301	1.41319	0.0142
7392.01289	1.41318	0.0142
7390.51278	1.41317	0.0142
7389.01267	1.41317	0.01419
7387.51256	1.41316	0.01419
7386.01245	1.41315	0.01419
7384.51233	1.41314	0.01419
7383.01222	1.41313	0.0142
7381.51211	1.41312	0.01421
7380.012	1.41312	0.01422
7378.51189	1.41313	0.01423
7377.01178	1.41314	0.01423
7375.51166	1.41316	0.01424
7374.01155	1.41318	0.01424
7372.51144	1.41321	0.01424
7371.01133	1.41324	0.01423
7369.51122	1.41326	0.01422
7368.0111	1.41328	0.0142
7366.51099	1.4133	0.01418
7365.01088	1.4133	0.01416
7363.51077	1.41331	0.01415
7362.01066	1.41332	0.01412
7360.51055	1.41334	0.01409
7359.01043	1.41334	0.01406
7357.51032	1.41335	0.01402
7356.01021	1.41335	0.01399
7354.5101	1.41335	0.01396
7353.00999	1.41335	0.01392
7351.50987	1.41335	0.01388
7350.00976	1.41332	0.01383
7348.50965	1.41329	0.0138
7347.00954	1.41323	0.01377
7345.50943	1.41318	0.01376
7344.00932	1.41314	0.01375
7342.5092	1.41309	0.01374
7341.00909	1.41304	0.01373
7339.50898	1.413	0.01373
7338.00887	1.41296	0.01374
7336.50876	1.41293	0.01376
7335.00864	1.41291	0.01378
7333.50853	1.41289	0.0138
7332.00842	1.41287	0.01382
7330.50831	1.41283	0.01384
7329.0082	1.4128	0.01387
7327.50809	1.41277	0.01391
7326.00797	1.41275	0.01395
7324.50786	1.41275	0.014
7323.00775	1.41277	0.01404
7321.50764	1.4128	0.01406
7320.00753	1.41285	0.01409
7318.50741	1.4129	0.01409
7317.0073	1.41294	0.0141
7315.50719	1.41297	0.01411
7314.00708	1.413	0.01412
7312.50697	1.41302	0.01412
7311.00686	1.41302	0.01411
7309.50674	1.41302	0.0141
7308.00663	1.41302	0.0141
7306.50652	1.41304	0.01409
7305.00641	1.41309	0.01409
7303.5063	1.41315	0.01406
7302.00619	1.41321	0.01403
7300.50607	1.41327	0.01399
7299.00596	1.4133	0.01394
7297.50585	1.41332	0.01388
7296.00574	1.41331	0.01381
7294.50563	1.41326	0.01376
7293.00551	1.4132	0.01371
7291.5054	1.41311	0.01368
7290.00529	1.41303	0.01367
7288.50518	1.41296	0.01367
7287.00507	1.41291	0.01368
7285.50496	1.41287	0.0137
7284.00484	1.41285	0.01373
7282.50473	1.41284	0.01376
7281.00462	1.41286	0.01379
7279.50451	1.41289	0.01381
7278.0044	1.41291	0.01381
7276.50428	1.41293	0.01381
7275.00417	1.41293	0.01381
7273.50406	1.41292	0.01381
7272.00395	1.41291	0.01381
7270.50384	1.4129	0.01382
7269.00373	1.41289	0.01382
7267.50361	1.41288	0.01383
7266.0035	1.41287	0.01384
7264.50339	1.41288	0.01385
7263.00328	1.4129	0.01386
7261.50317	1.41292	0.01387
7260.00305	1.41295	0.01388
7258.50294	1.41298	0.01388
7257.00283	1.41301	0.01387
7255.50272	1.41306	0.01384
7254.00261	1.41309	0.01381
7252.5025	1.41312	0.01378
7251.00238	1.41312	0.01374
7249.50227	1.41311	0.01371
7248.00216	1.41311	0.01368
7246.50205	1.41311	0.01364
7245.00194	1.4131	0.0136
7243.50182	1.41307	0.01355
7242.00171	1.41302	0.01352
7240.5016	1.41299	0.0135
7239.00149	1.41294	0.0135
7237.50138	1.41293	0.0135
7236.00127	1.4129	0.0135
7234.50115	1.41286	0.01349
7233.00104	1.41281	0.01348
7231.50093	1.41276	0.01349
7230.00082	1.41273	0.01352
7228.50071	1.41273	0.01356
7227.00059	1.41273	0.01359
7225.50048	1.41276	0.01361
7224.00037	1.41278	0.01361
7222.50026	1.41281	0.0136
7221.00015	1.41284	0.01359
7219.50004	1.41287	0.01359
7217.99992	1.41289	0.01358
7216.49981	1.41292	0.01355
7214.9997	1.41291	0.01351
7213.49959	1.4129	0.01347
7211.99948	1.41287	0.01343
7210.49936	1.41282	0.01341
7208.99925	1.41279	0.0134
7207.49914	1.41276	0.01339
7205.99903	1.41272	0.01338
7204.49892	1.41269	0.01338
7202.99881	1.41264	0.01339
7201.49869	1.41262	0.01341
7199.99858	1.41261	0.01342
7198.49847	1.41262	0.01344
7196.99836	1.41263	0.01344
7195.49825	1.41264	0.01343
7193.99813	1.41265	0.01342
7192.49802	1.41266	0.01341
7190.99791	1.41266	0.0134
7189.4978	1.41265	0.01339
7187.99769	1.41261	0.01338
7186.49758	1.41258	0.01338
7184.99746	1.41254	0.01337
7183.49735	1.4125	0.01337
7181.99724	1.41247	0.01338
7180.49713	1.41246	0.01339
7178.99702	1.41246	0.0134
7177.4969	1.41247	0.01342
7175.99679	1.41248	0.01342
7174.49668	1.41249	0.01342
7172.99657	1.41248	0.01342
7171.49646	1.41246	0.01341
7169.99635	1.41242	0.01342
7168.49623	1.41237	0.01344
7166.99612	1.41233	0.01347
7165.49601	1.41232	0.0135
7163.9959	1.41232	0.01352
7162.49579	1.41233	0.01354
7160.99567	1.41235	0.01357
7159.49556	1.4124	0.01358
7157.99545	1.41244	0.0136
7156.49534	1.4125	0.0136
7154.99523	1.41255	0.01358
7153.49512	1.41258	0.01355
7151.995	1.41257	0.01352
7150.49489	1.41257	0.01349
7148.99478	1.41255	0.01347
7147.49467	1.41252	0.01344
7145.99456	1.4125	0.01343
7144.49444	1.41247	0.01342
7142.99433	1.41245	0.01341
7141.49422	1.41243	0.01341
7139.99411	1.41243	0.01341
7138.494	1.41243	0.01342
7136.99389	1.41244	0.01341
7135.49377	1.41245	0.01341
7133.99366	1.41246	0.01339
7132.49355	1.41247	0.01336
7130.99344	1.41247	0.01334
7129.49333	1.41245	0.0133
7127.99321	1.41241	0.01328
7126.4931	1.41236	0.01328
7124.99299	1.4123	0.01328
7123.49288	1.41225	0.01329
7121.99277	1.4122	0.01329
7120.49266	1.41215	0.01331
7118.99254	1.41211	0.01333
7117.49243	1.41209	0.01337
7115.99232	1.41209	0.01342
7114.49221	1.41211	0.01346
7112.9921	1.41213	0.01349
7111.49198	1.41216	0.01351
7109.99187	1.41218	0.01352
7108.49176	1.4122	0.01352
7106.99165	1.41222	0.01353
7105.49154	1.41223	0.01353
7103.99143	1.41223	0.01353
7102.49131	1.41223	0.01353
7100.9912	1.41224	0.01353
7099.49109	1.41224	0.01353
7097.99098	1.41224	0.01353
7096.49087	1.41225	0.01353
7094.99076	1.41225	0.01353
7093.49064	1.41227	0.01353
7091.99053	1.41229	0.01353
7090.49042	1.41232	0.01352
7088.99031	1.41233	0.01351
7087.4902	1.41235	0.01348
7085.99008	1.41238	0.01345
7084.48997	1.41238	0.01342
7082.98986	1.41238	0.01338
7081.48975	1.41236	0.01336
7079.98964	1.41233	0.01333
7078.48953	1.41229	0.01332
7076.98941	1.41225	0.0133
7075.4893	1.4122	0.0133
7073.98919	1.41215	0.0133
7072.48908	1.41211	0.0133
7070.98897	1.41208	0.01333
7069.48885	1.41207	0.01335
7067.98874	1.41207	0.01338
7066.48863	1.41208	0.0134
7064.98852	1.41209	0.01341
7063.48841	1.41211	0.01342
7061.9883	1.41213	0.01342
7060.48818	1.41215	0.01342
7058.98807	1.41215	0.01341
7057.48796	1.41216	0.0134
7055.98785	1.41214	0.01339
7054.48774	1.41213	0.01338
7052.98762	1.41211	0.01338
7051.48751	1.4121	0.01337
7049.9874	1.41208	0.01337
7048.48729	1.41206	0.01337
7046.98718	1.41203	0.01338
7045.48707	1.41202	0.0134
7043.98695	1.41201	0.01342
7042.48684	1.41201	0.01344
7040.98673	1.41201	0.01345
7039.48662	1.41201	0.01347
7037.98651	1.41202	0.01348
7036.48639	1.41204	0.01349
7034.98628	1.41207	0.01349
7033.48617	1.4121	0.01349
7031.98606	1.41212	0.01349
7030.48595	1.41214	0.01347
7028.98584	1.41216	0.01345
7027.48572	1.41216	0.01344
7025.98561	1.41216	0.01341
7024.4855	1.41215	0.0134
7022.98539	1.41213	0.01338
7021.48528	1.41212	0.01338
7019.98516	1.4121	0.01336
7018.48505	1.41209	0.01336
7016.98494	1.41208	0.01335
7015.48483	1.41206	0.01335
7013.98472	1.41205	0.01336
7012.48461	1.41205	0.01336
7010.98449	1.41205	0.01337
7009.48438	1.41205	0.01336
7007.98427	1.41205	0.01336
7006.48416	1.41204	0.01336
7004.98405	1.41204	0.01336
7003.48393	1.41204	0.01336
7001.98382	1.41205	0.01336
7000.48371	1.41206	0.01335
6998.9836	1.41206	0.01334
6997.48349	1.41206	0.01333
6995.98338	1.41206	0.01332
6994.48326	1.41206	0.01331
6992.98315	1.41205	0.0133
6991.48304	1.41204	0.01329
6989.98293	1.41203	0.01327
6988.48282	1.41202	0.01327
6986.9827	1.41199	0.01325
6985.48259	1.41197	0.01325
6983.98248	1.41194	0.01326
6982.48237	1.41191	0.01327
6980.98226	1.41191	0.01328
6979.48215	1.4119	0.01329
6977.98203	1.4119	0.01329
6976.48192	1.41189	0.01331
6974.98181	1.41189	0.01332
6973.4817	1.41191	0.01332
6971.98159	1.41194	0.01332
6970.48147	1.41195	0.01332
6968.98136	1.41196	0.0133
6967.48125	1.41196	0.0133
6965.98114	1.41195	0.01328
6964.48103	1.41195	0.01328
6962.98092	1.41194	0.01327
6961.4808	1.41193	0.01325
6959.98069	1.41192	0.01324
6958.48058	1.4119	0.01323
6956.98047	1.4119	0.01323
6955.48036	1.41189	0.01322
6953.98024	1.41189	0.01322
6952.48013	1.41187	0.01322
6950.98002	1.41186	0.01322
6949.47991	1.41183	0.01321
6947.9798	1.41182	0.01321
6946.47969	1.41179	0.01322
6944.97957	1.41177	0.01323
6943.47946	1.41175	0.01324
6941.97935	1.41174	0.01326
6940.47924	1.41174	0.01327
6938.97913	1.41175	0.01329
6937.47901	1.41176	0.0133
6935.9789	1.41177	0.01331
6934.47879	1.41177	0.01332
6932.97868	1.41179	0.01332
6931.47857	1.41181	0.01333
6929.97846	1.41181	0.01333
6928.47834	1.41182	0.01332
6926.97823	1.41182	0.01332
6925.47812	1.41183	0.01332
6923.97801	1.41183	0.01332
6922.4779	1.41184	0.01331
6920.97778	1.41186	0.01331
6919.47767	1.41187	0.0133
6917.97756	1.41189	0.01328
6916.47745	1.4119	0.01327
6914.97734	1.41192	0.01325
6913.47723	1.41194	0.01323
6911.97711	1.41196	0.01319
6910.477	1.41196	0.01316
6908.97689	1.41196	0.01312
6907.47678	1.41194	0.01308
6905.97667	1.41192	0.01305
6904.47656	1.41188	0.01302
6902.97644	1.41183	0.013
6901.47633	1.41178	0.01298
6899.97622	1.41172	0.01297
6898.47611	1.41166	0.01298
6896.976	1.41162	0.01299
6895.47588	1.41158	0.01302
6893.97577	1.41155	0.01304
6892.47566	1.41153	0.01307
6890.97555	1.41153	0.0131
6889.47544	1.41153	0.01313
6887.97533	1.41155	0.01316
6886.47521	1.41157	0.01317
6884.9751	1.4116	0.01318
6883.47499	1.41162	0.01318
6881.97488	1.41164	0.01318
6880.47477	1.41164	0.01317
6878.97465	1.41165	0.01317
6877.47454	1.41164	0.01315
6875.97443	1.41164	0.01315
6874.47432	1.41163	0.01313
6872.97421	1.41162	0.01313
6871.4741	1.41161	0.01312
6869.97398	1.4116	0.01312
6868.47387	1.41161	0.01312
6866.97376	1.41162	0.0131
6865.47365	1.41163	0.01309
6863.97354	1.41164	0.01307
6862.47342	1.41163	0.01305
6860.97331	1.41162	0.01303
6859.4732	1.4116	0.01301
6857.97309	1.41157	0.01299
6856.47298	1.41154	0.01298
6854.97287	1.41149	0.01296
6853.47275	1.41144	0.01296
6851.97264	1.41137	0.01297
6850.47253	1.41132	0.01299
6848.97242	1.41127	0.01302
6847.47231	1.41124	0.01306
6845.97219	1.41122	0.0131
6844.47208	1.41121	0.01315
6842.97197	1.41121	0.01319
6841.47186	1.41122	0.01324
6839.97175	1.41126	0.01328
6838.47164	1.41129	0.01331
6836.97152	1.41132	0.01333
6835.47141	1.41136	0.01334
6833.9713	1.41139	0.01336
6832.47119	1.41141	0.01337
6830.97108	1.41145	0.01338
6829.47096	1.41148	0.01338
6827.97085	1.41151	0.01337
6826.47074	1.41153	0.01335
6824.97063	1.41156	0.01334
6823.47052	1.41159	0.01332
6821.97041	1.41164	0.0133
6820.47029	1.41166	0.01326
6818.97018	1.41168	0.01322
6817.47007	1.41169	0.01318
6815.96996	1.41168	0.01314
6814.46985	1.41165	0.0131
6812.96973	1.41162	0.01307
6811.46962	1.41158	0.01304
6809.96951	1.41153	0.01303
6808.4694	1.41148	0.01302
6806.96929	1.41144	0.01303
6805.46918	1.41141	0.01304
6803.96906	1.41139	0.01306
6802.46895	1.41138	0.01307
6800.96884	1.41139	0.01309
6799.46873	1.4114	0.01311
6797.96862	1.4114	0.01312
6796.4685	1.41143	0.01313
6794.96839	1.41145	0.01313
6793.46828	1.41146	0.01312
6791.96817	1.41147	0.01311
6790.46806	1.41147	0.01309
6788.96795	1.41147	0.01308
6787.46783	1.41146	0.01306
6785.96772	1.41145	0.01304
6784.46761	1.41144	0.01304
6782.9675	1.41141	0.01303
6781.46739	1.41139	0.01303
6779.96727	1.41137	0.01303
6778.46716	1.41136	0.01303
6776.96705	1.41134	0.01303
6775.46694	1.41132	0.01304
6773.96683	1.41132	0.01306
6772.46672	1.41133	0.01307
6770.9666	1.41133	0.01308
6769.46649	1.41134	0.01308
6767.96638	1.41134	0.01308
6766.46627	1.41135	0.01309
6764.96616	1.41135	0.01309
6763.46604	1.41137	0.01309
6761.96593	1.41137	0.01309
6760.46582	1.41139	0.01308
6758.96571	1.4114	0.01307
6757.4656	1.41141	0.01305
6755.96549	1.41143	0.01303
6754.46537	1.41143	0.01302
6752.96526	1.41143	0.01299
6751.46515	1.41143	0.01297
6749.96504	1.41141	0.01295
6748.46493	1.41138	0.01293
6746.96481	1.41135	0.01293
6745.4647	1.41132	0.01292
6743.96459	1.41129	0.01292
6742.46448	1.41126	0.01293
6740.96437	1.41125	0.01293
6739.46426	1.41124	0.01295
6737.96414	1.41125	0.01295
6736.46403	1.41126	0.01296
6734.96392	1.41126	0.01296
6733.46381	1.41127	0.01296
6731.9637	1.41128	0.01296
6730.46358	1.41128	0.01296
6728.96347	1.41127	0.01295
6727.46336	1.41126	0.01295
6725.96325	1.41123	0.01295
6724.46314	1.41123	0.01295
6722.96303	1.41122	0.01295
6721.46291	1.41122	0.01295
6719.9628	1.41122	0.01294
6718.46269	1.41122	0.01294
6716.96258	1.41122	0.01295
6715.46247	1.41123	0.01295
6713.96236	1.41123	0.01295
6712.46224	1.41123	0.01294
6710.96213	1.41123	0.01294
6709.46202	1.41121	0.01293
6707.96191	1.4112	0.01293
6706.4618	1.4112	0.01293
6704.96168	1.41121	0.01293
6703.46157	1.41121	0.01293
6701.96146	1.41121	0.01292
6700.46135	1.41121	0.01292
6698.96124	1.41121	0.01292
6697.46113	1.41121	0.01292
6695.96101	1.41121	0.01291
6694.4609	1.41122	0.01291
6692.96079	1.41122	0.01289
6691.46068	1.41121	0.01288
6689.96057	1.41121	0.01287
6688.46045	1.41122	0.01286
6686.96034	1.41122	0.01286
6685.46023	1.41122	0.01284
6683.96012	1.41122	0.01283
6682.46001	1.41119	0.01281
6680.9599	1.41118	0.01281
6679.45978	1.41115	0.0128
6677.95967	1.41113	0.0128
6676.45956	1.41112	0.0128
6674.95945	1.41111	0.01281
6673.45934	1.4111	0.01281
6671.95922	1.4111	0.01282
6670.45911	1.4111	0.01282
6668.959	1.4111	0.01283
6667.45889	1.41111	0.01283
6665.95878	1.41111	0.01283
6664.45867	1.41112	0.01282
6662.95855	1.41112	0.01282
6661.45844	1.41112	0.01281
6659.95833	1.41112	0.01281
6658.45822	1.41113	0.0128
6656.95811	1.41113	0.01279
6655.45799	1.41113	0.01277
6653.95788	1.41112	0.01277
6652.45777	1.41111	0.01275
6650.95766	1.41109	0.01275
6649.45755	1.41109	0.01275
6647.95744	1.41107	0.01275
6646.45732	1.41106	0.01274
6644.95721	1.41106	0.01274
6643.4571	1.41106	0.01274
6641.95699	1.41106	0.01273
6640.45688	1.41107	0.01273
6638.95676	1.41107	0.01272
6637.45665	1.41107	0.01271
6635.95654	1.41107	0.0127
6634.45643	1.41105	0.01269
6632.95632	1.41103	0.01269
6631.45621	1.411	0.01269
6629.95609	1.41099	0.0127
6628.45598	1.41097	0.01271
6626.95587	1.41096	0.01273
6625.45576	1.41096	0.01274
6623.95565	1.41098	0.01275
6622.45553	1.411	0.01276
6620.95542	1.41103	0.01276
6619.45531	1.41108	0.01275
6617.9552	1.41112	0.01273
6616.45509	1.41114	0.0127
6614.95498	1.41116	0.01267
6613.45486	1.41116	0.01263
6611.95475	1.41115	0.0126
6610.45464	1.41114	0.01256
6608.95453	1.4111	0.01253
6607.45442	1.41106	0.0125
6605.9543	1.41101	0.0125
6604.45419	1.41097	0.01249
6602.95408	1.41093	0.0125
6601.45397	1.41091	0.01251
6599.95386	1.41089	0.01251
6598.45375	1.41088	0.01253
6596.95363	1.41088	0.01255
6595.45352	1.41089	0.01256
6593.95341	1.41091	0.01257
6592.4533	1.41092	0.01257
6590.95319	1.41095	0.01256
6589.45307	1.41096	0.01256
6587.95296	1.41097	0.01254
6586.45285	1.41097	0.01251
6584.95274	1.41097	0.0125
6583.45263	1.41096	0.01248
6581.95252	1.41095	0.01248
6580.4524	1.41094	0.01246
6578.95229	1.41093	0.01244
6577.45218	1.41091	0.01243
6575.95207	1.4109	0.01242
6574.45196	1.41089	0.0124
6572.95184	1.41088	0.01239
6571.45173	1.41087	0.01239
6569.95162	1.41086	0.01238
6568.45151	1.41084	0.01237
6566.9514	1.41081	0.01237
6565.45129	1.41079	0.01237
6563.95117	1.41077	0.01237
6562.45106	1.41075	0.01238
6560.95095	1.41074	0.01239
6559.45084	1.41072	0.01239
6557.95073	1.41072	0.01241
6556.45061	1.41073	0.01243
6554.9505	1.41074	0.01243
6553.45039	1.41076	0.01244
6551.95028	1.41077	0.01244
6550.45017	1.41079	0.01243
6548.95006	1.4108	0.01243
6547.44994	1.41082	0.01241
6545.94983	1.41083	0.01241
6544.44972	1.41083	0.01239
6542.94961	1.41084	0.01237
6541.4495	1.41084	0.01235
6539.94938	1.41084	0.01232
6538.44927	1.41084	0.0123
6536.94916	1.41084	0.01228
6535.44905	1.41084	0.01226
6533.94894	1.41083	0.01224
6532.44883	1.41083	0.01222
6530.94871	1.41081	0.01219
6529.4486	1.41079	0.01217
6527.94849	1.41077	0.01215
6526.44838	1.41074	0.01213
6524.94827	1.41072	0.01212
6523.44816	1.41069	0.01211
6521.94804	1.41067	0.01211
6520.44793	1.41065	0.0121
6518.94782	1.41063	0.0121
6517.44771	1.41062	0.0121
6515.9476	1.4106	0.01209
6514.44748	1.41059	0.01209
6512.94737	1.41058	0.0121
6511.44726	1.41057	0.01209
6509.94715	1.41057	0.01209
6508.44704	1.41057	0.01208
6506.94693	1.41055	0.01208
6505.44681	1.41054	0.01207
6503.9467	1.41053	0.01207
6502.44659	1.41051	0.01207
6500.94648	1.4105	0.01207
6499.44637	1.41048	0.01207
6497.94625	1.41047	0.01207
6496.44614	1.41045	0.01207
6494.94603	1.41045	0.01208
6493.44592	1.41045	0.01208
6491.94581	1.41045	0.01208
6490.4457	1.41047	0.01208
6488.94558	1.41049	0.01206
6487.44547	1.41049	0.01206
6485.94536	1.4105	0.01204
6484.44525	1.4105	0.01203
6482.94514	1.41049	0.01201
6481.44502	1.41048	0.012
6479.94491	1.41046	0.01198
6478.4448	1.41044	0.01196
6476.94469	1.41042	0.01196
6475.44458	1.4104	0.01195
6473.94447	1.41039	0.01195
6472.44435	1.4104	0.01194
6470.94424	1.41041	0.01194
6469.44413	1.41041	0.01192
6467.94402	1.4104	0.0119
6466.44391	1.4104	0.01189
6464.94379	1.41039	0.01188
6463.44368	1.41038	0.01185
6461.94357	1.41036	0.01183
6460.44346	1.41034	0.01182
6458.94335	1.4103	0.0118
6457.44324	1.41028	0.01179
6455.94312	1.41026	0.01178
6454.44301	1.41025	0.01178
6452.9429	1.41023	0.01177
6451.44279	1.41021	0.01176
6449.94268	1.4102	0.01176
6448.44256	1.41019	0.01175
6446.94245	1.41018	0.01174
6445.44234	1.41016	0.01173
6443.94223	1.41015	0.01172
6442.44212	1.41013	0.0117
6440.94201	1.41011	0.0117
6439.44189	1.41009	0.01168
6437.94178	1.41005	0.01168
6436.44167	1.41001	0.01168
6434.94156	1.40996	0.01169
6433.44145	1.40993	0.0117
6431.94133	1.4099	0.01172
6430.44122	1.40988	0.01173
6428.94111	1.40986	0.01176
6427.441	1.40986	0.01177
6425.94089	1.40986	0.0118
6424.44078	1.40988	0.01182
6422.94066	1.4099	0.01182
6421.44055	1.40992	0.01183
6419.94044	1.40993	0.01182
6418.44033	1.40994	0.01181
6416.94022	1.40995	0.0118
6415.4401	1.40995	0.01178
6413.93999	1.40994	0.01177
6412.43988	1.40994	0.01175
6410.93977	1.40992	0.01173
6409.43966	1.40992	0.01171
6407.93955	1.4099	0.01169
6406.43943	1.40988	0.01168
6404.93932	1.40985	0.01167
6403.43921	1.40982	0.01166
6401.9391	1.4098	0.01166
6400.43899	1.40977	0.01166
6398.93887	1.40974	0.01166
6397.43876	1.40971	0.01167
6395.93865	1.40969	0.01168
6394.43854	1.40968	0.01169
6392.93843	1.40967	0.0117
6391.43832	1.40967	0.01171
6389.9382	1.40967	0.01172
6388.43809	1.40968	0.01172
6386.93798	1.40968	0.01173
6385.43787	1.40969	0.01172
6383.93776	1.40969	0.01172
6382.43764	1.40968	0.01171
6380.93753	1.40968	0.01171
6379.43742	1.40967	0.0117
6377.93731	1.40966	0.0117
6376.4372	1.40965	0.01169
6374.93709	1.40964	0.01169
6373.43697	1.40963	0.01168
6371.93686	1.40963	0.01168
6370.43675	1.40962	0.01167
6368.93664	1.40962	0.01166
6367.43653	1.40961	0.01165
6365.93641	1.40961	0.01165
6364.4363	1.40959	0.01164
6362.93619	1.40958	0.01164
6361.43608	1.40956	0.01164
6359.93597	1.40954	0.01163
6358.43586	1.40954	0.01163
6356.93574	1.40953	0.01162
6355.43563	1.40953	0.01162
6353.93552	1.40953	0.01161
6352.43541	1.40953	0.0116
6350.9353	1.40952	0.01159
6349.43518	1.40952	0.01158
6347.93507	1.40951	0.01156
6346.43496	1.40948	0.01154
6344.93485	1.40945	0.01154
6343.43474	1.40941	0.01154
6341.93463	1.40938	0.01154
6340.43451	1.40936	0.01155
6338.9344	1.40934	0.01156
6337.43429	1.40932	0.01157
6335.93418	1.40932	0.01158
6334.43407	1.40932	0.0116
6332.93395	1.40932	0.0116
6331.43384	1.40935	0.01161
6329.93373	1.40937	0.0116
6328.43362	1.40938	0.01159
6326.93351	1.40938	0.01157
6325.4334	1.40938	0.01156
6323.93328	1.40937	0.01154
6322.43317	1.40936	0.01153
6320.93306	1.40934	0.01151
6319.43295	1.40931	0.01149
6317.93284	1.40928	0.01149
6316.43273	1.40926	0.01148
6314.93261	1.40924	0.01148
6313.4325	1.40921	0.01149
6311.93239	1.40921	0.01149
6310.43228	1.4092	0.01149
6308.93217	1.4092	0.01149
6307.43205	1.40919	0.01149
6305.93194	1.40919	0.01149
6304.43183	1.40919	0.01148
6302.93172	1.40919	0.01147
6301.43161	1.40919	0.01147
6299.9315	1.40918	0.01145
6298.43138	1.40917	0.01144
6296.93127	1.40916	0.01142
6295.43116	1.40914	0.01141
6293.93105	1.40912	0.01139
6292.43094	1.40909	0.01138
6290.93082	1.40906	0.01137
6289.43071	1.40903	0.01137
6287.9306	1.40899	0.01137
6286.43049	1.40896	0.01138
6284.93038	1.40893	0.01139
6283.43027	1.4089	0.01141
6281.93015	1.40889	0.01142
6280.43004	1.40888	0.01144
6278.92993	1.40888	0.01145
6277.42982	1.40889	0.01146
6275.92971	1.4089	0.01147
6274.42959	1.4089	0.01147
6272.92948	1.40891	0.01147
6271.42937	1.40891	0.01147
6269.92926	1.4089	0.01146
6268.42915	1.40889	0.01145
6266.92904	1.40887	0.01145
6265.42892	1.40885	0.01145
6263.92881	1.40884	0.01145
6262.4287	1.40882	0.01145
6260.92859	1.40881	0.01145
6259.42848	1.4088	0.01146
6257.92836	1.4088	0.01146
6256.42825	1.4088	0.01146
6254.92814	1.4088	0.01147
6253.42803	1.40881	0.01147
6251.92792	1.40881	0.01146
6250.42781	1.40881	0.01146
6248.92769	1.4088	0.01145
6247.42758	1.4088	0.01144
6245.92747	1.40878	0.01143
6244.42736	1.40877	0.01143
6242.92725	1.40876	0.01142
6241.42713	1.40875	0.01142
6239.92702	1.40873	0.01142
6238.42691	1.40873	0.01142
6236.9268	1.40871	0.01143
6235.42669	1.4087	0.01143
6233.92658	1.4087	0.01143
6232.42646	1.4087	0.01144
6230.92635	1.4087	0.01144
6229.42624	1.40871	0.01144
6227.92613	1.40872	0.01144
6226.42602	1.40873	0.01143
6224.9259	1.40874	0.01143
6223.42579	1.40874	0.01141
6221.92568	1.40875	0.01139
6220.42557	1.40876	0.01137
6218.92546	1.40876	0.01135
6217.42535	1.40876	0.01132
6215.92523	1.40876	0.01129
6214.42512	1.40875	0.01126
6212.92501	1.40874	0.01122
6211.4249	1.40872	0.01119
6209.92479	1.40869	0.01116
6208.42467	1.40864	0.01113
6206.92456	1.40859	0.01112
6205.42445	1.40853	0.0111
6203.92434	1.40848	0.0111
6202.42423	1.40842	0.01111
6200.92412	1.40836	0.01113
6199.424	1.40831	0.01115
6197.92389	1.40828	0.01119
6196.42378	1.40826	0.01122
6194.92367	1.40825	0.01126
6193.42356	1.40825	0.01129
6191.92344	1.40826	0.01133
6190.42333	1.40829	0.01134
6188.92322	1.40832	0.01135
6187.42311	1.40835	0.01136
6185.923	1.40837	0.01135
6184.42289	1.40839	0.01135
6182.92277	1.40839	0.01133
6181.42266	1.4084	0.01131
6179.92255	1.4084	0.0113
6178.42244	1.40838	0.01127
6176.92233	1.40835	0.01126
6175.42221	1.40833	0.01126
6173.9221	1.40831	0.01126
6172.42199	1.40829	0.01126
6170.92188	1.40828	0.01127
6169.42177	1.40827	0.01127
6167.92166	1.40827	0.01128
6166.42154	1.40827	0.01128
6164.92143	1.40829	0.01129
6163.42132	1.4083	0.01129
6161.92121	1.40833	0.01128
6160.4211	1.40834	0.01126
6158.92098	1.40836	0.01123
6157.42087	1.40837	0.0112
6155.92076	1.40837	0.01117
6154.42065	1.40836	0.01113
6152.92054	1.40834	0.0111
6151.42043	1.40831	0.01107
6149.92031	1.40826	0.01105
6148.4202	1.40821	0.01103
6146.92009	1.40816	0.01102
6145.41998	1.40811	0.01102
6143.91987	1.40806	0.01102
6142.41975	1.40803	0.01104
6140.91964	1.40801	0.01106
6139.41953	1.40799	0.01107
6137.91942	1.40798	0.0111
6136.41931	1.40798	0.01111
6134.9192	1.40799	0.01112
6133.41908	1.408	0.01113
6131.91897	1.40801	0.01113
6130.41886	1.40802	0.01112
6128.91875	1.40801	0.01111
6127.41864	1.40801	0.0111
6125.91853	1.408	0.0111
6124.41841	1.40799	0.01109
6122.9183	1.40798	0.01108
6121.41819	1.40795	0.01107
6119.91808	1.40794	0.01107
6118.41797	1.40792	0.01106
6116.91785	1.4079	0.01106
6115.41774	1.4079	0.01106
6113.91763	1.40789	0.01106
6112.41752	1.40789	0.01106
6110.91741	1.40788	0.01105
6109.4173	1.40787	0.01105
6107.91718	1.40786	0.01104
6106.41707	1.40785	0.01104
6104.91696	1.40783	0.01103
6103.41685	1.40782	0.01103
6101.91674	1.40779	0.01102
6100.41662	1.40777	0.01103
6098.91651	1.40775	0.01103
6097.4164	1.40772	0.01104
6095.91629	1.40771	0.01105
6094.41618	1.4077	0.01106
6092.91607	1.4077	0.01107
6091.41595	1.4077	0.01108
6089.91584	1.4077	0.01109
6088.41573	1.40771	0.01109
6086.91562	1.40773	0.01108
6085.41551	1.40775	0.01107
6083.91539	1.40776	0.01105
6082.41528	1.40776	0.01104
6080.91517	1.40775	0.01102
6079.41506	1.40773	0.01101
6077.91495	1.4077	0.011
6076.41484	1.40767	0.01099
6074.91472	1.40763	0.01099
6073.41461	1.4076	0.011
6071.9145	1.40758	0.01101
6070.41439	1.40758	0.01103
6068.91428	1.40759	0.01104
6067.41416	1.40762	0.01105
6065.91405	1.40765	0.01105
6064.41394	1.40768	0.01103
6062.91383	1.40771	0.01101
6061.41372	1.40772	0.01098
6059.91361	1.40772	0.01095
6058.41349	1.40771	0.01092
6056.91338	1.40769	0.01088
6055.41327	1.40764	0.01086
6053.91316	1.40759	0.01084
6052.41305	1.40755	0.01083
6050.91293	1.40751	0.01083
6049.41282	1.40748	0.01084
6047.91271	1.40745	0.01084
6046.4126	1.40744	0.01086
6044.91249	1.40743	0.01086
6043.41238	1.40744	0.01087
6041.91226	1.40744	0.01087
6040.41215	1.40745	0.01087
6038.91204	1.40745	0.01087
6037.41193	1.40745	0.01087
6035.91182	1.40744	0.01086
6034.4117	1.40744	0.01085
6032.91159	1.40742	0.01083
6031.41148	1.40741	0.01083
6029.91137	1.40739	0.01082
6028.41126	1.40738	0.01082
6026.91115	1.40737	0.01081
6025.41103	1.40736	0.01081
6023.91092	1.40735	0.01081
6022.41081	1.40734	0.0108
6020.9107	1.40734	0.0108
6019.41059	1.40733	0.01079
6017.91047	1.40733	0.01079
6016.41036	1.40732	0.01079
6014.91025	1.40732	0.01079
6013.41014	1.40732	0.01078
6011.91003	1.40732	0.01078
6010.40992	1.40732	0.01076
6008.9098	1.40732	0.01074
6007.40969	1.40732	0.01074
6005.90958	1.40732	0.01072
6004.40947	1.40732	0.01071
6002.90936	1.40732	0.01069
6001.40924	1.40731	0.01067
5999.90913	1.4073	0.01065
5998.40902	1.4073	0.01063
5996.90891	1.40728	0.0106
5995.4088	1.40727	0.01059
5993.90869	1.40726	0.01056
5992.40857	1.40724	0.01054
5990.90846	1.40723	0.01052
5989.40835	1.4072	0.01049
5987.90824	1.40718	0.01047
5986.40813	1.40715	0.01044
5984.90801	1.40713	0.01043
5983.4079	1.40709	0.01041
5981.90779	1.40705	0.0104
5980.40768	1.40702	0.0104
5978.90757	1.40698	0.01039
5977.40746	1.40695	0.01039
5975.90734	1.40691	0.0104
5974.40723	1.40688	0.0104
5972.90712	1.40685	0.01042
5971.40701	1.40684	0.01042
5969.9069	1.40683	0.01044
5968.40678	1.40683	0.01045
5966.90667	1.40683	0.01045
5965.40656	1.40683	0.01045
5963.90645	1.40683	0.01045
5962.40634	1.40682	0.01044
5960.90623	1.40682	0.01044
5959.40611	1.40681	0.01043
5957.906	1.40681	0.01042
5956.40589	1.40679	0.01041
5954.90578	1.40678	0.01039
5953.40567	1.40677	0.01038
5951.90555	1.40676	0.01037
5950.40544	1.40675	0.01036
5948.90533	1.40674	0.01034
5947.40522	1.40673	0.01033
5945.90511	1.40671	0.01031
5944.405	1.4067	0.01029
5942.90488	1.40667	0.01029
5941.40477	1.40665	0.01027
5939.90466	1.40663	0.01026
5938.40455	1.4066	0.01025
5936.90444	1.40659	0.01024
5935.40433	1.40657	0.01023
5933.90421	1.40655	0.01022
5932.4041	1.40653	0.01021
5930.90399	1.40651	0.01019
5929.40388	1.40649	0.01019
5927.90377	1.40646	0.01018
5926.40365	1.40643	0.01017
5924.90354	1.40639	0.01017
5923.40343	1.40634	0.01017
5921.90332	1.40631	0.01019
5920.40321	1.40629	0.0102
5918.9031	1.40627	0.01021
5917.40298	1.40627	0.01021
5915.90287	1.40627	0.01022
5914.40276	1.40628	0.01022
5912.90265	1.40628	0.01022
5911.40254	1.40629	0.01021
5909.90242	1.40629	0.0102
5908.40231	1.40629	0.01017
5906.9022	1.40627	0.01015
5905.40209	1.40625	0.01012
5903.90198	1.40622	0.01011
5902.40187	1.40618	0.01009
5900.90175	1.40614	0.01008
5899.40164	1.4061	0.01008
5897.90153	1.40606	0.01008
5896.40142	1.40602	0.01008
5894.90131	1.406	0.01008
5893.40119	1.40598	0.01009
5891.90108	1.40596	0.0101
5890.40097	1.40594	0.0101
5888.90086	1.40593	0.01011
5887.40075	1.40592	0.01011
5885.90064	1.40591	0.01012
5884.40052	1.40589	0.01012
5882.90041	1.40588	0.01012
5881.4003	1.40586	0.01012
5879.90019	1.40585	0.01012
5878.40008	1.40584	0.01011
5876.89996	1.40583	0.01011
5875.39985	1.40581	0.0101
5873.89974	1.4058	0.0101
5872.39963	1.40579	0.01009
5870.89952	1.40578	0.01008
5869.39941	1.40577	0.01007
5867.89929	1.40574	0.01006
5866.39918	1.40571	0.01005
5864.89907	1.40568	0.01005
5863.39896	1.40565	0.01005
5861.89885	1.40561	0.01006
5860.39873	1.40558	0.01006
5858.89862	1.40556	0.01007
5857.39851	1.40553	0.01008
5855.8984	1.40552	0.01009
5854.39829	1.4055	0.01011
5852.89818	1.40549	0.01012
5851.39806	1.40549	0.01014
5849.89795	1.4055	0.01015
5848.39784	1.4055	0.01015
5846.89773	1.4055	0.01015
5845.39762	1.4055	0.01015
5843.8975	1.4055	0.01015
5842.39739	1.40551	0.01015
5840.89728	1.40551	0.01013
5839.39717	1.40551	0.01013
5837.89706	1.4055	0.01011
5836.39695	1.4055	0.0101
5834.89683	1.40549	0.01007
5833.39672	1.40548	0.01005
5831.89661	1.40548	0.01004
5830.3965	1.40546	0.01001
5828.89639	1.40545	0.01
5827.39627	1.40542	0.00997
5825.89616	1.4054	0.00995
5824.39605	1.40537	0.00993
5822.89594	1.40534	0.00992
5821.39583	1.40529	0.0099
5819.89572	1.40525	0.0099
5818.3956	1.40522	0.00989
5816.89549	1.40518	0.00989
5815.39538	1.40513	0.00989
5813.89527	1.4051	0.0099
5812.39516	1.40507	0.00991
5810.89504	1.40504	0.00993
5809.39493	1.40503	0.00994
5807.89482	1.40501	0.00996
5806.39471	1.40499	0.00997
5804.8946	1.40498	0.00998
5803.39449	1.40497	0.00999
5801.89437	1.40497	0.01
5800.39426	1.40496	0.01001
5798.89415	1.40496	0.01001
5797.39404	1.40496	0.01001
5795.89393	1.40496	0.01001
5794.39381	1.40495	0.01001
5792.8937	1.40495	0.01
5791.39359	1.40495	0.01
5789.89348	1.40495	0.00999
5788.39337	1.40495	0.00997
5786.89326	1.40495	0.00995
5785.39314	1.40495	0.00993
5783.89303	1.40494	0.0099
5782.39292	1.40493	0.00987
5780.89281	1.4049	0.00984
5779.3927	1.40486	0.00982
5777.89258	1.40481	0.0098
5776.39247	1.40476	0.00978
5774.89236	1.4047	0.00978
5773.39225	1.40464	0.00978
5771.89214	1.40458	0.00979
5770.39203	1.40453	0.00982
5768.89191	1.40449	0.00984
5767.3918	1.40447	0.00986
5765.89169	1.40446	0.00989
5764.39158	1.40446	0.00991
5762.89147	1.40446	0.00993
5761.39135	1.40446	0.00994
5759.89124	1.40447	0.00995
5758.39113	1.40448	0.00995
5756.89102	1.40447	0.00995
5755.39091	1.40446	0.00994
5753.8908	1.40443	0.00994
5752.39068	1.4044	0.00994
5750.89057	1.40438	0.00995
5749.39046	1.40436	0.00996
5747.89035	1.40435	0.00996
5746.39024	1.40433	0.00996
5744.89013	1.40433	0.00997
5743.39001	1.40432	0.00998
5741.8899	1.40432	0.00999
5740.38979	1.40432	0.00999
5738.88968	1.40432	0.00999
5737.38957	1.40432	0.00999
5735.88945	1.40432	0.00998
5734.38934	1.40432	0.00997
5732.88923	1.40432	0.00995
5731.38912	1.40432	0.00994
5729.88901	1.40432	0.00992
5728.3889	1.4043	0.0099
5726.88878	1.4043	0.00988
5725.38867	1.40427	0.00985
5723.88856	1.40425	0.00983
5722.38845	1.40422	0.0098
5720.88834	1.40417	0.00979
5719.38822	1.40412	0.00978
5717.88811	1.40407	0.00977
5716.388	1.40401	0.00978
5714.88789	1.40396	0.0098
5713.38778	1.40391	0.00981
5711.88767	1.40386	0.00984
5710.38755	1.40383	0.00987
5708.88744	1.40379	0.00991
5707.38733	1.40378	0.00995
5705.88722	1.40379	0.00999
5704.38711	1.4038	0.01002
5702.88699	1.40383	0.01004
5701.38688	1.40386	0.01006
5699.88677	1.40389	0.01007
5698.38666	1.40393	0.01006
5696.88655	1.40396	0.01005
5695.38644	1.40398	0.01003
5693.88632	1.40398	0.01
5692.38621	1.40398	0.00997
5690.8861	1.40397	0.00995
5689.38599	1.40394	0.00992
5687.88588	1.40392	0.00991
5686.38576	1.40389	0.00988
5684.88565	1.40386	0.00987
5683.38554	1.40384	0.00986
5681.88543	1.40381	0.00985
5680.38532	1.40379	0.00984
5678.88521	1.40376	0.00984
5677.38509	1.40374	0.00984
5675.88498	1.40371	0.00985
5674.38487	1.40369	0.00985
5672.88476	1.40368	0.00985
5671.38465	1.40366	0.00986
5669.88453	1.40365	0.00986
5668.38442	1.40364	0.00986
5666.88431	1.40364	0.00986
5665.3842	1.40365	0.00986
5663.88409	1.40365	0.00985
5662.38398	1.40365	0.00983
5660.88386	1.40365	0.00981
5659.38375	1.40363	0.0098
5657.88364	1.40361	0.00978
5656.38353	1.40359	0.00977
5654.88342	1.40357	0.00975
5653.3833	1.40353	0.00974
5651.88319	1.4035	0.00972
5650.38308	1.40348	0.00971
5648.88297	1.40345	0.0097
5647.38286	1.40342	0.0097
5645.88275	1.40339	0.0097
5644.38263	1.40337	0.0097
5642.88252	1.40333	0.0097
5641.38241	1.40329	0.00971
5639.8823	1.40327	0.00972
5638.38219	1.40324	0.00972
5636.88207	1.40323	0.00973
5635.38196	1.40321	0.00974
5633.88185	1.40319	0.00975
5632.38174	1.40319	0.00975
5630.88163	1.4032	0.00975
5629.38152	1.4032	0.00975
5627.8814	1.40319	0.00974
5626.38129	1.40317	0.00973
5624.88118	1.40314	0.00972
5623.38107	1.40311	0.00972
5621.88096	1.40308	0.00972
5620.38084	1.40304	0.00972
5618.88073	1.403	0.00974
5617.38062	1.40297	0.00976
5615.88051	1.40294	0.00977
5614.3804	1.40292	0.00981
5612.88029	1.40292	0.00983
5611.38017	1.40294	0.00985
5609.88006	1.40297	0.00986
5608.37995	1.403	0.00986
5606.87984	1.40303	0.00984
5605.37973	1.40306	0.00983
5603.87961	1.40308	0.00981
5602.3795	1.40308	0.00977
5600.87939	1.40307	0.00973
5599.37928	1.40304	0.0097
5597.87917	1.403	0.00967
5596.37906	1.40296	0.00964
5594.87894	1.4029	0.00963
5593.37883	1.40285	0.00963
5591.87872	1.4028	0.00963
5590.37861	1.40276	0.00964
5588.8785	1.40274	0.00965
5587.37838	1.40271	0.00967
5585.87827	1.40271	0.00967
5584.37816	1.4027	0.00969
5582.87805	1.40269	0.0097
5581.37794	1.40269	0.0097
5579.87783	1.40268	0.00971
5578.37771	1.40267	0.00971
5576.8776	1.40265	0.00971
5575.37749	1.40264	0.00971
5573.87738	1.40262	0.00972
5572.37727	1.40262	0.00972
5570.87715	1.40262	0.00972
5569.37704	1.40262	0.00971
5567.87693	1.40262	0.0097
5566.37682	1.40262	0.0097
5564.87671	1.40262	0.00968
5563.3766	1.40262	0.00966
5561.87648	1.40261	0.00965
5560.37637	1.40259	0.00962
5558.87626	1.40255	0.00961
5557.37615	1.40251	0.0096
5555.87604	1.40248	0.0096
5554.37592	1.40244	0.0096
5552.87581	1.40241	0.00961
5551.3757	1.40238	0.00961
5549.87559	1.40235	0.00963
5548.37548	1.40234	0.00964
5546.87537	1.40235	0.00966
5545.37525	1.40236	0.00966
5543.87514	1.40237	0.00966
5542.37503	1.40238	0.00966
5540.87492	1.40238	0.00965
5539.37481	1.40238	0.00963
5537.8747	1.40238	0.00962
5536.37458	1.40237	0.00959
5534.87447	1.40235	0.00958
5533.37436	1.40231	0.00956
5531.87425	1.40228	0.00956
5530.37414	1.40226	0.00955
5528.87402	1.40223	0.00955
5527.37391	1.40221	0.00955
5525.8738	1.40219	0.00955
5524.37369	1.40217	0.00956
5522.87358	1.40217	0.00956
5521.37347	1.40217	0.00956
5519.87335	1.40219	0.00955
5518.37324	1.4022	0.00954
5516.87313	1.4022	0.00952
5515.37302	1.40219	0.0095
5513.87291	1.40217	0.00948
5512.37279	1.40216	0.00946
5510.87268	1.40213	0.00945
5509.37257	1.4021	0.00943
5507.87246	1.40205	0.00942
5506.37235	1.40202	0.0094
5504.87224	1.402	0.0094
5503.37212	1.40198	0.0094
5501.87201	1.40197	0.0094
5500.3719	1.40195	0.0094
5498.87179	1.40192	0.0094
5497.37168	1.40191	0.00941
5495.87156	1.40189	0.00941
5494.37145	1.40188	0.00941
5492.87134	1.40187	0.00942
5491.37123	1.40186	0.00941
5489.87112	1.40188	0.0094
5488.37101	1.40189	0.00939
5486.87089	1.40191	0.00936
5485.37078	1.40193	0.00933
5483.87067	1.40192	0.0093
5482.37056	1.4019	0.00927
5480.87045	1.40187	0.00923
5479.37033	1.40183	0.00919
5477.87022	1.40177	0.00916
5476.37011	1.4017	0.00914
5474.87	1.40163	0.00913
5473.36989	1.40157	0.00914
5471.86978	1.40153	0.00915
5470.36966	1.40151	0.00916
5468.86955	1.40148	0.00918
5467.36944	1.40145	0.00918
5465.86933	1.40143	0.0092
5464.36922	1.40141	0.00922
5462.8691	1.4014	0.00924
5461.36899	1.40139	0.00926
5459.86888	1.40138	0.00926
5458.36877	1.40137	0.00927
5456.86866	1.40138	0.00927
5455.36855	1.40139	0.00927
5453.86843	1.4014	0.00927
5452.36832	1.40141	0.00926
5450.86821	1.40141	0.00926
5449.3681	1.40141	0.00924
5447.86799	1.4014	0.00923
5446.36787	1.40139	0.0092
5444.86776	1.40138	0.00918
5443.36765	1.40138	0.00916
5441.86754	1.40136	0.00913
5440.36743	1.40135	0.00911
5438.86732	1.40133	0.00908
5437.3672	1.40131	0.00907
5435.86709	1.40128	0.00905
5434.36698	1.40124	0.00903
5432.86687	1.4012	0.00903
5431.36676	1.40117	0.00902
5429.86664	1.40114	0.00902
5428.36653	1.40112	0.00901
5426.86642	1.40112	0.009
5425.36631	1.40114	0.00898
5423.8662	1.40115	0.00895
5422.36609	1.40116	0.00893
5420.86597	1.40114	0.0089
5419.36586	1.40111	0.00887
5417.86575	1.40106	0.00884
5416.36564	1.401	0.00881
5414.86553	1.40094	0.00879
5413.36541	1.40086	0.00878
5411.8653	1.40079	0.00879
5410.36519	1.40074	0.0088
5408.86508	1.40073	0.00881
5407.36497	1.40074	0.00881
5405.86486	1.40074	0.00881
5404.36474	1.40073	0.00881
5402.86463	1.40071	0.00881
5401.36452	1.40068	0.00881
5399.86441	1.40066	0.00881
5398.3643	1.40063	0.0088
5396.86418	1.4006	0.00879
5395.36407	1.40055	0.00878
5393.86396	1.40051	0.00878
5392.36385	1.40049	0.0088
5390.86374	1.40051	0.00881
5389.36363	1.40053	0.00879
5387.86351	1.40054	0.00877
5386.3634	1.40053	0.00873
5384.86329	1.40049	0.00871
5383.36318	1.40045	0.00871
5381.86307	1.40041	0.00871
5380.36295	1.40038	0.00871
5378.86284	1.40033	0.00869
5377.36273	1.40028	0.00867
5375.86262	1.40023	0.00867
5374.36251	1.4002	0.00869
5372.8624	1.4002	0.00871
5371.36228	1.40022	0.00873
5369.86217	1.40024	0.00872
5368.36206	1.40027	0.00869
5366.86195	1.40028	0.00866
5365.36184	1.40028	0.00861
5363.86172	1.40026	0.00857
5362.36161	1.40022	0.00855
5360.8615	1.40016	0.00852
5359.36139	1.4001	0.00849
5357.86128	1.40004	0.00847
5356.36117	1.39996	0.00844
5354.86105	1.39988	0.00845
5353.36094	1.39981	0.00847
5351.86083	1.39977	0.0085
5350.36072	1.39976	0.00853
5348.86061	1.39977	0.00854
5347.3605	1.39977	0.00854
5345.86038	1.39977	0.00854
5344.36027	1.39974	0.00855
5342.86016	1.39974	0.00855
5341.36005	1.39975	0.00855
5339.85994	1.39976	0.00853
5338.35982	1.39974	0.00851
5336.85971	1.39969	0.00848
5335.3596	1.39966	0.00847
5333.85949	1.39964	0.00846
5332.35938	1.39964	0.00844
5330.85927	1.39964	0.00842
5329.35915	1.39961	0.00839
5327.85904	1.39957	0.00836
5326.35893	1.39953	0.00834
5324.85882	1.39951	0.00833
5323.35871	1.39949	0.00831
5321.85859	1.39946	0.00829
5320.35848	1.39941	0.00825
5318.85837	1.39936	0.00822
5317.35826	1.3993	0.0082
5315.85815	1.39925	0.0082
5314.35804	1.3992	0.0082
5312.85792	1.39914	0.00819
5311.35781	1.39909	0.00819
5309.8577	1.39901	0.0082
5308.35759	1.39896	0.00821
5306.85748	1.39892	0.00824
5305.35736	1.3989	0.00825
5303.85725	1.39889	0.00826
5302.35714	1.39888	0.00826
5300.85703	1.39887	0.00826
5299.35692	1.39885	0.00825
5297.85681	1.39884	0.00825
5296.35669	1.39882	0.00824
5294.85658	1.39879	0.00823
5293.35647	1.39874	0.00821
5291.85636	1.39868	0.0082
5290.35625	1.39861	0.0082
5288.85613	1.39856	0.00821
5287.35602	1.39851	0.00822
5285.85591	1.39848	0.00823
5284.3558	1.39846	0.00824
5282.85569	1.39843	0.00825
5281.35558	1.39841	0.00826
5279.85546	1.39839	0.00827
5278.35535	1.39837	0.00827
5276.85524	1.39835	0.00827
5275.35513	1.39832	0.00827
5273.85502	1.39828	0.00826
5272.3549	1.39823	0.00827
5270.85479	1.39819	0.00828
5269.35468	1.39816	0.00829
5267.85457	1.39813	0.0083
5266.35446	1.3981	0.0083
5264.85435	1.39808	0.00831
5263.35423	1.39806	0.00832
5261.85412	1.39803	0.00832
5260.35401	1.39803	0.00833
5258.8539	1.39802	0.00832
5257.35379	1.398	0.00832
5255.85367	1.39796	0.00831
5254.35356	1.3979	0.00831
5252.85345	1.39785	0.00833
5251.35334	1.39781	0.00834
5249.85323	1.39777	0.00836
5248.35312	1.39773	0.00837
5246.853	1.3977	0.0084
5245.35289	1.39768	0.00841
5243.85278	1.39768	0.00844
5242.35267	1.3977	0.00846
5240.85256	1.39771	0.00846
5239.35244	1.39773	0.00846
5237.85233	1.39773	0.00844
5236.35222	1.39772	0.00842
5234.85211	1.39769	0.00841
5233.352	1.39765	0.0084
5231.85189	1.3976	0.0084
5230.35177	1.39756	0.00839
5228.85166	1.39752	0.00839
5227.35155	1.39749	0.0084
5225.85144	1.39745	0.0084
5224.35133	1.39743	0.00841
5222.85121	1.39742	0.00843
5221.3511	1.39743	0.00843
5219.85099	1.39745	0.00842
5218.35088	1.39745	0.00841
5216.85077	1.39743	0.00838
5215.35066	1.39738	0.00837
5213.85054	1.39734	0.00837
5212.35043	1.3973	0.00837
5210.85032	1.39726	0.00836
5209.35021	1.3972	0.00835
5207.8501	1.39714	0.00836
5206.34998	1.39709	0.00838
5204.84987	1.39707	0.00841
5203.34976	1.39707	0.00843
5201.84965	1.39708	0.00844
5200.34954	1.39709	0.00844
5198.84943	1.39708	0.00843
5197.34931	1.39707	0.00842
5195.8492	1.39705	0.00841
5194.34909	1.39704	0.00841
5192.84898	1.39701	0.0084
5191.34887	1.39698	0.00838
5189.84875	1.39694	0.00837
5188.34864	1.39689	0.00836
5186.84853	1.39684	0.00836
5185.34842	1.3968	0.00837
5183.84831	1.39677	0.00838
5182.3482	1.39674	0.0084
5180.84808	1.39671	0.0084
5179.34797	1.39669	0.00842
5177.84786	1.39666	0.00843
5176.34775	1.39665	0.00843
5174.84764	1.39663	0.00845
5173.34752	1.39662	0.00845
5171.84741	1.3966	0.00846
5170.3473	1.39659	0.00846
5168.84719	1.39657	0.00847
5167.34708	1.39655	0.00847
5165.84697	1.39653	0.00847
5164.34685	1.3965	0.00848
5162.84674	1.39648	0.00849
5161.34663	1.39646	0.0085
5159.84652	1.39646	0.0085
5158.34641	1.39645	0.0085
5156.8463	1.39645	0.0085
5155.34618	1.39645	0.00849
5153.84607	1.39645	0.00848
5152.34596	1.39645	0.00847
5150.84585	1.39643	0.00846
5149.34574	1.39642	0.00843
5147.84562	1.39639	0.00841
5146.34551	1.39635	0.00839
5144.8454	1.39632	0.00837
5143.34529	1.39627	0.00837
5141.84518	1.39621	0.00837
5140.34507	1.39617	0.00837
5138.84495	1.39613	0.00838
5137.34484	1.3961	0.00838
5135.84473	1.39607	0.0084
5134.34462	1.39604	0.00842
5132.84451	1.39603	0.00843
5131.34439	1.39602	0.00845
5129.84428	1.39602	0.00845
5128.34417	1.39602	0.00845
5126.84406	1.39601	0.00845
5125.34395	1.396	0.00844
5123.84384	1.39599	0.00843
5122.34372	1.39598	0.00843
5120.84361	1.39596	0.00842
5119.3435	1.39594	0.00841
5117.84339	1.3959	0.0084
5116.34328	1.39587	0.00839
5114.84316	1.39585	0.00839
5113.34305	1.39582	0.00838
5111.84294	1.3958	0.00838
5110.34283	1.39578	0.00838
5108.84272	1.39577	0.00837
5107.34261	1.39575	0.00837
5105.84249	1.39573	0.00836
5104.34238	1.3957	0.00836
5102.84227	1.39567	0.00836
5101.34216	1.39564	0.00836
5099.84205	1.39561	0.00836
5098.34193	1.39558	0.00836
5096.84182	1.39556	0.00836
5095.34171	1.39554	0.00837
5093.8416	1.39552	0.00837
5092.34149	1.39552	0.00838
5090.84138	1.39551	0.00837
5089.34126	1.3955	0.00837
5087.84115	1.39549	0.00837
5086.34104	1.39549	0.00836
5084.84093	1.39547	0.00835
5083.34082	1.39545	0.00834
5081.8407	1.39543	0.00833
5080.34059	1.3954	0.00832
5078.84048	1.39538	0.00832
5077.34037	1.39535	0.00832
5075.84026	1.39535	0.00831
5074.34015	1.39534	0.0083
5072.84003	1.39533	0.00829
5071.33992	1.39533	0.00827
5069.83981	1.39532	0.00826
5068.3397	1.39531	0.00823
5066.83959	1.3953	0.00821
5065.33947	1.39529	0.00817
5063.83936	1.39525	0.00813
5062.33925	1.3952	0.00811
5060.83914	1.39513	0.00809
5059.33903	1.39508	0.00809
5057.83892	1.39503	0.00808
5056.3388	1.39497	0.00808
5054.83869	1.39492	0.00808
5053.33858	1.39487	0.0081
5051.83847	1.39484	0.00811
5050.33836	1.3948	0.00814
5048.83824	1.39479	0.00816
5047.33813	1.39478	0.00817
5045.83802	1.39478	0.00819
5044.33791	1.39477	0.00819
5042.8378	1.39476	0.0082
5041.33769	1.39476	0.00821
5039.83757	1.39476	0.00821
5038.33746	1.39476	0.00821
5036.83735	1.39476	0.0082
5035.33724	1.39476	0.00819
5033.83713	1.39476	0.00817
5032.33701	1.39477	0.00814
5030.8369	1.39477	0.00813
5029.33679	1.39477	0.0081
5027.83668	1.39477	0.00807
5026.33657	1.39475	0.00803
5024.83646	1.39473	0.008
5023.33634	1.39469	0.00796
5021.83623	1.39465	0.00794
5020.33612	1.3946	0.00791
5018.83601	1.39456	0.0079
5017.3359	1.39452	0.00788
5015.83578	1.39448	0.00787
5014.33567	1.39446	0.00786
5012.83556	1.39444	0.00784
5011.33545	1.39442	0.00783
5009.83534	1.3944	0.00781
5008.33523	1.39439	0.00779
5006.83511	1.39436	0.00777
5005.335	1.39433	0.00775
5003.83489	1.3943	0.00772
5002.33478	1.39424	0.00769
5000.83467	1.39419	0.00768
4999.33455	1.39414	0.00767
4997.83444	1.39409	0.00767
4996.33433	1.39405	0.00767
4994.83422	1.39402	0.00766
4993.33411	1.39399	0.00766
4991.834	1.39396	0.00766
4990.33388	1.39395	0.00765
4988.83377	1.39394	0.00763
4987.33366	1.39394	0.00762
4985.83355	1.39392	0.0076
4984.33344	1.39389	0.00758
4982.83332	1.39385	0.00754
4981.33321	1.3938	0.00752
4979.8331	1.39375	0.0075
4978.33299	1.39369	0.00749
4976.83288	1.39363	0.00748
4975.33277	1.39357	0.00748
4973.83265	1.39352	0.00748
4972.33254	1.39348	0.0075
4970.83243	1.39344	0.0075
4969.33232	1.39341	0.00752
4967.83221	1.39339	0.00753
4966.3321	1.39338	0.00754
4964.83198	1.39337	0.00754
4963.33187	1.39336	0.00753
4961.83176	1.39335	0.00752
4960.33165	1.39334	0.00751
4958.83154	1.39332	0.0075
4957.33142	1.3933	0.00749
4955.83131	1.39327	0.00747
4954.3312	1.39324	0.00747
4952.83109	1.39321	0.00745
4951.33098	1.39318	0.00744
4949.83087	1.39315	0.00742
4948.33075	1.39313	0.0074
4946.83064	1.39312	0.00739
4945.33053	1.3931	0.00737
4943.83042	1.39309	0.00736
4942.33031	1.39307	0.00732
4940.83019	1.39304	0.00729
4939.33008	1.39301	0.00726
4937.82997	1.39296	0.00725
4936.32986	1.3929	0.00723
4934.82975	1.39285	0.00721
4933.32964	1.39278	0.00721
4931.82952	1.39274	0.0072
4930.32941	1.39269	0.0072
4928.8293	1.39265	0.0072
4927.32919	1.39263	0.0072
4925.82908	1.39261	0.00721
4924.32896	1.39261	0.00721
4922.82885	1.3926	0.0072
4921.32874	1.39258	0.0072
4919.82863	1.39257	0.00717
4918.32852	1.39255	0.00715
4916.82841	1.39253	0.00713
4915.32829	1.3925	0.00711
4913.82818	1.39247	0.00709
4912.32807	1.39245	0.00706
4910.82796	1.39243	0.00703
4909.32785	1.3924	0.007
4907.82773	1.39237	0.00697
4906.32762	1.39234	0.00694
4904.82751	1.39231	0.00691
4903.3274	1.39226	0.00687
4901.82729	1.39222	0.00684
4900.32718	1.39217	0.00682
4898.82706	1.3921	0.00679
4897.32695	1.39205	0.00678
4895.82684	1.39199	0.00676
4894.32673	1.39194	0.00674
4892.82662	1.3919	0.00673
4891.3265	1.39185	0.00672
4889.82639	1.39181	0.00671
4888.32628	1.39177	0.00669
4886.82617	1.39174	0.00668
4885.32606	1.39169	0.00665
4883.82595	1.39165	0.00664
4882.32583	1.39159	0.00662
4880.82572	1.39153	0.00661
4879.32561	1.39146	0.0066
4877.8255	1.3914	0.0066
4876.32539	1.39134	0.0066
4874.82527	1.39129	0.0066
4873.32516	1.39124	0.0066
4871.82505	1.3912	0.00661
4870.32494	1.39117	0.00661
4868.82483	1.39114	0.00662
4867.32472	1.39112	0.00662
4865.8246	1.39109	0.00661
4864.32449	1.39106	0.00661
4862.82438	1.39103	0.0066
4861.32427	1.391	0.00659
4859.82416	1.39096	0.00658
4858.32404	1.39093	0.00656
4856.82393	1.39089	0.00654
4855.32382	1.39086	0.00653
4853.82371	1.39082	0.00651
4852.3236	1.39078	0.0065
4850.82349	1.39074	0.00648
4849.32337	1.39069	0.00647
4847.82326	1.39065	0.00645
4846.32315	1.3906	0.00644
4844.82304	1.39055	0.00643
4843.32293	1.3905	0.00641
4841.82281	1.39046	0.0064
4840.3227	1.39041	0.00639
4838.82259	1.39038	0.00638
4837.32248	1.39033	0.00637
4835.82237	1.39028	0.00637
4834.32226	1.39023	0.00636
4832.82214	1.39019	0.00636
4831.32203	1.39014	0.00635
4829.82192	1.39009	0.00635
4828.32181	1.39005	0.00634
4826.8217	1.39	0.00634
4825.32158	1.38995	0.00634
4823.82147	1.38992	0.00635
4822.32136	1.38987	0.00635
4820.82125	1.38984	0.00635
4819.32114	1.3898	0.00634
4817.82103	1.38977	0.00634
4816.32091	1.38973	0.00634
4814.8208	1.3897	0.00634
4813.32069	1.38967	0.00634
4811.82058	1.38964	0.00633
4810.32047	1.3896	0.00633
4808.82035	1.38958	0.00632
4807.32024	1.38955	0.00631
4805.82013	1.38952	0.0063
4804.32002	1.3895	0.00628
4802.81991	1.38948	0.00626
4801.3198	1.38947	0.00625
4799.81968	1.38944	0.00622
4798.31957	1.38942	0.00619
4796.81946	1.38937	0.00616
4795.31935	1.38932	0.00613
4793.81924	1.38928	0.0061
4792.31912	1.38923	0.00608
4790.81901	1.38917	0.00606
4789.3189	1.38911	0.00603
4787.81879	1.38905	0.00602
4786.31868	1.38899	0.00601
4784.81857	1.38895	0.006
4783.31845	1.38891	0.00599
4781.81834	1.38886	0.00598
4780.31823	1.38881	0.00597
4778.81812	1.38878	0.00596
4777.31801	1.38874	0.00594
4775.81789	1.38869	0.00592
4774.31778	1.38865	0.00591
4772.81767	1.3886	0.00589
4771.31756	1.38855	0.00588
4769.81745	1.38851	0.00585
4768.31734	1.38845	0.00584
4766.81722	1.3884	0.00582
4765.31711	1.38834	0.00581
4763.817	1.38829	0.0058
4762.31689	1.38824	0.00578
4760.81678	1.38819	0.00577
4759.31667	1.38813	0.00576
4757.81655	1.38807	0.00576
4756.31644	1.38801	0.00575
4754.81633	1.38796	0.00575
4753.31622	1.38791	0.00575
4751.81611	1.38787	0.00574
4750.31599	1.38782	0.00574
4748.81588	1.38777	0.00574
4747.31577	1.38774	0.00573
4745.81566	1.3877	0.00573
4744.31555	1.38766	0.00573
4742.81544	1.38763	0.00572
4741.31532	1.38758	0.00571
4739.81521	1.38755	0.00569
4738.3151	1.38751	0.00568
4736.81499	1.38748	0.00566
4735.31488	1.38745	0.00565
4733.81476	1.38741	0.00562
4732.31465	1.38738	0.0056
4730.81454	1.38734	0.00557
4729.31443	1.3873	0.00553
4727.81432	1.38725	0.00551
4726.31421	1.38719	0.00548
4724.81409	1.38713	0.00546
4723.31398	1.38707	0.00543
4721.81387	1.38701	0.00541
4720.31376	1.38695	0.00539
4718.81365	1.38688	0.00537
4717.31353	1.38683	0.00535
4715.81342	1.38678	0.00533
4714.31331	1.38674	0.00531
4712.8132	1.3867	0.00528
4711.31309	1.38666	0.00524
4709.81298	1.38662	0.0052
4708.31286	1.38657	0.00515
4706.81275	1.38649	0.00511
4705.31264	1.3864	0.00506
4703.81253	1.38631	0.00502
4702.31242	1.38619	0.00498
4700.8123	1.38605	0.00497
4699.31219	1.3859	0.00496
4697.81208	1.38575	0.00498
4696.31197	1.38562	0.00502
4694.81186	1.38551	0.00507
4693.31175	1.38543	0.00512
4691.81163	1.38535	0.00518
4690.31152	1.3853	0.00524
4688.81141	1.38527	0.00529
4687.3113	1.38527	0.00534
4685.81119	1.38528	0.00538
4684.31107	1.38529	0.00539
4682.81096	1.3853	0.0054
4681.31085	1.38531	0.00538
4679.81074	1.38531	0.00536
4678.31063	1.38529	0.00532
4676.81052	1.38525	0.00528
4675.3104	1.3852	0.00524
4673.81029	1.38512	0.0052
4672.31018	1.38504	0.00517
4670.81007	1.38494	0.00514
4669.30996	1.38485	0.00513
4667.80984	1.38476	0.00513
4666.30973	1.38467	0.00513
4664.80962	1.3846	0.00515
4663.30951	1.38454	0.00516
4661.8094	1.38449	0.00518
4660.30929	1.38444	0.00519
4658.80917	1.38441	0.0052
4657.30906	1.38438	0.0052
4655.80895	1.38435	0.0052
4654.30884	1.38432	0.0052
4652.80873	1.38429	0.00518
4651.30861	1.38425	0.00515
4649.8085	1.3842	0.00513
4648.30839	1.38416	0.0051
4646.80828	1.3841	0.00507
4645.30817	1.38403	0.00505
4643.80806	1.38396	0.00502
4642.30794	1.38389	0.005
4640.80783	1.38381	0.00497
4639.30772	1.38373	0.00496
4637.80761	1.38366	0.00494
4636.3075	1.38358	0.00494
4634.80738	1.38349	0.00493
4633.30727	1.38341	0.00493
4631.80716	1.38334	0.00493
4630.30705	1.38327	0.00493
4628.80694	1.38319	0.00492
4627.30683	1.38312	0.00492
4625.80671	1.38306	0.00493
4624.3066	1.38299	0.00493
4622.80649	1.38294	0.00492
4621.30638	1.38288	0.00491
4619.80627	1.38282	0.00491
4618.30615	1.38275	0.00489
4616.80604	1.38266	0.00488
4615.30593	1.38258	0.00488
4613.80582	1.3825	0.00488
4612.30571	1.3824	0.00488
4610.8056	1.38231	0.00488
4609.30548	1.38222	0.00489
4607.80537	1.38214	0.0049
4606.30526	1.38207	0.0049
4604.80515	1.38199	0.00491
4603.30504	1.38193	0.00492
4601.80492	1.38186	0.00493
4600.30481	1.38179	0.00494
4598.8047	1.38171	0.00494
4597.30459	1.38162	0.00495
4595.80448	1.38152	0.00496
4594.30437	1.38141	0.00499
4592.80425	1.38132	0.00502
4591.30414	1.38122	0.00505
4589.80403	1.38114	0.00509
4588.30392	1.38106	0.00514
4586.80381	1.381	0.00518
4585.30369	1.38095	0.00522
4583.80358	1.38091	0.00525
4582.30347	1.38088	0.00528
4580.80336	1.38084	0.00532
4579.30325	1.38079	0.00534
4577.80314	1.38073	0.00536
4576.30302	1.38068	0.00538
4574.80291	1.38061	0.0054
4573.3028	1.38054	0.00543
4571.80269	1.38048	0.00546
4570.30258	1.38041	0.00549
4568.80247	1.38036	0.00553
4567.30235	1.38032	0.00557
4565.80224	1.3803	0.0056
4564.30213	1.38027	0.00563
4562.80202	1.38026	0.00566
4561.30191	1.38024	0.00568
4559.80179	1.38023	0.00569
4558.30168	1.38021	0.00569
4556.80157	1.38018	0.00568
4555.30146	1.38015	0.00568
4553.80135	1.38011	0.00568
4552.30124	1.38007	0.00568
4550.80112	1.38002	0.00567
4549.30101	1.37998	0.00566
4547.8009	1.37993	0.00565
4546.30079	1.37989	0.00563
4544.80068	1.37984	0.00563
4543.30056	1.37979	0.00562
4541.80045	1.37974	0.00561
4540.30034	1.37969	0.0056
4538.80023	1.37963	0.0056
4537.30012	1.37956	0.00558
4535.80001	1.3795	0.00558
4534.29989	1.37943	0.00557
4532.79978	1.37937	0.00557
4531.29967	1.3793	0.00557
4529.79956	1.37923	0.00557
4528.29945	1.37917	0.00557
4526.79933	1.37911	0.00557
4525.29922	1.37905	0.00557
4523.79911	1.37898	0.00557
4522.299	1.37892	0.00557
4520.79889	1.37885	0.00557
4519.29878	1.37878	0.00558
4517.79866	1.3787	0.00558
4516.29855	1.37863	0.0056
4514.79844	1.37855	0.00561
4513.29833	1.37847	0.00563
4511.79822	1.3784	0.00565
4510.2981	1.37833	0.00567
4508.79799	1.37828	0.00569
4507.29788	1.37823	0.00572
4505.79777	1.37818	0.00575
4504.29766	1.37814	0.00576
4502.79755	1.37811	0.00577
4501.29743	1.37807	0.00578
4499.79732	1.37803	0.00578
4498.29721	1.37798	0.00578
4496.7971	1.37792	0.00578
4495.29699	1.37786	0.00578
4493.79687	1.37779	0.00578
4492.29676	1.37771	0.00579
4490.79665	1.37763	0.0058
4489.29654	1.37755	0.00582
4487.79643	1.37748	0.00585
4486.29632	1.37742	0.00588
4484.7962	1.37737	0.0059
4483.29609	1.37733	0.00593
4481.79598	1.37731	0.00594
4480.29587	1.37728	0.00596
4478.79576	1.37725	0.00597
4477.29564	1.37723	0.00597
4475.79553	1.3772	0.00597
4474.29542	1.37715	0.00596
4472.79531	1.37711	0.00595
4471.2952	1.37705	0.00594
4469.79509	1.37698	0.00593
4468.29497	1.37692	0.00593
4466.79486	1.37685	0.00593
4465.29475	1.3768	0.00593
4463.79464	1.37673	0.00593
4462.29453	1.37667	0.00593
4460.79441	1.37661	0.00593
4459.2943	1.37656	0.00593
4457.79419	1.37651	0.00593
4456.29408	1.37644	0.00594
4454.79397	1.37637	0.00594
4453.29386	1.3763	0.00595
4451.79374	1.37623	0.00596
4450.29363	1.37617	0.00597
4448.79352	1.37611	0.00599
4447.29341	1.37606	0.00599
4445.7933	1.37601	0.00601
4444.29318	1.37596	0.00602
4442.79307	1.37592	0.00603
4441.29296	1.37588	0.00603
4439.79285	1.37584	0.00603
4438.29274	1.37579	0.00602
4436.79263	1.37573	0.00602
4435.29251	1.37568	0.00601
4433.7924	1.37562	0.00601
4432.29229	1.37556	0.006
4430.79218	1.37548	0.006
4429.29207	1.37541	0.00599
4427.79195	1.37535	0.00599
4426.29184	1.37528	0.006
4424.79173	1.37522	0.00601
4423.29162	1.37515	0.00601
4421.79151	1.37509	0.00601
4420.2914	1.37503	0.00602
4418.79128	1.37497	0.00602
4417.29117	1.3749	0.00603
4415.79106	1.37484	0.00604
4414.29095	1.37478	0.00604
4412.79084	1.37472	0.00604
4411.29072	1.37466	0.00605
4409.79061	1.37458	0.00605
4408.2905	1.37451	0.00607
4406.79039	1.37445	0.00607
4405.29028	1.37439	0.00609
4403.79017	1.37432	0.0061
4402.29005	1.37426	0.00612
4400.78994	1.3742	0.00614
4399.28983	1.37414	0.00615
4397.78972	1.3741	0.00618
4396.28961	1.37407	0.00618
4394.78949	1.37404	0.00619
4393.28938	1.37399	0.00619
4391.78927	1.37396	0.00618
4390.28916	1.37392	0.00617
4388.78905	1.37388	0.00615
4387.28894	1.37383	0.00613
4385.78882	1.37376	0.00612
4384.28871	1.37369	0.0061
4382.7886	1.37361	0.00609
4381.28849	1.37353	0.00608
4379.78838	1.37345	0.00608
4378.28827	1.37337	0.00608
4376.78815	1.37329	0.00608
4375.28804	1.37322	0.00609
4373.78793	1.37316	0.0061
4372.28782	1.37311	0.00611
4370.78771	1.37305	0.00611
4369.28759	1.37298	0.00612
4367.78748	1.37293	0.00612
4366.28737	1.37287	0.00612
4364.78726	1.37282	0.00611
4363.28715	1.37275	0.00611
4361.78704	1.37269	0.0061
4360.28692	1.37261	0.00609
4358.78681	1.37254	0.00609
4357.2867	1.37246	0.00609
4355.78659	1.37238	0.00609
4354.28648	1.37229	0.0061
4352.78636	1.3722	0.00611
4351.28625	1.37212	0.00613
4349.78614	1.37204	0.00615
4348.28603	1.37197	0.00617
4346.78592	1.37192	0.0062
4345.28581	1.37189	0.00621
4343.78569	1.37184	0.00622
4342.28558	1.3718	0.00622
4340.78547	1.37177	0.00622
4339.28536	1.37172	0.00622
4337.78525	1.37167	0.00622
4336.28513	1.3716	0.00621
4334.78502	1.37153	0.0062
4333.28491	1.37145	0.00619
4331.7848	1.37138	0.00619
4330.28469	1.3713	0.0062
4328.78458	1.37123	0.0062
4327.28446	1.37117	0.00621
4325.78435	1.37112	0.00621
4324.28424	1.37107	0.00621
4322.78413	1.37103	0.00621
4321.28402	1.37098	0.0062
4319.7839	1.37093	0.0062
4318.28379	1.37088	0.00618
4316.78368	1.37081	0.00616
4315.28357	1.37073	0.00614
4313.78346	1.37065	0.00612
4312.28335	1.37056	0.00612
4310.78323	1.37049	0.0061
4309.28312	1.37041	0.0061
4307.78301	1.37032	0.00609
4306.2829	1.37023	0.00609
4304.78279	1.37016	0.00609
4303.28267	1.37007	0.0061
4301.78256	1.36999	0.00611
4300.28245	1.3699	0.00613
4298.78234	1.36982	0.00613
4297.28223	1.36975	0.00615
4295.78212	1.36967	0.00617
4294.282	1.36961	0.00619
4292.78189	1.36956	0.00621
4291.28178	1.36952	0.00621
4289.78167	1.36948	0.00621
4288.28156	1.36945	0.00621
4286.78144	1.36941	0.00619
4285.28133	1.36936	0.00618
4283.78122	1.36931	0.00616
4282.28111	1.36924	0.00613
4280.781	1.36917	0.00611
4279.28089	1.36908	0.00608
4277.78077	1.36898	0.00606
4276.28066	1.36887	0.00605
4274.78055	1.36878	0.00605
4273.28044	1.36869	0.00605
4271.78033	1.3686	0.00605
4270.28021	1.36853	0.00605
4268.7801	1.36845	0.00606
4267.27999	1.36838	0.00606
4265.77988	1.36832	0.00607
4264.27977	1.36826	0.00607
4262.77966	1.3682	0.00607
4261.27954	1.36813	0.00606
4259.77943	1.36806	0.00605
4258.27932	1.36798	0.00604
4256.77921	1.36792	0.00603
4255.2791	1.36784	0.00602
4253.77898	1.36777	0.006
4252.27887	1.36769	0.00598
4250.77876	1.36761	0.00597
4249.27865	1.36753	0.00595
4247.77854	1.36745	0.00595
4246.27843	1.36735	0.00593
4244.77831	1.36726	0.00592
4243.2782	1.36717	0.00591
4241.77809	1.36707	0.00591
4240.27798	1.36697	0.00591
4238.77787	1.36688	0.00592
4237.27775	1.3668	0.00592
4235.77764	1.36672	0.00592
4234.27753	1.36664	0.00593
4232.77742	1.36657	0.00592
4231.27731	1.36651	0.00592
4229.7772	1.36645	0.00591
4228.27708	1.36638	0.0059
4226.77697	1.36631	0.00587
4225.27686	1.36623	0.00585
4223.77675	1.36614	0.00582
4222.27664	1.36604	0.0058
4220.77652	1.36594	0.00578
4219.27641	1.36582	0.00576
4217.7763	1.36571	0.00575
4216.27619	1.36558	0.00575
4214.77608	1.36546	0.00575
4213.27597	1.36534	0.00576
4211.77585	1.36524	0.00578
4210.27574	1.36513	0.00579
4208.77563	1.36505	0.00581
4207.27552	1.36496	0.00582
4205.77541	1.36488	0.00584
4204.27529	1.3648	0.00584
4202.77518	1.36474	0.00585
4201.27507	1.36466	0.00585
4199.77496	1.36458	0.00585
4198.27485	1.36449	0.00584
4196.77474	1.3644	0.00584
4195.27462	1.36432	0.00583
4193.77451	1.36423	0.00582
4192.2744	1.36413	0.00581
4190.77429	1.36404	0.0058
4189.27418	1.36395	0.00579
4187.77407	1.36385	0.00578
4186.27395	1.36375	0.00577
4184.77384	1.36364	0.00577
4183.27373	1.36353	0.00576
4181.77362	1.36342	0.00576
4180.27351	1.36331	0.00576
4178.77339	1.3632	0.00577
4177.27328	1.36309	0.00577
4175.77317	1.36299	0.00578
4174.27306	1.36289	0.00579
4172.77295	1.36279	0.0058
4171.27284	1.3627	0.00581
4169.77272	1.36259	0.00581
4168.27261	1.3625	0.00582
4166.7725	1.3624	0.00582
4165.27239	1.3623	0.00582
4163.77228	1.36219	0.00583
4162.27216	1.36208	0.00584
4160.77205	1.36197	0.00585
4159.27194	1.36186	0.00587
4157.77183	1.36175	0.00589
4156.27172	1.36164	0.0059
4154.77161	1.36154	0.00592
4153.27149	1.36145	0.00593
4151.77138	1.36136	0.00596
4150.27127	1.36128	0.00597
4148.77116	1.3612	0.00599
4147.27105	1.3611	0.006
4145.77093	1.36102	0.00601
4144.27082	1.36093	0.00602
4142.77071	1.36084	0.00602
4141.2706	1.36076	0.00602
4139.77049	1.36068	0.00602
4138.27038	1.36058	0.00602
4136.77026	1.36049	0.00601
4135.27015	1.3604	0.00601
4133.77004	1.36029	0.00601
4132.26993	1.3602	0.006
4130.76982	1.36009	0.006
4129.2697	1.35998	0.00599
4127.76959	1.35987	0.00599
4126.26948	1.35976	0.00599
4124.76937	1.35966	0.006
4123.26926	1.35956	0.006
4121.76915	1.35947	0.006
4120.26903	1.35936	0.00599
4118.76892	1.35925	0.00599
4117.26881	1.35915	0.00599
4115.7687	1.35905	0.00599
4114.26859	1.35895	0.00598
4112.76847	1.35885	0.00597
4111.26836	1.35875	0.00595
4109.76825	1.35862	0.00594
4108.26814	1.35851	0.00592
4106.76803	1.35838	0.00592
4105.26792	1.35825	0.0059
4103.7678	1.35811	0.00589
4102.26769	1.35796	0.00589
4100.76758	1.3578	0.0059
4099.26747	1.35765	0.00591
4097.76736	1.35749	0.00594
4096.26724	1.35735	0.00597
4094.76713	1.35722	0.006
4093.26702	1.35709	0.00603
4091.76691	1.35697	0.00607
4090.2668	1.35685	0.0061
4088.76669	1.35674	0.00614
4087.26657	1.35664	0.00617
4085.76646	1.35654	0.00619
4084.26635	1.35643	0.00621
4082.76624	1.35632	0.00623
4081.26613	1.3562	0.00625
4079.76601	1.35608	0.00627
4078.2659	1.35596	0.0063
4076.76579	1.35584	0.00632
4075.26568	1.35572	0.00634
4073.76557	1.35558	0.00637
4072.26546	1.35546	0.00641
4070.76534	1.35534	0.00644
4069.26523	1.35523	0.00648
4067.76512	1.35513	0.00651
4066.26501	1.35502	0.00654
4064.7649	1.35492	0.00657
4063.26478	1.35483	0.0066
4061.76467	1.35473	0.00662
4060.26456	1.35463	0.00665
4058.76445	1.35453	0.00666
4057.26434	1.35442	0.00668
4055.76423	1.35431	0.00669
4054.26411	1.35421	0.00672
4052.764	1.35409	0.00673
4051.26389	1.35398	0.00675
4049.76378	1.35388	0.00677
4048.26367	1.35377	0.00678
4046.76355	1.35366	0.0068
4045.26344	1.35356	0.00681
4043.76333	1.35345	0.00682
4042.26322	1.35336	0.00683
4040.76311	1.35325	0.00683
4039.263	1.35312	0.00684
4037.76288	1.353	0.00684
4036.26277	1.35287	0.00685
4034.76266	1.35274	0.00685
4033.26255	1.35261	0.00687
4031.76244	1.35247	0.00687
4030.26232	1.35234	0.00689
4028.76221	1.3522	0.00691
4027.2621	1.35206	0.00693
4025.76199	1.35192	0.00696
4024.26188	1.35179	0.00699
4022.76177	1.35166	0.00702
4021.26165	1.35153	0.00705
4019.76154	1.35139	0.00708
4018.26143	1.35127	0.00712
4016.76132	1.35115	0.00715
4015.26121	1.35104	0.00718
4013.76109	1.35093	0.00721
4012.26098	1.35082	0.00723
4010.76087	1.3507	0.00725
4009.26076	1.35058	0.00727
4007.76065	1.35046	0.00728
4006.26054	1.35032	0.00731
4004.76042	1.35019	0.00732
4003.26031	1.35005	0.00735
4001.7602	1.3499	0.00737
4000.26009	1.34976	0.0074
3998.75998	1.34962	0.00743
3997.25986	1.34948	0.00747
3995.75975	1.34934	0.0075
3994.25964	1.34922	0.00753
3992.75953	1.34908	0.00757
3991.25942	1.34896	0.00761
3989.75931	1.34882	0.00765
3988.25919	1.34869	0.00768
3986.75908	1.34855	0.00772
3985.25897	1.34841	0.00777
3983.75886	1.34827	0.0078
3982.25875	1.34813	0.00784
3980.75864	1.34799	0.00788
3979.25852	1.34785	0.00793
3977.75841	1.34772	0.00798
3976.2583	1.34758	0.00803
3974.75819	1.34743	0.00808
3973.25808	1.34729	0.00815
3971.75796	1.34714	0.00821
3970.25785	1.34699	0.00827
3968.75774	1.34685	0.00835
3967.25763	1.34671	0.00844
3965.75752	1.34657	0.00852
3964.25741	1.34645	0.00863
3962.75729	1.34635	0.00872
3961.25718	1.34627	0.00881
3959.75707	1.3462	0.00889
3958.25696	1.34615	0.00897
3956.75685	1.3461	0.00903
3955.25673	1.34605	0.00908
3953.75662	1.34602	0.00911
3952.25651	1.34599	0.00914
3950.7564	1.34594	0.00914
3949.25629	1.34586	0.00913
3947.75618	1.34575	0.00913
3946.25606	1.34562	0.00915
3944.75595	1.34549	0.00916
3943.25584	1.34537	0.00918
3941.75573	1.34524	0.0092
3940.25562	1.3451	0.00921
3938.7555	1.34496	0.00925
3937.25539	1.34485	0.0093
3935.75528	1.34478	0.00935
3934.25517	1.34472	0.00937
3932.75506	1.34466	0.00939
3931.25495	1.34456	0.00939
3929.75483	1.34444	0.00939
3928.25472	1.34431	0.0094
3926.75461	1.3442	0.0094
3925.2545	1.34407	0.00941
3923.75439	1.3439	0.00942
3922.25427	1.3437	0.00945
3920.75416	1.3435	0.00951
3919.25405	1.34331	0.00961
3917.75394	1.34314	0.00973
3916.25383	1.34298	0.00987
3914.75372	1.34286	0.01
3913.2536	1.3428	0.01013
3911.75349	1.34281	0.01025
3910.25338	1.34289	0.01032
3908.75327	1.343	0.01038
3907.25316	1.34313	0.01038
3905.75304	1.34326	0.01033
3904.25293	1.34334	0.01023
3902.75282	1.34337	0.01008
3901.25271	1.3433	0.00993
3899.7526	1.34313	0.00978
3898.25249	1.34288	0.00967
3896.75237	1.34259	0.00961
3895.25226	1.34231	0.00957
3893.75215	1.34206	0.00957
3892.25204	1.34187	0.00956
3890.75193	1.34169	0.00956
3889.25181	1.34153	0.00961
3887.7517	1.34143	0.00969
3886.25159	1.34136	0.00977
3884.75148	1.34131	0.00981
3883.25137	1.34124	0.00984
3881.75126	1.34115	0.00983
3880.25114	1.34104	0.00981
3878.75103	1.34092	0.0098
3877.25092	1.34083	0.0098
3875.75081	1.34078	0.00979
3874.2507	1.34074	0.00974
3872.75058	1.34068	0.00966
3871.25047	1.34059	0.00959
3869.75036	1.34044	0.00954
3868.25025	1.34023	0.00953
3866.75014	1.34003	0.00953
3865.25003	1.33988	0.00953
3863.74991	1.33977	0.00948
3862.2498	1.33965	0.00942
3860.74969	1.33953	0.00936
3859.24958	1.33945	0.00933
3857.74947	1.33939	0.0093
3856.24935	1.33939	0.00925
3854.74924	1.33937	0.00915
3853.24913	1.33924	0.009
3851.74902	1.33899	0.00885
3850.24891	1.33868	0.00877
3848.7488	1.33841	0.00872
3847.24868	1.33818	0.00869
3845.74857	1.33799	0.00864
3844.24846	1.33783	0.00857
3842.74835	1.33767	0.00849
3841.24824	1.33754	0.0084
3839.74812	1.33743	0.00831
3838.24801	1.3373	0.00823
3836.7479	1.3371	0.00816
3835.24779	1.33679	0.0081
3833.74768	1.33644	0.00804
3832.24757	1.3361	0.00799
3830.74745	1.33577	0.00796
3829.24734	1.33549	0.00795
3827.74723	1.33527	0.00795
3826.24712	1.3351	0.00794
3824.74701	1.335	0.00791
3823.24689	1.33491	0.00788
3821.74678	1.3348	0.00781
3820.24667	1.33459	0.00771
3818.74656	1.3343	0.00762
3817.24645	1.33396	0.00756
3815.74634	1.33356	0.00751
3814.24622	1.33314	0.0075
3812.74611	1.33274	0.00752
3811.246	1.33242	0.00757
3809.74589	1.33218	0.00761
3808.24578	1.33203	0.00762
3806.74566	1.33193	0.00762
3805.24555	1.33183	0.00757
3803.74544	1.3317	0.0075
3802.24533	1.33153	0.0074
3800.74522	1.33126	0.00727
3799.24511	1.33086	0.00715
3797.74499	1.33037	0.00706
3796.24488	1.32981	0.00702
3794.74477	1.32922	0.00703
3793.24466	1.32864	0.00713
3791.74455	1.32813	0.00728
3790.24444	1.32769	0.00747
3788.74432	1.32733	0.00768
3787.24421	1.32705	0.00791
3785.7441	1.32682	0.00815
3784.24399	1.32661	0.00839
3782.74388	1.32643	0.0086
3781.24376	1.32628	0.00879
3779.74365	1.32612	0.00893
3778.24354	1.32592	0.00905
3776.74343	1.3257	0.00917
3775.24332	1.32547	0.00931
3773.74321	1.32525	0.00947
3772.24309	1.32505	0.00962
3770.74298	1.32487	0.00977
3769.24287	1.32468	0.0099
3767.74276	1.32447	0.01006
3766.24265	1.32427	0.01025
3764.74253	1.3241	0.01047
3763.24242	1.324	0.01068
3761.74231	1.32397	0.01086
3760.2422	1.32403	0.01099
3758.74209	1.32409	0.01107
3757.24198	1.32417	0.01111
3755.74186	1.32431	0.0111
3754.24175	1.3245	0.01102
3752.74164	1.32468	0.01087
3751.24153	1.32476	0.01066
3749.74142	1.3247	0.0104
3748.2413	1.32454	0.01012
3746.74119	1.32435	0.00983
3745.24108	1.32416	0.00951
3743.74097	1.3239	0.00917
3742.24086	1.32354	0.00885
3740.74075	1.32313	0.00858
3739.24063	1.32272	0.00835
3737.74052	1.32236	0.00813
3736.24041	1.32199	0.00789
3734.7403	1.32153	0.00766
3733.24019	1.32096	0.00743
3731.74007	1.32033	0.00728
3730.23996	1.31969	0.00719
3728.73985	1.31906	0.00718
3727.23974	1.31843	0.00721
3725.73963	1.31778	0.00727
3724.23952	1.31716	0.00735
3722.7394	1.3166	0.00745
3721.23929	1.31615	0.00758
3719.73918	1.31575	0.00773
3718.23907	1.31539	0.00787
3716.73896	1.31503	0.00801
3715.23884	1.31469	0.00811
3713.73873	1.31436	0.00816
3712.23862	1.31401	0.00817
3710.73851	1.31359	0.00816
3709.2384	1.31307	0.00817
3707.73829	1.31249	0.00824
3706.23817	1.31189	0.00836
3704.73806	1.3113	0.00853
3703.23795	1.31074	0.00871
3701.73784	1.3102	0.00889
3700.23773	1.3097	0.00906
3698.73761	1.30926	0.00925
3697.2375	1.3089	0.00946
3695.73739	1.30859	0.00967
3694.23728	1.30827	0.00987
3692.73717	1.30794	0.01004
3691.23706	1.30757	0.01018
3689.73694	1.30714	0.01029
3688.23683	1.30665	0.01041
3686.73672	1.30614	0.01054
3685.23661	1.30564	0.01071
3683.7365	1.30518	0.0109
3682.23638	1.30477	0.01108
3680.73627	1.30443	0.01121
3679.23616	1.30413	0.0113
3677.73605	1.30382	0.01134
3676.23594	1.30347	0.01135
3674.73583	1.303	0.01135
3673.23571	1.30242	0.01139
3671.7356	1.30173	0.01146
3670.23549	1.30094	0.01157
3668.73538	1.30004	0.01173
3667.23527	1.29907	0.01199
3665.73515	1.2981	0.01238
3664.23504	1.2972	0.01289
3662.73493	1.29645	0.01349
3661.23482	1.29587	0.01413
3659.73471	1.29547	0.01475
3658.2346	1.29521	0.0153
3656.73448	1.29505	0.0158
3655.23437	1.29493	0.01625
3653.73426	1.2948	0.01663
3652.23415	1.29467	0.01694
3650.73404	1.29446	0.01716
3649.23392	1.29408	0.01731
3647.73381	1.2935	0.01747
3646.2337	1.29276	0.0177
3644.73359	1.29193	0.01805
3643.23348	1.29111	0.01851
3641.73337	1.29034	0.01904
3640.23325	1.28967	0.01962
3638.73314	1.28909	0.02022
3637.23303	1.28864	0.02086
3635.73292	1.28831	0.02154
3634.23281	1.28808	0.02223
3632.73269	1.28792	0.0229
3631.23258	1.2878	0.0235
3629.73247	1.28768	0.02402
3628.23236	1.28747	0.02446
3626.73225	1.28717	0.0249
3625.23214	1.28683	0.02536
3623.73202	1.28651	0.02584
3622.23191	1.28621	0.02633
3620.7318	1.28594	0.02679
3619.23169	1.28567	0.02724
3617.73158	1.28538	0.02767
3616.23146	1.28509	0.02812
3614.73135	1.28482	0.02861
3613.23124	1.28457	0.02909
3611.73113	1.28428	0.02957
3610.23102	1.28396	0.03005
3608.73091	1.28359	0.03053
3607.23079	1.28322	0.03103
3605.73068	1.28285	0.03156
3604.23057	1.28251	0.03214
3602.73046	1.2822	0.03275
3601.23035	1.28194	0.03336
3599.73024	1.28171	0.03398
3598.23012	1.28156	0.03458
3596.73001	1.28144	0.03515
3595.2299	1.28135	0.0357
3593.72979	1.28127	0.03623
3592.22968	1.28118	0.03675
3590.72956	1.28108	0.03724
3589.22945	1.28096	0.0377
3587.72934	1.28081	0.03815
3586.22923	1.28058	0.03859
3584.72912	1.2803	0.03906
3583.22901	1.27998	0.03959
3581.72889	1.27967	0.04017
3580.22878	1.27942	0.04078
3578.72867	1.27921	0.04139
3577.22856	1.27906	0.04199
3575.72845	1.27898	0.04259
3574.22833	1.27896	0.04318
3572.72822	1.27899	0.04376
3571.22811	1.27907	0.04431
3569.728	1.27916	0.04482
3568.22789	1.27921	0.04526
3566.72778	1.2792	0.04565
3565.22766	1.27909	0.04604
3563.72755	1.27891	0.04644
3562.22744	1.2787	0.04688
3560.72733	1.27848	0.04735
3559.22722	1.27826	0.04785
3557.7271	1.27806	0.04836
3556.22699	1.27789	0.04887
3554.72688	1.27778	0.04941
3553.22677	1.27772	0.04996
3551.72666	1.27769	0.05052
3550.22655	1.27767	0.05107
3548.72643	1.27767	0.05161
3547.22632	1.27765	0.05211
3545.72621	1.27762	0.0526
3544.2261	1.27754	0.05308
3542.72599	1.27745	0.05357
3541.22587	1.27735	0.05408
3539.72576	1.27726	0.05461
3538.22565	1.27722	0.05514
3536.72554	1.27719	0.05567
3535.22543	1.27718	0.05619
3533.72532	1.27718	0.0567
3532.2252	1.27721	0.05721
3530.72509	1.27727	0.05772
3529.22498	1.27733	0.05821
3527.72487	1.27736	0.05868
3526.22476	1.27738	0.05913
3524.72464	1.27737	0.05959
3523.22453	1.27735	0.06004
3521.72442	1.27731	0.06051
3520.22431	1.27727	0.06099
3518.7242	1.27724	0.06147
3517.22409	1.27722	0.06198
3515.72397	1.27721	0.06248
3514.22386	1.27724	0.063
3512.72375	1.27731	0.0635
3511.22364	1.27739	0.06399
3509.72353	1.27749	0.06447
3508.22341	1.27759	0.06494
3506.7233	1.27769	0.0654
3505.22319	1.27779	0.06583
3503.72308	1.27789	0.06625
3502.22297	1.27796	0.06666
3500.72286	1.27801	0.06705
3499.22274	1.27803	0.06746
3497.72263	1.27805	0.06786
3496.22252	1.27808	0.06828
3494.72241	1.27811	0.06871
3493.2223	1.27813	0.06913
3491.72218	1.27816	0.06956
3490.22207	1.27819	0.06999
3488.72196	1.27823	0.07044
3487.22185	1.27829	0.07089
3485.72174	1.27835	0.07133
3484.22163	1.27843	0.07178
3482.72151	1.27851	0.0722
3481.2214	1.27858	0.07264
3479.72129	1.27866	0.07306
3478.22118	1.27874	0.07349
3476.72107	1.27883	0.07392
3475.22095	1.27892	0.07434
3473.72084	1.279	0.07476
3472.22073	1.2791	0.07517
3470.72062	1.27919	0.07558
3469.22051	1.27928	0.07599
3467.7204	1.27938	0.07639
3466.22028	1.27949	0.0768
3464.72017	1.27959	0.0772
3463.22006	1.2797	0.0776
3461.71995	1.27979	0.078
3460.21984	1.2799	0.0784
3458.71972	1.28001	0.07879
3457.21961	1.28012	0.07919
3455.7195	1.28025	0.07957
3454.21939	1.28037	0.07996
3452.71928	1.2805	0.08034
3451.21917	1.28064	0.08071
3449.71905	1.28079	0.08108
3448.21894	1.28093	0.08143
3446.71883	1.28107	0.08178
3445.21872	1.28119	0.08212
3443.71861	1.2813	0.08246
3442.21849	1.28141	0.0828
3440.71838	1.28152	0.08314
3439.21827	1.28161	0.08349
3437.71816	1.28171	0.08383
3436.21805	1.28182	0.08417
3434.71794	1.28193	0.08452
3433.21782	1.28204	0.08487
3431.71771	1.28217	0.08522
3430.2176	1.28231	0.08556
3428.71749	1.28246	0.08589
3427.21738	1.2826	0.08622
3425.71726	1.28274	0.08654
3424.21715	1.28287	0.08685
3422.71704	1.283	0.08716
3421.21693	1.28311	0.08747
3419.71682	1.28321	0.08777
3418.21671	1.2833	0.08809
3416.71659	1.28339	0.0884
3415.21648	1.28348	0.08872
3413.71637	1.28359	0.08905
3412.21626	1.28371	0.08938
3410.71615	1.28384	0.08969
3409.21604	1.28398	0.09001
3407.71592	1.28412	0.09032
3406.21581	1.28428	0.09063
3404.7157	1.28443	0.09093
3403.21559	1.28459	0.09121
3401.71548	1.28473	0.09149
3400.21536	1.28485	0.09175
3398.71525	1.28497	0.09201
3397.21514	1.28506	0.09228
3395.71503	1.28516	0.09255
3394.21492	1.28525	0.09282
3392.71481	1.28533	0.09309
3391.21469	1.28543	0.09337
3389.71458	1.28552	0.09366
3388.21447	1.28561	0.09394
3386.71436	1.28572	0.09423
3385.21425	1.28583	0.09451
3383.71413	1.28594	0.0948
3382.21402	1.28606	0.09508
3380.71391	1.28618	0.09535
3379.2138	1.28629	0.09562
3377.71369	1.28639	0.0959
3376.21358	1.2865	0.09616
3374.71346	1.28661	0.09643
3373.21335	1.28672	0.09669
3371.71324	1.28683	0.09695
3370.21313	1.28693	0.0972
3368.71302	1.28704	0.09746
3367.2129	1.28713	0.0977
3365.71279	1.28723	0.09795
3364.21268	1.28732	0.0982
3362.71257	1.2874	0.09845
3361.21246	1.28749	0.09869
3359.71235	1.28757	0.09894
3358.21223	1.28764	0.09919
3356.71212	1.28772	0.09944
3355.21201	1.28779	0.09969
3353.7119	1.28787	0.09993
3352.21179	1.28793	0.10019
3350.71167	1.28801	0.10044
3349.21156	1.28807	0.10069
3347.71145	1.28814	0.10095
3346.21134	1.2882	0.1012
3344.71123	1.28827	0.10147
3343.21112	1.28832	0.10172
3341.711	1.28838	0.10199
3340.21089	1.28844	0.10225
3338.71078	1.2885	0.10251
3337.21067	1.28857	0.10277
3335.71056	1.28864	0.10303
3334.21044	1.2887	0.1033
3332.71033	1.28876	0.10355
3331.21022	1.28882	0.10382
3329.71011	1.28889	0.10408
3328.21	1.28894	0.10434
3326.70989	1.289	0.1046
3325.20977	1.28904	0.10487
3323.70966	1.28909	0.10513
3322.20955	1.28914	0.1054
3320.70944	1.28918	0.10567
3319.20933	1.28923	0.10595
3317.70921	1.28928	0.10622
3316.2091	1.28933	0.1065
3314.70899	1.28938	0.10678
3313.20888	1.28944	0.10706
3311.70877	1.28949	0.10734
3310.20866	1.28955	0.10762
3308.70854	1.2896	0.1079
3307.20843	1.28965	0.10818
3305.70832	1.2897	0.10846
3304.20821	1.28975	0.10875
3302.7081	1.2898	0.10903
3301.20798	1.28986	0.10931
3299.70787	1.28991	0.10959
3298.20776	1.28996	0.10988
3296.70765	1.29002	0.11017
3295.20754	1.29008	0.11046
3293.70743	1.29013	0.11075
3292.20731	1.29019	0.11103
3290.7072	1.29024	0.11132
3289.20709	1.29028	0.1116
3287.70698	1.29033	0.1119
3286.20687	1.29039	0.11219
3284.70675	1.29043	0.11249
3283.20664	1.29049	0.11277
3281.70653	1.29054	0.11307
3280.20642	1.29059	0.11336
3278.70631	1.29064	0.11365
3277.2062	1.29069	0.11395
3275.70608	1.29073	0.11424
3274.20597	1.29078	0.11455
3272.70586	1.29081	0.11484
3271.20575	1.29084	0.11515
3269.70564	1.29087	0.11546
3268.20552	1.2909	0.11578
3266.70541	1.29094	0.1161
3265.2053	1.29097	0.11644
3263.70519	1.29101	0.11677
3262.20508	1.29106	0.11711
3260.70497	1.29111	0.11745
3259.20485	1.29117	0.11779
3257.70474	1.29124	0.11813
3256.20463	1.29131	0.11848
3254.70452	1.29139	0.11882
3253.20441	1.29146	0.11916
3251.70429	1.29153	0.11949
3250.20418	1.2916	0.11984
3248.70407	1.29166	0.12018
3247.20396	1.29173	0.12053
3245.70385	1.2918	0.12088
3244.20374	1.29187	0.12124
3242.70362	1.29194	0.12158
3241.20351	1.29202	0.12194
3239.7034	1.29211	0.12231
3238.20329	1.29221	0.12267
3236.70318	1.29232	0.12303
3235.20306	1.29243	0.12339
3233.70295	1.29254	0.12374
3232.20284	1.29265	0.12409
3230.70273	1.29277	0.12444
3229.20262	1.29288	0.12479
3227.70251	1.29299	0.12514
3226.20239	1.2931	0.12548
3224.70228	1.29321	0.12582
3223.20217	1.29332	0.12617
3221.70206	1.29345	0.12651
3220.20195	1.29356	0.12685
3218.70183	1.29369	0.12719
3217.20172	1.2938	0.12754
3215.70161	1.29392	0.12787
3214.2015	1.29403	0.12821
3212.70139	1.29414	0.12855
3211.20128	1.29424	0.1289
3209.70116	1.29434	0.12925
3208.20105	1.29445	0.12959
3206.70094	1.29456	0.12995
3205.20083	1.29467	0.13031
3203.70072	1.29479	0.13067
3202.20061	1.2949	0.13104
3200.70049	1.29503	0.1314
3199.20038	1.29516	0.13177
3197.70027	1.29529	0.13214
3196.20016	1.29542	0.13251
3194.70005	1.29555	0.13288
3193.19993	1.29569	0.13326
3191.69982	1.29585	0.13364
3190.19971	1.296	0.13402
3188.6996	1.29616	0.13439
3187.19949	1.29633	0.13476
3185.69938	1.2965	0.13513
3184.19926	1.29668	0.13549
3182.69915	1.29686	0.13586
3181.19904	1.29704	0.13621
3179.69893	1.29722	0.13656
3178.19882	1.29739	0.13691
3176.6987	1.29756	0.13726
3175.19859	1.29774	0.13761
3173.69848	1.2979	0.13795
3172.19837	1.29806	0.1383
3170.69826	1.29823	0.13866
3169.19815	1.2984	0.13902
3167.69803	1.29857	0.13938
3166.19792	1.29875	0.13974
3164.69781	1.29893	0.1401
3163.1977	1.29912	0.14046
3161.69759	1.29932	0.14082
3160.19747	1.29951	0.14118
3158.69736	1.29971	0.14153
3157.19725	1.29991	0.14188
3155.69714	1.30011	0.14223
3154.19703	1.30031	0.14258
3152.69692	1.3005	0.14294
3151.1968	1.3007	0.14328
3149.69669	1.30089	0.14362
3148.19658	1.30107	0.14398
3146.69647	1.30127	0.14434
3145.19636	1.30146	0.14469
3143.69624	1.30167	0.14505
3142.19613	1.30189	0.14541
3140.69602	1.3021	0.14577
3139.19591	1.30231	0.14613
3137.6958	1.30253	0.14648
3136.19569	1.30275	0.14684
3134.69557	1.30296	0.14721
3133.19546	1.30318	0.14758
3131.69535	1.30338	0.14794
3130.19524	1.3036	0.14832
3128.69513	1.30383	0.1487
3127.19501	1.30407	0.14908
3125.6949	1.30434	0.14946
3124.19479	1.30462	0.14982
3122.69468	1.30491	0.15018
3121.19457	1.3052	0.15053
3119.69446	1.30551	0.15088
3118.19434	1.3058	0.15121
3116.69423	1.30609	0.15153
3115.19412	1.30637	0.15184
3113.69401	1.30662	0.15215
3112.1939	1.30687	0.15248
3110.69378	1.30711	0.15279
3109.19367	1.30736	0.15312
3107.69356	1.30761	0.15345
3106.19345	1.30787	0.15378
3104.69334	1.30814	0.15411
3103.19323	1.30842	0.15445
3101.69311	1.30871	0.15478
3100.193	1.30899	0.15512
3098.69289	1.30929	0.15546
3097.19278	1.30957	0.15578
3095.69267	1.30987	0.15611
3094.19255	1.31016	0.15643
3092.69244	1.31046	0.15675
3091.19233	1.31076	0.15707
3089.69222	1.31108	0.15738
3088.19211	1.3114	0.15769
3086.692	1.31171	0.15798
3085.19188	1.31203	0.15828
3083.69177	1.31235	0.15857
3082.19166	1.31266	0.15886
3080.69155	1.31296	0.15914
3079.19144	1.31326	0.15943
3077.69132	1.31355	0.15971
3076.19121	1.31383	0.15999
3074.6911	1.31411	0.16028
3073.19099	1.3144	0.16057
3071.69088	1.31469	0.16088
3070.19077	1.31499	0.16118
3068.69065	1.3153	0.16148
3067.19054	1.31563	0.16177
3065.69043	1.31596	0.16207
3064.19032	1.31628	0.16237
3062.69021	1.31661	0.16265
3061.19009	1.31693	0.16294
3059.68998	1.31725	0.16322
3058.18987	1.31758	0.16351
3056.68976	1.3179	0.16379
3055.18965	1.31822	0.16407
3053.68954	1.31854	0.16434
3052.18942	1.31888	0.16462
3050.68931	1.31921	0.1649
3049.1892	1.31955	0.16518
3047.68909	1.3199	0.16545
3046.18898	1.32024	0.16573
3044.68886	1.32058	0.166
3043.18875	1.32092	0.16626
3041.68864	1.32127	0.16653
3040.18853	1.32162	0.16678
3038.68842	1.32196	0.16705
3037.18831	1.3223	0.16731
3035.68819	1.32265	0.16757
3034.18808	1.32301	0.16782
3032.68797	1.32336	0.16808
3031.18786	1.3237	0.16833
3029.68775	1.32404	0.16858
3028.18763	1.32439	0.16884
3026.68752	1.32474	0.1691
3025.18741	1.32509	0.16937
3023.6873	1.32545	0.16963
3022.18719	1.32581	0.16989
3020.68708	1.3262	0.17014
3019.18696	1.32658	0.17039
3017.68685	1.32697	0.17064
3016.18674	1.32737	0.17088
3014.68663	1.32776	0.17112
3013.18652	1.32814	0.17135
3011.68641	1.32853	0.17158
3010.18629	1.32889	0.17181
3008.68618	1.32926	0.17204
3007.18607	1.32963	0.17227
3005.68596	1.33001	0.17251
3004.18585	1.33039	0.17274
3002.68573	1.33079	0.17298
3001.18562	1.3312	0.17322
2999.68551	1.33162	0.17345
2998.1854	1.33204	0.17368
2996.68529	1.33247	0.1739
2995.18518	1.3329	0.17411
2993.68506	1.33334	0.17431
2992.18495	1.33377	0.17451
2990.68484	1.3342	0.1747
2989.18473	1.33463	0.17488
2987.68462	1.33507	0.17506
2986.1845	1.33551	0.17523
2984.68439	1.33593	0.1754
2983.18428	1.33637	0.17555
2981.68417	1.3368	0.17571
2980.18406	1.33722	0.17586
2978.68395	1.33764	0.17601
2977.18383	1.33806	0.17615
2975.68372	1.33847	0.17629
2974.18361	1.33889	0.17643
2972.6835	1.33928	0.17657
2971.18339	1.33969	0.17671
2969.68327	1.34009	0.17685
2968.18316	1.34048	0.177
2966.68305	1.34089	0.17715
2965.18294	1.34129	0.17729
2963.68283	1.34171	0.17744
2962.18272	1.34212	0.17759
2960.6826	1.34254	0.17774
2959.18249	1.34297	0.17788
2957.68238	1.34339	0.17803
2956.18227	1.34383	0.17818
2954.68216	1.34427	0.17831
2953.18204	1.34472	0.17845
2951.68193	1.34517	0.17857
2950.18182	1.34562	0.17869
2948.68171	1.34606	0.1788
2947.1816	1.34651	0.17892
2945.68149	1.34696	0.17903
2944.18137	1.34741	0.17915
2942.68126	1.34785	0.17926
2941.18115	1.3483	0.17937
2939.68104	1.34876	0.17947
2938.18093	1.34923	0.17958
2936.68081	1.34971	0.17967
2935.1807	1.35022	0.17975
2933.68059	1.35073	0.17983
2932.18048	1.35125	0.17987
2930.68037	1.35178	0.17991
2929.18026	1.35229	0.17993
2927.68014	1.3528	0.17992
2926.18003	1.35329	0.1799
2924.67992	1.35377	0.17986
2923.17981	1.35423	0.17982
2921.6797	1.35467	0.17975
2920.17958	1.35509	0.17969
2918.67947	1.3555	0.17963
2917.17936	1.35587	0.17958
2915.67925	1.35625	0.17952
2914.17914	1.3566	0.17948
2912.67903	1.35694	0.17944
2911.17891	1.35727	0.17941
2909.6788	1.3576	0.1794
2908.17869	1.35792	0.17941
2906.67858	1.35825	0.17942
2905.17847	1.3586	0.17944
2903.67835	1.35896	0.17948
2902.17824	1.35933	0.17951
2900.67813	1.35971	0.17954
2899.17802	1.3601	0.17957
2897.67791	1.36051	0.1796
2896.1778	1.36091	0.17962
2894.67768	1.36132	0.17964
2893.17757	1.36171	0.17965
2891.67746	1.36211	0.17965
2890.17735	1.3625	0.17966
2888.67724	1.36289	0.17967
2887.17712	1.36328	0.17967
2885.67701	1.36367	0.17969
2884.1769	1.36409	0.17969
2882.67679	1.3645	0.17969
2881.17668	1.36492	0.17968
2879.67657	1.36535	0.17968
2878.17645	1.36578	0.17967
2876.67634	1.36622	0.17965
2875.17623	1.36666	0.17962
2873.67612	1.36711	0.17959
2872.17601	1.36753	0.17953
2870.67589	1.36795	0.17948
2869.17578	1.36839	0.17943
2867.67567	1.36881	0.17936
2866.17556	1.36924	0.1793
2864.67545	1.36967	0.17923
2863.17534	1.37011	0.17914
2861.67522	1.37054	0.17905
2860.17511	1.37098	0.17895
2858.675	1.37144	0.17883
2857.17489	1.37187	0.1787
2855.67478	1.37229	0.17856
2854.17466	1.3727	0.1784
2852.67455	1.37309	0.17825
2851.17444	1.37346	0.17808
2849.67433	1.37381	0.17793
2848.17422	1.37415	0.17776
2846.67411	1.37448	0.17761
2845.17399	1.3748	0.17745
2843.67388	1.37512	0.17731
2842.17377	1.37544	0.17718
2840.67366	1.37577	0.17705
2839.17355	1.37609	0.17691
2837.67343	1.37642	0.17678
2836.17332	1.37675	0.17665
2834.67321	1.37707	0.17652
2833.1731	1.37739	0.1764
2831.67299	1.3777	0.17627
2830.17288	1.37801	0.17615
2828.67276	1.37832	0.17602
2827.17265	1.37863	0.1759
2825.67254	1.37895	0.17577
2824.17243	1.37927	0.17566
2822.67232	1.3796	0.17555
2821.17221	1.37992	0.17543
2819.67209	1.38027	0.17531
2818.17198	1.38062	0.17518
2816.67187	1.38097	0.17504
2815.17176	1.38131	0.1749
2813.67165	1.38166	0.17475
2812.17153	1.38201	0.1746
2810.67142	1.38235	0.17443
2809.17131	1.38269	0.17426
2807.6712	1.38303	0.17408
2806.17109	1.38335	0.1739
2804.67098	1.38368	0.17371
2803.17086	1.384	0.17352
2801.67075	1.38432	0.17333
2800.17064	1.38464	0.17312
2798.67053	1.38495	0.17291
2797.17042	1.38527	0.17269
2795.6703	1.38556	0.17247
2794.17019	1.38585	0.17226
2792.67008	1.38613	0.17203
2791.16997	1.38641	0.17181
2789.66986	1.38668	0.17158
2788.16975	1.38693	0.17135
2786.66963	1.38718	0.17113
2785.16952	1.38743	0.17091
2783.66941	1.38767	0.17069
2782.1693	1.38792	0.17046
2780.66919	1.38818	0.17025
2779.16907	1.38843	0.17002
2777.66896	1.38867	0.16979
2776.16885	1.38891	0.16956
2774.66874	1.38916	0.16931
2773.16863	1.38938	0.16908
2771.66852	1.3896	0.16883
2770.1684	1.3898	0.16859
2768.66829	1.39	0.16836
2767.16818	1.3902	0.16812
2765.66807	1.39038	0.16788
2764.16796	1.39057	0.16765
2762.66784	1.39076	0.16743
2761.16773	1.39094	0.1672
2759.66762	1.39114	0.16698
2758.16751	1.39134	0.16675
2756.6674	1.39154	0.16651
2755.16729	1.39174	0.16627
2753.66717	1.39194	0.16602
2752.16706	1.39212	0.16576
2750.66695	1.39231	0.1655
2749.16684	1.39248	0.16523
2747.66673	1.39263	0.16496
2746.16661	1.39276	0.16468
2744.6665	1.39289	0.16441
2743.16639	1.39298	0.16414
2741.66628	1.39307	0.16388
2740.16617	1.39315	0.16364
2738.66606	1.39323	0.16339
2737.16594	1.39331	0.16316
2735.66583	1.39339	0.16293
2734.16572	1.39347	0.16271
2732.66561	1.39355	0.16249
2731.1655	1.39364	0.16228
2729.66538	1.39373	0.16207
2728.16527	1.39382	0.16185
2726.66516	1.3939	0.16164
2725.16505	1.39397	0.16143
2723.66494	1.39403	0.16121
2722.16483	1.39409	0.161
2720.66471	1.39414	0.16078
2719.1646	1.39418	0.16058
2717.66449	1.39423	0.16038
2716.16438	1.39427	0.16019
2714.66427	1.3943	0.16
2713.16415	1.39433	0.15982
2711.66404	1.39436	0.15964
2710.16393	1.39439	0.15947
2708.66382	1.39442	0.1593
2707.16371	1.39444	0.15915
2705.6636	1.39447	0.15899
2704.16348	1.3945	0.15884
2702.66337	1.39453	0.15869
2701.16326	1.39456	0.15854
2699.66315	1.39459	0.1584
2698.16304	1.39462	0.15827
2696.66292	1.39466	0.15813
2695.16281	1.39469	0.15799
2693.6627	1.39473	0.15786
2692.16259	1.39476	0.15773
2690.66248	1.39481	0.1576
2689.16237	1.39484	0.15747
2687.66225	1.39487	0.15734
2686.16214	1.39491	0.15722
2684.66203	1.39493	0.15709
2683.16192	1.39497	0.15698
2681.66181	1.395	0.15685
2680.16169	1.39503	0.15674
2678.66158	1.39507	0.15662
2677.16147	1.3951	0.15651
2675.66136	1.39514	0.15639
2674.16125	1.39519	0.15628
2672.66114	1.39523	0.15617
2671.16102	1.39527	0.15604
2669.66091	1.39531	0.15592
2668.1608	1.39535	0.1558
2666.66069	1.39537	0.15568
2665.16058	1.3954	0.15556
2663.66046	1.39542	0.15544
2662.16035	1.39545	0.15532
2660.66024	1.39545	0.15521
2659.16013	1.39547	0.15511
2657.66002	1.39548	0.155
2656.15991	1.3955	0.1549
2654.65979	1.39552	0.15479
2653.15968	1.39554	0.15469
2651.65957	1.39556	0.15459
2650.15946	1.39558	0.15448
2648.65935	1.3956	0.15438
2647.15923	1.39561	0.15428
2645.65912	1.39562	0.15418
2644.15901	1.39562	0.15408
2642.6589	1.39561	0.15399
2641.15879	1.3956	0.15389
2639.65868	1.3956	0.1538
2638.15856	1.39559	0.15372
2636.65845	1.39558	0.15364
2635.15834	1.39557	0.15356
2633.65823	1.39557	0.15348
2632.15812	1.39556	0.15341
2630.658	1.39554	0.15335
2629.15789	1.39554	0.15328
2627.65778	1.39552	0.15322
2626.15767	1.39551	0.15315
2624.65756	1.39549	0.1531
2623.15745	1.39546	0.15305
2621.65733	1.39543	0.153
2620.15722	1.39542	0.15297
2618.65711	1.3954	0.15294
2617.157	1.39537	0.15291
2615.65689	1.39536	0.15289
2614.15678	1.39535	0.15287
2612.65666	1.39535	0.15286
2611.15655	1.39536	0.15285
2609.65644	1.39536	0.15284
2608.15633	1.39537	0.15282
2606.65622	1.39537	0.15282
2605.1561	1.39537	0.15281
2603.65599	1.39537	0.15281
2602.15588	1.39538	0.15282
2600.65577	1.39538	0.15283
2599.15566	1.39538	0.15284
2597.65555	1.39539	0.15286
2596.15543	1.3954	0.15288
2594.65532	1.39544	0.15292
2593.15521	1.39547	0.15296
2591.6551	1.39552	0.15299
2590.15499	1.39558	0.15302
2588.65487	1.39564	0.15305
2587.15476	1.39571	0.15307
2585.65465	1.39579	0.15309
2584.15454	1.39587	0.15312
2582.65443	1.39594	0.15313
2581.15432	1.39602	0.15314
2579.6542	1.3961	0.15315
2578.15409	1.39618	0.15316
2576.65398	1.39624	0.15316
2575.15387	1.39633	0.15318
2573.65376	1.39642	0.15319
2572.15364	1.3965	0.15319
2570.65353	1.3966	0.15319
2569.15342	1.3967	0.15319
2567.65331	1.3968	0.15319
2566.1532	1.3969	0.15319
2564.65309	1.39701	0.15318
2563.15297	1.39711	0.15317
2561.65286	1.39722	0.15314
2560.15275	1.39733	0.15312
2558.65264	1.39743	0.1531
2557.15253	1.39752	0.15307
2555.65241	1.39763	0.15303
2554.1523	1.39772	0.153
2552.65219	1.39781	0.15297
2551.15208	1.39791	0.15294
2549.65197	1.398	0.1529
2548.15186	1.39809	0.15287
2546.65174	1.39818	0.15284
2545.15163	1.39828	0.15281
2543.65152	1.39837	0.15277
2542.15141	1.39847	0.15273
2540.6513	1.39857	0.15269
2539.15118	1.39866	0.15265
2537.65107	1.39877	0.1526
2536.15096	1.39887	0.15255
2534.65085	1.39896	0.15251
2533.15074	1.39905	0.15245
2531.65063	1.39914	0.15239
2530.15051	1.39922	0.15234
2528.6504	1.3993	0.15228
2527.15029	1.39938	0.15223
2525.65018	1.39945	0.15217
2524.15007	1.39952	0.15212
2522.64995	1.39958	0.15207
2521.14984	1.39963	0.15203
2519.64973	1.39969	0.152
2518.14962	1.39976	0.15197
2516.64951	1.39983	0.15194
2515.1494	1.3999	0.15191
2513.64928	1.39998	0.15188
2512.14917	1.40007	0.15186
2510.64906	1.40017	0.15183
2509.14895	1.40027	0.1518
2507.64884	1.40036	0.15177
2506.14872	1.40046	0.15173
2504.64861	1.40055	0.1517
2503.1485	1.40064	0.15166
2501.64839	1.40073	0.15162
2500.14828	1.40082	0.15158
2498.64817	1.40091	0.15154
2497.14805	1.401	0.15151
2495.64794	1.40109	0.15147
2494.14783	1.40119	0.15144
2492.64772	1.40129	0.15141
2491.14761	1.4014	0.15138
2489.64749	1.40151	0.15134
2488.14738	1.40162	0.15129
2486.64727	1.40174	0.15125
2485.14716	1.40186	0.15121
2483.64705	1.40198	0.15116
2482.14694	1.4021	0.15112
2480.64682	1.40222	0.15106
2479.14671	1.40233	0.151
2477.6466	1.40245	0.15095
2476.14649	1.40258	0.15089
2474.64638	1.4027	0.15084
2473.14626	1.40282	0.15078
2471.64615	1.40294	0.15071
2470.14604	1.40307	0.15065
2468.64593	1.4032	0.15058
2467.14582	1.40334	0.15052
2465.64571	1.40348	0.15044
2464.14559	1.40362	0.15036
2462.64548	1.40377	0.15028
2461.14537	1.40391	0.15019
2459.64526	1.40407	0.15011
2458.14515	1.40422	0.15001
2456.64503	1.40438	0.1499
2455.14492	1.40453	0.14979
2453.64481	1.40469	0.14966
2452.1447	1.40484	0.14953
2450.64459	1.405	0.14939
2449.14448	1.40515	0.14924
2447.64436	1.40531	0.14909
2446.14425	1.40545	0.14892
2444.64414	1.40558	0.14874
2443.14403	1.4057	0.14856
2441.64392	1.40581	0.14838
2440.1438	1.40592	0.1482
2438.64369	1.40602	0.14801
2437.14358	1.40611	0.14782
2435.64347	1.4062	0.14762
2434.14336	1.40629	0.14743
2432.64325	1.40636	0.14724
2431.14313	1.40644	0.14705
2429.64302	1.40652	0.14685
2428.14291	1.40659	0.14665
2426.6428	1.40665	0.14644
2425.14269	1.40672	0.14624
2423.64258	1.40678	0.14602
2422.14246	1.40683	0.14581
2420.64235	1.40688	0.1456
2419.14224	1.40692	0.14538
2417.64213	1.40696	0.14515
2416.14202	1.40698	0.14492
2414.6419	1.407	0.14469
2413.14179	1.407	0.14447
2411.64168	1.40699	0.14423
2410.14157	1.40698	0.14401
2408.64146	1.40694	0.14378
2407.14135	1.40691	0.14357
2405.64123	1.40686	0.14335
2404.14112	1.40681	0.14314
2402.64101	1.40676	0.14294
2401.1409	1.4067	0.14275
2399.64079	1.40665	0.14256
2398.14067	1.40658	0.14238
2396.64056	1.40652	0.14221
2395.14045	1.40648	0.14203
2393.64034	1.40642	0.14184
2392.14023	1.40637	0.14167
2390.64012	1.40633	0.14149
2389.14	1.40628	0.14131
2387.63989	1.40623	0.14114
2386.13978	1.40618	0.14094
2384.63967	1.40611	0.14075
2383.13956	1.40604	0.14055
2381.63944	1.40596	0.14037
2380.13933	1.40587	0.14017
2378.63922	1.40577	0.13998
2377.13911	1.40566	0.1398
2375.639	1.40554	0.13961
2374.13889	1.40541	0.13944
2372.63877	1.40528	0.13927
2371.13866	1.40515	0.1391
2369.63855	1.40502	0.13895
2368.13844	1.40488	0.13879
2366.63833	1.40474	0.13865
2365.13821	1.4046	0.1385
2363.6381	1.40446	0.13837
2362.13799	1.40432	0.13823
2360.63788	1.40417	0.13811
2359.13777	1.40403	0.13797
2357.63766	1.40387	0.13786
2356.13754	1.40373	0.13773
2354.63743	1.40357	0.13762
2353.13732	1.40342	0.13751
2351.63721	1.40327	0.1374
2350.1371	1.40312	0.1373
2348.63698	1.40295	0.1372
2347.13687	1.40279	0.1371
2345.63676	1.40264	0.137
2344.13665	1.40247	0.13692
2342.63654	1.40231	0.13683
2341.13643	1.40214	0.13674
2339.63631	1.40198	0.13666
2338.1362	1.40181	0.13659
2336.63609	1.40164	0.13651
2335.13598	1.40147	0.13644
2333.63587	1.4013	0.13637
2332.13575	1.40113	0.13631
2330.63564	1.40096	0.13624
2329.13553	1.40078	0.13619
2327.63542	1.4006	0.13614
2326.13531	1.40043	0.13608
2324.6352	1.40024	0.13603
2323.13508	1.40007	0.13599
2321.63497	1.39988	0.13595
2320.13486	1.3997	0.13591
2318.63475	1.39952	0.13588
2317.13464	1.39933	0.13585
2315.63452	1.39914	0.13583
2314.13441	1.39895	0.1358
2312.6343	1.39876	0.13579
2311.13419	1.39856	0.13577
2309.63408	1.39837	0.13576
2308.13397	1.39817	0.13575
2306.63385	1.39797	0.13575
2305.13374	1.39778	0.13576
2303.63363	1.39757	0.13577
2302.13352	1.39736	0.13578
2300.63341	1.39716	0.1358
2299.13329	1.39694	0.13583
2297.63318	1.39673	0.13586
2296.13307	1.39652	0.1359
2294.63296	1.3963	0.13595
2293.13285	1.39607	0.13602
2291.63274	1.39584	0.1361
2290.13262	1.39563	0.13618
2288.63251	1.39541	0.13629
2287.1324	1.39519	0.13639
2285.63229	1.39499	0.13652
2284.13218	1.39479	0.13665
2282.63206	1.39461	0.13679
2281.13195	1.39445	0.13695
2279.63184	1.39431	0.1371
2278.13173	1.39417	0.13725
2276.63162	1.39404	0.13741
2275.13151	1.39393	0.13755
2273.63139	1.39381	0.13771
2272.13128	1.39371	0.13786
2270.63117	1.39361	0.13801
2269.13106	1.3935	0.13816
2267.63095	1.3934	0.1383
2266.13083	1.3933	0.13846
2264.63072	1.39319	0.13861
2263.13061	1.3931	0.13878
2261.6305	1.39302	0.13894
2260.13039	1.39293	0.1391
2258.63028	1.39286	0.13927
2257.13016	1.39279	0.13944
2255.63005	1.39274	0.13962
2254.12994	1.39268	0.13979
2252.62983	1.39264	0.13997
2251.12972	1.39261	0.14015
2249.6296	1.39259	0.14032
2248.12949	1.39257	0.14051
2246.62938	1.39255	0.14069
2245.12927	1.39255	0.14086
2243.62916	1.39255	0.14104
2242.12905	1.39257	0.14122
2240.62893	1.3926	0.14139
2239.12882	1.39264	0.14156
2237.62871	1.39268	0.14173
2236.1286	1.39275	0.14189
2234.62849	1.39282	0.14204
2233.12838	1.3929	0.14218
2231.62826	1.39298	0.14232
2230.12815	1.39306	0.14245
2228.62804	1.39316	0.14257
2227.12793	1.39325	0.14269
2225.62782	1.39334	0.14279
2224.1277	1.39345	0.14289
2222.62759	1.39356	0.14298
2221.12748	1.39367	0.14306
2219.62737	1.39378	0.14313
2218.12726	1.3939	0.1432
2216.62715	1.39401	0.14325
2215.12703	1.39413	0.14329
2213.62692	1.39424	0.14333
2212.12681	1.39435	0.14336
2210.6267	1.39446	0.14338
2209.12659	1.39457	0.14339
2207.62647	1.39467	0.1434
2206.12636	1.39477	0.1434
2204.62625	1.39486	0.14339
2203.12614	1.39495	0.14338
2201.62603	1.39503	0.14337
2200.12592	1.39512	0.14335
2198.6258	1.39521	0.14333
2197.12569	1.39529	0.14331
2195.62558	1.39537	0.14328
2194.12547	1.39543	0.14324
2192.62536	1.39551	0.14321
2191.12524	1.39558	0.14317
2189.62513	1.39566	0.14313
2188.12502	1.39572	0.1431
2186.62491	1.39579	0.14305
2185.1248	1.39585	0.14299
2183.62469	1.39592	0.14294
2182.12457	1.39599	0.14288
2180.62446	1.39606	0.14282
2179.12435	1.39612	0.14274
2177.62424	1.39618	0.14266
2176.12413	1.39625	0.14257
2174.62401	1.3963	0.14248
2173.1239	1.39635	0.14239
2171.62379	1.39638	0.14228
2170.12368	1.3964	0.14218
2168.62357	1.39641	0.14208
2167.12346	1.39641	0.14197
2165.62334	1.3964	0.14188
2164.12323	1.3964	0.14179
2162.62312	1.39638	0.14169
2161.12301	1.39636	0.14161
2159.6229	1.39636	0.14153
2158.12278	1.39635	0.14145
2156.62267	1.39635	0.14138
2155.12256	1.39636	0.14131
2153.62245	1.39636	0.14122
2152.12234	1.39638	0.14113
2150.62223	1.39639	0.14104
2149.12211	1.39641	0.14094
2147.622	1.39642	0.14084
2146.12189	1.39644	0.14073
2144.62178	1.39646	0.14061
2143.12167	1.39646	0.14049
2141.62155	1.39645	0.14035
2140.12144	1.39644	0.14022
2138.62133	1.39642	0.14008
2137.12122	1.3964	0.13994
2135.62111	1.39636	0.1398
2134.121	1.39633	0.13965
2132.62088	1.39628	0.13951
2131.12077	1.39623	0.13936
2129.62066	1.39617	0.13921
2128.12055	1.39613	0.13907
2126.62044	1.39607	0.13892
2125.12032	1.39602	0.13877
2123.62021	1.39595	0.13861
2122.1201	1.39589	0.13846
2120.61999	1.39582	0.1383
2119.11988	1.39575	0.13813
2117.61977	1.39566	0.13797
2116.11965	1.39558	0.1378
2114.61954	1.39549	0.13763
2113.11943	1.39538	0.13746
2111.61932	1.39528	0.13729
2110.11921	1.39517	0.13711
2108.61909	1.39505	0.13694
2107.11898	1.39493	0.13676
2105.61887	1.39479	0.13658
2104.11876	1.39465	0.1364
2102.61865	1.39449	0.13622
2101.11854	1.39434	0.13604
2099.61842	1.39418	0.13587
2098.11831	1.39401	0.13569
2096.6182	1.39383	0.13551
2095.11809	1.39365	0.13534
2093.61798	1.39346	0.13515
2092.11786	1.39326	0.13498
2090.61775	1.39306	0.13481
2089.11764	1.39283	0.13464
2087.61753	1.3926	0.13447
2086.11742	1.39236	0.1343
2084.61731	1.39211	0.13415
2083.11719	1.39185	0.13399
2081.61708	1.39158	0.13385
2080.11697	1.39131	0.13371
2078.61686	1.39103	0.13359
2077.11675	1.39075	0.13346
2075.61663	1.39047	0.13335
2074.11652	1.39018	0.13324
2072.61641	1.38989	0.13314
2071.1163	1.3896	0.13305
2069.61619	1.38931	0.13297
2068.11608	1.38902	0.13288
2066.61596	1.38874	0.1328
2065.11585	1.38845	0.13273
2063.61574	1.38817	0.13265
2062.11563	1.38788	0.13258
2060.61552	1.38758	0.13251
2059.1154	1.38728	0.13245
2057.61529	1.38697	0.13239
2056.11518	1.38666	0.13233
2054.61507	1.38635	0.13227
2053.11496	1.38603	0.13222
2051.61485	1.38572	0.13218
2050.11473	1.38541	0.13215
2048.61462	1.38509	0.13212
2047.11451	1.38478	0.13209
2045.6144	1.38447	0.13205
2044.11429	1.38416	0.13202
2042.61418	1.38385	0.13199
2041.11406	1.38352	0.13196
2039.61395	1.38319	0.13194
2038.11384	1.38285	0.13192
2036.61373	1.38251	0.13191
2035.11362	1.38217	0.1319
2033.6135	1.38183	0.1319
2032.11339	1.38148	0.1319
2030.61328	1.38112	0.13191
2029.11317	1.38078	0.13193
2027.61306	1.38045	0.13195
2026.11295	1.38012	0.13197
2024.61283	1.37979	0.13198
2023.11272	1.37947	0.13199
2021.61261	1.37914	0.132
2020.1125	1.3788	0.13201
2018.61239	1.37846	0.13202
2017.11227	1.3781	0.13202
2015.61216	1.37772	0.13203
2014.11205	1.37733	0.13205
2012.61194	1.37692	0.13207
2011.11183	1.37651	0.13211
2009.61172	1.3761	0.13216
2008.1116	1.37568	0.13223
2006.61149	1.37527	0.13231
2005.11138	1.37486	0.13241
2003.61127	1.37448	0.1325
2002.11116	1.37411	0.13259
2000.61104	1.37376	0.13269
1999.11093	1.37341	0.13278
1997.61082	1.37306	0.13286
1996.11071	1.37271	0.13294
1994.6106	1.37236	0.13301
1993.11049	1.37199	0.13306
1991.61037	1.3716	0.13312
1990.11026	1.37118	0.13317
1988.61015	1.37074	0.13323
1987.11004	1.37028	0.1333
1985.60993	1.36981	0.13338
1984.10981	1.36932	0.13349
1982.6097	1.36884	0.1336
1981.10959	1.36834	0.13374
1979.60948	1.36785	0.13389
1978.10937	1.36738	0.13406
1976.60926	1.36691	0.13424
1975.10914	1.36645	0.13443
1973.60903	1.366	0.13462
1972.10892	1.36555	0.13482
1970.60881	1.36511	0.13502
1969.1087	1.36465	0.13522
1967.60858	1.3642	0.13543
1966.10847	1.36374	0.13564
1964.60836	1.36326	0.13585
1963.10825	1.36277	0.13608
1961.60814	1.36228	0.13633
1960.10803	1.36178	0.13659
1958.60791	1.36128	0.13687
1957.1078	1.36079	0.13718
1955.60769	1.36031	0.13749
1954.10758	1.35984	0.1378
1952.60747	1.35941	0.13813
1951.10735	1.35901	0.13846
1949.60724	1.3586	0.13878
1948.10713	1.35821	0.1391
1946.60702	1.35782	0.13943
1945.10691	1.35743	0.13973
1943.6068	1.35703	0.14003
1942.10668	1.3566	0.14032
1940.60657	1.35614	0.14062
1939.10646	1.35565	0.14094
1937.60635	1.35515	0.14128
1936.10624	1.35464	0.14166
1934.60612	1.35414	0.14206
1933.10601	1.35366	0.14248
1931.6059	1.35318	0.1429
1930.10579	1.35274	0.14335
1928.60568	1.35234	0.14381
1927.10557	1.35199	0.14426
1925.60545	1.35166	0.14471
1924.10534	1.35134	0.14516
1922.60523	1.35102	0.14558
1921.10512	1.35068	0.14598
1919.60501	1.35033	0.14637
1918.10489	1.34997	0.14675
1916.60478	1.34957	0.14712
1915.10467	1.34915	0.14751
1913.60456	1.3487	0.14792
1912.10445	1.34825	0.14834
1910.60434	1.34778	0.14877
1909.10422	1.34732	0.14923
1907.60411	1.34684	0.14972
1906.104	1.34636	0.15023
1904.60389	1.3459	0.15076
1903.10378	1.34546	0.15134
1901.60366	1.34504	0.15192
1900.10355	1.34465	0.15251
1898.60344	1.34428	0.1531
1897.10333	1.34394	0.15369
1895.60322	1.34362	0.15428
1894.10311	1.34332	0.15487
1892.60299	1.34302	0.15546
1891.10288	1.34272	0.15603
1889.60277	1.34241	0.1566
1888.10266	1.34207	0.15716
1886.60255	1.3417	0.15774
1885.10243	1.34129	0.15835
1883.60232	1.34088	0.159
1882.10221	1.34048	0.15968
1880.6021	1.34011	0.16038
1879.10199	1.3398	0.1611
1877.60188	1.33954	0.1618
1876.10176	1.33933	0.16251
1874.60165	1.33915	0.16322
1873.10154	1.33901	0.16392
1871.60143	1.3389	0.16459
1870.10132	1.33881	0.16523
1868.6012	1.33867	0.16581
1867.10109	1.33845	0.16637
1865.60098	1.33816	0.16694
1864.10087	1.33782	0.16755
1862.60076	1.33745	0.1682
1861.10065	1.33706	0.16888
1859.60053	1.33667	0.16963
1858.10042	1.33627	0.17041
1856.60031	1.33592	0.17124
1855.1002	1.33566	0.1721
1853.60009	1.33549	0.17297
1852.09997	1.33539	0.17386
1850.59986	1.33534	0.17474
1849.09975	1.33533	0.17559
1847.59964	1.33534	0.17642
1846.09953	1.33536	0.17721
1844.59942	1.33535	0.17797
1843.0993	1.33528	0.17872
1841.59919	1.33515	0.17948
1840.09908	1.33501	0.18026
1838.59897	1.33488	0.18106
1837.09886	1.33479	0.18187
1835.59875	1.33471	0.18269
1834.09863	1.33467	0.18351
1832.59852	1.33467	0.18433
1831.09841	1.33474	0.18516
1829.5983	1.33483	0.18595
1828.09819	1.3349	0.18673
1826.59807	1.33492	0.18751
1825.09796	1.3349	0.18827
1823.59785	1.33483	0.18906
1822.09774	1.33472	0.18986
1820.59763	1.33461	0.1907
1819.09752	1.3345	0.19156
1817.5974	1.33441	0.19246
1816.09729	1.33435	0.1934
1814.59718	1.33434	0.1944
1813.09707	1.33438	0.19543
1811.59696	1.33449	0.19646
1810.09684	1.33465	0.19748
1808.59673	1.33483	0.19851
1807.09662	1.33503	0.19956
1805.59651	1.33525	0.2006
1804.0964	1.33552	0.20164
1802.59629	1.33588	0.20265
1801.09617	1.33627	0.20361
1799.59606	1.33669	0.20452
1798.09595	1.33707	0.20541
1796.59584	1.33747	0.20629
1795.09573	1.33787	0.20717
1793.59561	1.33829	0.20803
1792.0955	1.33867	0.20884
1790.59539	1.33896	0.20963
1789.09528	1.33917	0.21045
1787.59517	1.33936	0.21133
1786.09506	1.33956	0.21231
1784.59494	1.33981	0.21334
1783.09483	1.34014	0.21439
1781.59472	1.34055	0.21542
1780.09461	1.34103	0.21644
1778.5945	1.3416	0.21746
1777.09438	1.34225	0.21848
1775.59427	1.34297	0.2195
1774.09416	1.34373	0.22048
1772.59405	1.3445	0.22136
1771.09394	1.34522	0.22216
1769.59383	1.34585	0.22292
1768.09371	1.34641	0.2237
1766.5936	1.34692	0.22451
1765.09349	1.34742	0.22538
1763.59338	1.34792	0.22632
1762.09327	1.34846	0.22728
1760.59315	1.34904	0.22825
1759.09304	1.34969	0.22923
1757.59293	1.35046	0.23025
1756.09282	1.35133	0.23127
1754.59271	1.35228	0.23231
1753.0926	1.35332	0.23332
1751.59248	1.35442	0.23428
1750.09237	1.35557	0.23514
1748.59226	1.35668	0.23594
1747.09215	1.35774	0.23674
1745.59204	1.35881	0.23752
1744.09192	1.35994	0.23826
1742.59181	1.36112	0.23896
1741.0917	1.36234	0.23961
1739.59159	1.36356	0.24018
1738.09148	1.36478	0.2407
1736.59137	1.366	0.24122
1735.09125	1.36727	0.24173
1733.59114	1.36849	0.24219
1732.09103	1.36958	0.24263
1730.59092	1.37054	0.24313
1729.09081	1.37148	0.24368
1727.59069	1.37247	0.24426
1726.09058	1.37359	0.24486
1724.59047	1.37483	0.24547
1723.09036	1.37618	0.24605
1721.59025	1.37763	0.24661
1720.09014	1.37923	0.24716
1718.59002	1.38097	0.24767
1717.08991	1.38276	0.24804
1715.5898	1.38445	0.24828
1714.08969	1.386	0.2485
1712.58958	1.38747	0.24871
1711.08946	1.38897	0.24891
1709.58935	1.39056	0.24908
1708.08924	1.39228	0.24919
1706.58913	1.3941	0.24916
1705.08902	1.39602	0.24901
1703.58891	1.39798	0.24877
1702.08879	1.40002	0.24848
1700.58868	1.40207	0.24809
1699.08857	1.40398	0.24755
1697.58846	1.40568	0.24693
1696.08835	1.4072	0.24622
1694.58823	1.40862	0.24542
1693.08812	1.40997	0.24461
1691.58801	1.41132	0.24382
1690.0879	1.41268	0.24306
1688.58779	1.41406	0.24231
1687.08768	1.41553	0.24153
1685.58756	1.41713	0.2407
1684.08745	1.41875	0.23976
1682.58734	1.42021	0.23871
1681.08723	1.42156	0.2376
1679.58712	1.42285	0.23648
1678.087	1.42408	0.23532
1676.58689	1.42526	0.23413
1675.08678	1.42636	0.23286
1673.58667	1.42737	0.23154
1672.08656	1.42831	0.2302
1670.58645	1.42924	0.22887
1669.08633	1.43008	0.22762
1667.58622	1.43078	0.22648
1666.08611	1.43139	0.22542
1664.586	1.43211	0.22437
1663.08589	1.43295	0.22329
1661.58577	1.43383	0.22215
1660.08566	1.43476	0.22103
1658.58555	1.43582	0.21988
1657.08544	1.43711	0.21862
1655.58533	1.43863	0.21723
1654.08522	1.44018	0.2156
1652.5851	1.4415	0.21373
1651.08499	1.44244	0.21172
1649.58488	1.44313	0.2097
1648.08477	1.44372	0.20766
1646.58466	1.44418	0.20551
1645.08455	1.44436	0.20329
1643.58443	1.44429	0.2011
1642.08432	1.44407	0.19902
1640.58421	1.44386	0.19707
1639.0841	1.44378	0.19524
1637.58399	1.44378	0.19345
1636.08387	1.44372	0.19159
1634.58376	1.44349	0.18968
1633.08365	1.44315	0.18781
1631.58354	1.44277	0.18607
1630.08343	1.44238	0.1844
1628.58332	1.44198	0.18271
1627.0832	1.44157	0.18097
1625.58309	1.44111	0.17917
1624.08298	1.4406	0.17737
1622.58287	1.44004	0.17557
1621.08276	1.43946	0.17385
1619.58264	1.43886	0.17217
1618.08253	1.4382	0.17046
1616.58242	1.4374	0.16869
1615.08231	1.4364	0.1669
1613.5822	1.43525	0.16519
1612.08209	1.43401	0.16357
1610.58197	1.43274	0.16206
1609.08186	1.43145	0.16063
1607.58175	1.43011	0.15927
1606.08164	1.42871	0.15798
1604.58153	1.42731	0.15676
1603.08141	1.42594	0.15561
1601.5813	1.4246	0.15455
1600.08119	1.42325	0.15354
1598.58108	1.42188	0.15258
1597.08097	1.4205	0.15166
1595.58086	1.41909	0.15078
1594.08074	1.41767	0.14996
1592.58063	1.41619	0.14921
1591.08052	1.41469	0.14855
1589.58041	1.41319	0.14797
1588.0803	1.41173	0.14745
1586.58018	1.41035	0.14697
1585.08007	1.40902	0.14654
1583.57996	1.40773	0.14616
1582.07985	1.4065	0.14582
1580.57974	1.40538	0.14548
1579.07963	1.40433	0.14513
1577.57951	1.40333	0.14475
1576.0794	1.40227	0.14435
1574.57929	1.40109	0.14399
1573.07918	1.39983	0.14373
1571.57907	1.39862	0.14354
1570.07895	1.39758	0.14329
1568.57884	1.39662	0.14296
1567.07873	1.39569	0.1426
1565.57862	1.3948	0.14221
1564.07851	1.39398	0.14182
1562.5784	1.39327	0.14141
1561.07828	1.39264	0.14092
1559.57817	1.39194	0.14029
1558.07806	1.3909	0.13953
1556.57795	1.3895	0.13882
1555.07784	1.38792	0.13828
1553.57772	1.3863	0.13789
1552.07761	1.38474	0.13757
1550.5775	1.38329	0.13728
1549.07739	1.38191	0.137
1547.57728	1.38059	0.13678
1546.07717	1.37946	0.13661
1544.57705	1.37858	0.13644
1543.07694	1.37782	0.13624
1541.57683	1.37701	0.1359
1540.07672	1.37595	0.13544
1538.57661	1.37459	0.13495
1537.07649	1.37302	0.13456
1535.57638	1.37137	0.13429
1534.07627	1.3697	0.13411
1532.57616	1.36803	0.13396
1531.07605	1.36637	0.13389
1529.57594	1.36483	0.13392
1528.07582	1.36349	0.13402
1526.57571	1.36236	0.13415
1525.0756	1.36134	0.13429
1523.57549	1.36033	0.1344
1522.07538	1.35927	0.13447
1520.57526	1.35811	0.13449
1519.07515	1.35694	0.13447
1517.57504	1.35581	0.13439
1516.07493	1.35465	0.13425
1514.57482	1.35341	0.1341
1513.07471	1.35216	0.134
1511.57459	1.35093	0.13393
1510.07448	1.34975	0.13385
1508.57437	1.34864	0.1337
1507.07426	1.34746	0.13347
1505.57415	1.34606	0.13322
1504.07403	1.34444	0.13305
1502.57392	1.34278	0.13302
1501.07381	1.34117	0.13307
1499.5737	1.33961	0.13312
1498.07359	1.33806	0.13315
1496.57348	1.33647	0.13318
1495.07336	1.33484	0.13325
1493.57325	1.33329	0.13343
1492.07314	1.33186	0.1337
1490.57303	1.33046	0.134
1489.07292	1.32896	0.13426
1487.5728	1.32734	0.13452
1486.07269	1.32566	0.13482
1484.57258	1.32402	0.13519
1483.07247	1.32251	0.13559
1481.57236	1.32107	0.13602
1480.07225	1.31967	0.13646
1478.57213	1.31833	0.13691
1477.07202	1.31706	0.13733
1475.57191	1.31588	0.13771
1474.0718	1.3147	0.13806
1472.57169	1.31342	0.13838
1471.07157	1.312	0.13869
1469.57146	1.3105	0.13905
1468.07135	1.30905	0.13939
1466.57124	1.30768	0.13973
1465.07113	1.30631	0.14003
1463.57102	1.30492	0.14031
1462.0709	1.30354	0.1406
1460.57079	1.30222	0.14091
1459.07068	1.301	0.14118
1457.57057	1.29977	0.14136
1456.07046	1.29836	0.14147
1454.57035	1.29674	0.14155
1453.07023	1.29497	0.1417
1451.57012	1.29312	0.14191
1450.07001	1.29123	0.14221
1448.5699	1.2893	0.14255
1447.06979	1.28733	0.14294
1445.56967	1.28536	0.14337
1444.06956	1.28342	0.1439
1442.56945	1.28159	0.14452
1441.06934	1.27984	0.1452
1439.56923	1.27814	0.14589
1438.06912	1.27646	0.14654
1436.569	1.27474	0.14718
1435.06889	1.27297	0.14779
1433.56878	1.27115	0.14845
1432.06867	1.26932	0.14915
1430.56856	1.2675	0.14987
1429.06844	1.26566	0.15057
1427.56833	1.26381	0.15127
1426.06822	1.26195	0.152
1424.56811	1.2601	0.15274
1423.068	1.25828	0.15351
1421.56789	1.25645	0.15429
1420.06777	1.25461	0.15506
1418.56766	1.25271	0.15583
1417.06755	1.25073	0.15661
1415.56744	1.24867	0.15742
1414.06733	1.24656	0.15829
1412.56721	1.24441	0.15924
1411.0671	1.24225	0.16024
1409.56699	1.24009	0.1613
1408.06688	1.23795	0.16241
1406.56677	1.23587	0.16356
1405.06666	1.23384	0.16473
1403.56654	1.23186	0.16593
1402.06643	1.22991	0.16716
1400.56632	1.22798	0.16839
1399.06621	1.22605	0.1696
1397.5661	1.2241	0.17076
1396.06598	1.22211	0.17191
1394.56587	1.22005	0.17304
1393.06576	1.21791	0.17418
1391.56565	1.21569	0.17535
1390.06554	1.21343	0.17658
1388.56543	1.21111	0.17786
1387.06531	1.20874	0.17916
1385.5652	1.20632	0.18051
1384.06509	1.20387	0.18192
1382.56498	1.20139	0.1834
1381.06487	1.19891	0.18496
1379.56475	1.19643	0.18657
1378.06464	1.19393	0.18827
1376.56453	1.19141	0.19
1375.06442	1.18887	0.19179
1373.56431	1.18629	0.19362
1372.0642	1.1837	0.19552
1370.56408	1.18107	0.19749
1369.06397	1.17842	0.19953
1367.56386	1.17575	0.20164
1366.06375	1.17305	0.20383
1364.56364	1.17034	0.20611
1363.06352	1.1676	0.20845
1361.56341	1.16485	0.21088
1360.0633	1.16205	0.21342
1358.56319	1.15924	0.21607
1357.06308	1.15642	0.21885
1355.56297	1.15359	0.22174
1354.06285	1.15076	0.22478
1352.56274	1.14794	0.22796
1351.06263	1.14515	0.23128
1349.56252	1.14241	0.23473
1348.06241	1.13976	0.23833
1346.56229	1.1372	0.24206
1345.06218	1.13472	0.2459
1343.56207	1.13234	0.24987
1342.06196	1.13007	0.25395
1340.56185	1.12791	0.25811
1339.06174	1.12586	0.26237
1337.56162	1.1239	0.26668
1336.06151	1.12203	0.27107
1334.5614	1.12024	0.27555
1333.06129	1.11856	0.2801
1331.56118	1.11699	0.28474
1330.06106	1.11553	0.28945
1328.56095	1.11422	0.29422
1327.06084	1.11303	0.29905
1325.56073	1.112	0.3039
1324.06062	1.11113	0.30881
1322.56051	1.11043	0.31373
1321.06039	1.10989	0.31865
1319.56028	1.10951	0.32355
1318.06017	1.10927	0.32841
1316.56006	1.10917	0.33322
1315.05995	1.10918	0.33798
1313.55983	1.10931	0.34267
1312.05972	1.10954	0.3473
1310.55961	1.10986	0.35187
1309.0595	1.11025	0.35635
1307.55939	1.11071	0.36076
1306.05928	1.11124	0.36509
1304.55916	1.11182	0.36934
1303.05905	1.11245	0.37353
1301.55894	1.11313	0.37763
1300.05883	1.11385	0.38165
1298.55872	1.11461	0.38559
1297.0586	1.11537	0.38944
1295.55849	1.11614	0.39322
1294.05838	1.11691	0.39692
1292.55827	1.11766	0.40055
1291.05816	1.11838	0.40411
1289.55805	1.11908	0.4076
1288.05793	1.11971	0.41104
1286.55782	1.1203	0.41444
1285.05771	1.12081	0.41781
1283.5576	1.12126	0.42115
1282.05749	1.12165	0.42451
1280.55737	1.12195	0.42786
1279.05726	1.12218	0.43123
1277.55715	1.12233	0.43464
1276.05704	1.12242	0.4381
1274.55693	1.12243	0.44162
1273.05682	1.12239	0.44522
1271.5567	1.12229	0.4489
1270.05659	1.12213	0.45267
1268.55648	1.12195	0.45656
1267.05637	1.12172	0.46058
1265.55626	1.12148	0.46471
1264.05615	1.12123	0.46899
1262.55603	1.121	0.47342
1261.05592	1.12079	0.47799
1259.55581	1.12061	0.48272
1258.0557	1.12049	0.48759
1256.55559	1.12045	0.49262
1255.05547	1.12048	0.4978
1253.55536	1.12062	0.50312
1252.05525	1.12087	0.5086
1250.55514	1.12125	0.51421
1249.05503	1.12177	0.51996
1247.55492	1.12243	0.52582
1246.0548	1.12326	0.5318
1244.55469	1.12429	0.53788
1243.05458	1.12549	0.54406
1241.55447	1.12689	0.5503
1240.05436	1.12851	0.55661
1238.55424	1.13032	0.56296
1237.05413	1.13236	0.56934
1235.55402	1.13461	0.57575
1234.05391	1.13709	0.58214
1232.5538	1.13977	0.58853
1231.05369	1.14266	0.59488
1229.55357	1.14575	0.60119
1228.05346	1.14905	0.60745
1226.55335	1.15253	0.61365
1225.05324	1.1562	0.61977
1223.55313	1.16005	0.62581
1222.05301	1.16406	0.63178
1220.5529	1.16824	0.63764
1219.05279	1.17256	0.64341
1217.55268	1.17703	0.64908
1216.05257	1.18164	0.65465
1214.55246	1.18638	0.66012
1213.05234	1.19124	0.66548
1211.55223	1.19621	0.67074
1210.05212	1.20131	0.67589
1208.55201	1.20651	0.68095
1207.0519	1.21182	0.68591
1205.55178	1.21724	0.69076
1204.05167	1.22275	0.6955
1202.55156	1.22837	0.70015
1201.05145	1.2341	0.70469
1199.55134	1.23992	0.70913
1198.05123	1.24585	0.71346
1196.55111	1.25187	0.71768
1195.051	1.25797	0.7218
1193.55089	1.26418	0.72581
1192.05078	1.27046	0.72972
1190.55067	1.27683	0.73352
1189.05055	1.28328	0.73722
1187.55044	1.28983	0.74081
1186.05033	1.29645	0.74432
1184.55022	1.30317	0.74772
1183.05011	1.31	0.75103
1181.55	1.31692	0.75423
1180.04988	1.32397	0.75732
1178.54977	1.33114	0.76032
1177.04966	1.33845	0.76319
1175.54955	1.34589	0.76592
1174.04944	1.35348	0.76851
1172.54932	1.36121	0.77094
1171.04921	1.36908	0.77319
1169.5491	1.37709	0.77527
1168.04899	1.38525	0.77713
1166.54888	1.39355	0.77878
1165.04877	1.40198	0.78019
1163.54865	1.41053	0.78134
1162.04854	1.41919	0.78222
1160.54843	1.42795	0.78282
1159.04832	1.4368	0.78311
1157.54821	1.44572	0.78308
1156.04809	1.45471	0.78272
1154.54798	1.46372	0.782
1153.04787	1.47273	0.78093
1151.54776	1.48175	0.77948
1150.04765	1.49071	0.77766
1148.54754	1.49961	0.77545
1147.04742	1.5084	0.77285
1145.54731	1.51706	0.76985
1144.0472	1.52555	0.76648
1142.54709	1.53384	0.76272
1141.04698	1.5419	0.75861
1139.54686	1.54969	0.75413
1138.04675	1.55719	0.74934
1136.54664	1.56437	0.74421
1135.04653	1.5712	0.7388
1133.54642	1.57767	0.73313
1132.04631	1.58376	0.7272
1130.54619	1.58942	0.72107
1129.04608	1.59468	0.71477
1127.54597	1.5995	0.7083
1126.04586	1.60388	0.70172
1124.54575	1.60781	0.69504
1123.04563	1.61128	0.68831
1121.54552	1.61431	0.68154
1120.04541	1.61687	0.67478
1118.5453	1.61898	0.66805
1117.04519	1.62065	0.66137
1115.54508	1.62186	0.65478
1114.04496	1.62262	0.64831
1112.54485	1.62295	0.64198
1111.04474	1.62284	0.63584
1109.54463	1.62231	0.6299
1108.04452	1.62135	0.62419
1106.5444	1.62001	0.61874
1105.04429	1.61826	0.61358
1103.54418	1.61615	0.60874
1102.04407	1.61367	0.60425
1100.54396	1.61084	0.60013
1099.04385	1.60768	0.59643
1097.54373	1.60419	0.59318
1096.04362	1.60041	0.5904
1094.54351	1.59636	0.58815
1093.0434	1.59207	0.58647
1091.54329	1.58756	0.58538
1090.04317	1.58289	0.58495
1088.54306	1.57811	0.58522
1087.04295	1.57329	0.58621
1085.54284	1.5685	0.58796
1084.04273	1.56381	0.59052
1082.54262	1.55934	0.59388
1081.0425	1.55515	0.59805
1079.54239	1.55139	0.60305
1078.04228	1.54815	0.60883
1076.54217	1.54555	0.61536
1075.04206	1.54369	0.62259
1073.54194	1.54269	0.63044
1072.04183	1.54263	0.63879
1070.54172	1.54359	0.64758
1069.04161	1.54564	0.65665
1067.5415	1.5488	0.66591
1066.04139	1.55311	0.67519
1064.54127	1.55855	0.68438
1063.04116	1.5651	0.69335
1061.54105	1.57272	0.70199
1060.04094	1.58137	0.71016
1058.54083	1.59099	0.71776
1057.04072	1.6015	0.7247
1055.5406	1.61283	0.73089
1054.04049	1.6249	0.73622
1052.54038	1.63764	0.74067
1051.04027	1.65097	0.74415
1049.54016	1.66478	0.74661
1048.04004	1.67898	0.74798
1046.53993	1.69345	0.74824
1045.03982	1.70806	0.74735
1043.53971	1.72269	0.74534
1042.0396	1.73723	0.74219
1040.53949	1.75156	0.73793
1039.03937	1.76555	0.73258
1037.53926	1.77911	0.72619
1036.03915	1.79211	0.71881
1034.53904	1.80448	0.71053
1033.03893	1.81614	0.70141
1031.53881	1.82704	0.69155
1030.0387	1.83712	0.68102
1028.53859	1.84632	0.66992
1027.03848	1.85462	0.65834
1025.53837	1.86197	0.64637
1024.03826	1.86839	0.63413
1022.53814	1.87386	0.62169
1021.03803	1.87839	0.60915
1019.53792	1.88201	0.59661
1018.03781	1.88476	0.58413
1016.5377	1.88667	0.5718
1015.03758	1.8878	0.55969
1013.53747	1.8882	0.54784
1012.03736	1.88795	0.53632
1010.53725	1.88709	0.52516
1009.03714	1.88569	0.51437
1007.53703	1.88381	0.50399
1006.03691	1.88151	0.49403
1004.5368	1.87882	0.48449
1003.03669	1.87581	0.47538
1001.53658	1.87249	0.4667
1000.03647	1.86893	0.45843
998.53635	1.86515	0.45059
997.03624	1.86117	0.44316
995.53613	1.85703	0.43612
994.03602	1.85278	0.42949
992.53591	1.84842	0.42322
991.0358	1.844	0.41732
989.53568	1.83951	0.41177
988.03557	1.835	0.40655
986.53546	1.83047	0.40166
985.03535	1.82593	0.39707
983.53524	1.8214	0.39277
982.03512	1.8169	0.38873
980.53501	1.81241	0.38495
979.0349	1.80795	0.38143
977.53479	1.80352	0.37813
976.03468	1.79915	0.37505
974.53457	1.79483	0.37218
973.03445	1.79056	0.36949
971.53434	1.78635	0.36698
970.03423	1.7822	0.36461
968.53412	1.77809	0.3624
967.03401	1.77405	0.36033
965.53389	1.77004	0.35837
964.03378	1.76606	0.35651
962.53367	1.76211	0.35474
961.03356	1.75815	0.35307
959.53345	1.75418	0.35148
958.03334	1.75017	0.34997
956.53322	1.74612	0.34854
955.03311	1.74197	0.34721
953.533	1.73772	0.34597
952.03289	1.73335	0.34487
950.53278	1.72883	0.34391
949.03266	1.72414	0.34311
947.53255	1.71929	0.34253
946.03244	1.71426	0.34218
944.53233	1.70904	0.34211
943.03222	1.70365	0.34236
941.53211	1.69808	0.34298
940.03199	1.69238	0.34402
938.53188	1.68656	0.34552
937.03177	1.68067	0.34753
935.53166	1.67474	0.3501
934.03155	1.66884	0.35326
932.53143	1.66304	0.35707
931.03132	1.65742	0.36153
929.53121	1.65207	0.36667
928.0311	1.6471	0.3725
926.53099	1.6426	0.37901
925.03088	1.63869	0.38617
923.53076	1.63547	0.39396
922.03065	1.63304	0.40231
920.53054	1.63152	0.41116
919.03043	1.63099	0.42041
917.53032	1.63152	0.42994
916.0302	1.63318	0.43965
914.53009	1.636	0.4494
913.02998	1.64001	0.45906
911.52987	1.6452	0.46848
910.02976	1.65156	0.47751
908.52965	1.65904	0.48601
907.02953	1.66756	0.49384
905.52942	1.67703	0.50088
904.02931	1.68736	0.507
902.5292	1.69843	0.51211
901.02909	1.71009	0.51612
899.52897	1.72221	0.51896
898.02886	1.73463	0.52059
896.52875	1.7472	0.52099
895.02864	1.75977	0.52013
893.52853	1.77216	0.51807
892.02842	1.78425	0.51482
890.5283	1.79589	0.51045
889.02819	1.80695	0.50503
887.52808	1.81732	0.49866
886.02797	1.8269	0.49143
884.52786	1.83564	0.48346
883.02774	1.84346	0.47489
881.52763	1.85034	0.46581
880.02752	1.85626	0.45636
878.52741	1.86123	0.44665
877.0273	1.86527	0.4368
875.52719	1.86843	0.4269
874.02707	1.87075	0.41706
872.52696	1.87228	0.40734
871.02685	1.8731	0.39782
869.52674	1.87328	0.38854
868.02663	1.87288	0.37957
866.52652	1.87196	0.37091
865.0264	1.8706	0.36259
863.52629	1.86885	0.35463
862.02618	1.86675	0.34704
860.52607	1.86438	0.33981
859.02596	1.86176	0.33294
857.52584	1.85892	0.32641
856.02573	1.85592	0.32023
854.52562	1.85279	0.31437
853.02551	1.84954	0.30882
851.5254	1.8462	0.30357
850.02529	1.8428	0.29859
848.52517	1.83934	0.29388
847.02506	1.83583	0.28942
845.52495	1.83229	0.28519
844.02484	1.82872	0.28119
842.52473	1.82512	0.27739
841.02461	1.82149	0.2738
839.5245	1.81785	0.2704
838.02439	1.8142	0.26719
836.52428	1.81054	0.26416
835.02417	1.80687	0.26131
833.52406	1.80322	0.25865
832.02394	1.79956	0.25616
830.52383	1.79592	0.25383
829.02372	1.79231	0.25167
827.52361	1.78873	0.24965
826.0235	1.7852	0.24778
824.52338	1.78172	0.24606
823.02327	1.77831	0.24447
821.52316	1.77498	0.243
820.02305	1.77171	0.24161
818.52294	1.76851	0.24033
817.02283	1.76538	0.23912
815.52271	1.76229	0.23798
814.0226	1.75926	0.23691
812.52249	1.75625	0.2359
811.02238	1.75328	0.23496
809.52227	1.75032	0.23408
808.02215	1.74738	0.23325
806.52204	1.74446	0.23249
805.02193	1.74156	0.2318
803.52182	1.73868	0.23116
802.02171	1.73582	0.23061
800.5216	1.73299	0.23012
799.02148	1.73019	0.22972
797.52137	1.72742	0.22939
796.02126	1.72469	0.22911
794.52115	1.72201	0.22891
793.02104	1.71937	0.22876
791.52092	1.71678	0.22868
790.02081	1.71424	0.22866
788.5207	1.71175	0.2287
787.02059	1.70933	0.22877
785.52048	1.70696	0.22889
784.02037	1.70464	0.22905
782.52025	1.70237	0.22924
781.02014	1.70015	0.22945
779.52003	1.69798	0.2297
778.01992	1.69586	0.22998
776.51981	1.69378	0.23027
775.01969	1.69176	0.23058
773.51958	1.68975	0.2309
772.01947	1.68779	0.23124
770.51936	1.68587	0.2316
769.01925	1.68398	0.23197
767.51914	1.68212	0.23236
766.01902	1.6803	0.23276
764.51891	1.6785	0.23316
763.0188	1.67673	0.23359
761.51869	1.67499	0.23402
760.01858	1.67327	0.23447
758.51846	1.67161	0.23494
757.01835	1.66997	0.23541
755.51824	1.66836	0.23588
754.01813	1.66679	0.23636
752.51802	1.66525	0.23684
751.01791	1.66376	0.23731
749.51779	1.6623	0.23777
748.01768	1.66088	0.23821
746.51757	1.65946	0.23864
745.01746	1.65806	0.23906
743.51735	1.65667	0.23946
742.01723	1.65528	0.23983
740.51712	1.65391	0.2402
739.01701	1.65252	0.24053
737.5169	1.65112	0.24086
736.01679	1.6497	0.24118
734.51668	1.64827	0.24149
733.01656	1.64684	0.2418
731.51645	1.64541	0.2421
730.01634	1.64397	0.24239
728.51623	1.64252	0.24266
727.01612	1.64104	0.24292
725.516	1.63954	0.24318
724.01589	1.63802	0.24345
722.51578	1.63648	0.2437
721.01567	1.6349	0.24395
719.51556	1.63325	0.24419
718.01545	1.63155	0.24445
716.51533	1.62979	0.24473
715.01522	1.62799	0.24505
713.51511	1.62615	0.24542
712.015	1.62428	0.24582
710.51489	1.62237	0.24627
709.01477	1.62044	0.24675
707.51466	1.61849	0.24729
706.01455	1.61655	0.24788
704.51444	1.61462	0.24852
703.01433	1.6127	0.2492
701.51422	1.61079	0.2499
700.0141	1.60888	0.25062
698.51399	1.60697	0.25136
697.01388	1.60506	0.25213
695.51377	1.60314	0.25291
694.01366	1.6012	0.25371
692.51354	1.59924	0.25452
691.01343	1.59725	0.25534
689.51332	1.59522	0.25618
688.01321	1.59317	0.25704
686.5131	1.59106	0.25793
685.01299	1.58891	0.25886
683.51287	1.58671	0.25985
682.01276	1.58448	0.26088
680.51265	1.58224	0.26194
679.01254	1.58003	0.26299
677.51243	1.57778	0.26407
676.01232	1.57547	0.26518
674.5122	1.57311	0.26633
673.01209	1.57069	0.26753
671.51198	1.56825	0.26877
670.01187	1.56572	0.27001
668.51176	1.56307	0.27127
667.01164	1.56023	0.2726
665.51153	1.55724	0.27405
664.01142	1.55419	0.27566
662.51131	1.55109	0.27739
661.0112	1.54793	0.27923
659.51109	1.5447	0.28118
658.01097	1.54141	0.28326
656.51086	1.53807	0.28548
655.01075	1.53473	0.28785
653.51064	1.53136	0.2904
652.01053	1.52793	0.29308
650.51041	1.5244	0.2959
649.0103	1.52078	0.29888
647.51019	1.51706	0.30204
646.01008	1.51324	0.30542
644.50997	1.50936	0.30905
643.00986	1.50539	0.31293
641.50974	1.50138	0.3171
640.00963	1.49733	0.32159
638.50952	1.49328	0.32642
637.00941	1.48925	0.3316
635.5093	1.48527	0.33714
634.00918	1.48138	0.34306
632.50907	1.4776	0.3494
631.00896	1.47397	0.35614
629.50885	1.47055	0.36331
628.00874	1.46739	0.37088
626.50863	1.46454	0.37884
625.00851	1.46202	0.38716
623.5084	1.45988	0.39583
622.00829	1.45816	0.40483
620.50818	1.45688	0.41412
619.00807	1.45605	0.42368
617.50795	1.45569	0.43349
616.00784	1.45575	0.44348
614.50773	1.45627	0.45365
613.00762	1.45722	0.46398
611.50751	1.4586	0.47447
610.0074	1.46044	0.48513
608.50728	1.46271	0.49594
607.00717	1.46544	0.50692
605.50706	1.46864	0.51806
604.00695	1.47233	0.5294
602.50684	1.47655	0.54092
601.00672	1.48136	0.55265
599.50661	1.48679	0.56459
598.0065	1.49292	0.57675
596.50639	1.49983	0.58914
595.00628	1.50763	0.60173
593.50617	1.51646	0.61447
592.00605	1.52646	0.62729
590.50594	1.53775	0.64006
589.00583	1.55051	0.65264
587.50572	1.56485	0.66485
586.00561	1.58094	0.67642
584.50549	1.59888	0.68707
583.00538	1.61866	0.69643
581.50527	1.64025	0.70416
580.00516	1.66348	0.70988
578.50505	1.68808	0.71325
577.00494	1.71367	0.71395
575.50482	1.73976	0.71179
574.00471	1.76575	0.70665
572.5046	1.791	0.69854
571.00449	1.81494	0.68756
569.50438	1.83698	0.67398
568.00426	1.85663	0.65812
566.50415	1.87351	0.64043
565.00404	1.88743	0.62141
563.50393	1.89833	0.60157
562.00382	1.90631	0.58138
560.50371	1.91156	0.56133
559.00359	1.91435	0.54178
557.50348	1.915	0.52304
556.00337	1.9139	0.50535
554.50326	1.91137	0.48887
553.00315	1.90773	0.47367
551.50303	1.90324	0.45977
550.00292	1.89811	0.44715
548.50281	1.89254	0.43575
547.0027	1.88671	0.42549
545.50259	1.88071	0.41628
544.00248	1.87464	0.40803
542.50236	1.86857	0.40068
541.00225	1.86256	0.39415
539.50214	1.85666	0.38835
538.00203	1.85096	0.38318
536.50192	1.84544	0.37857
535.0018	1.84011	0.37446
533.50169	1.83493	0.3708
532.00158	1.82993	0.36756
530.50147	1.82515	0.36468
529.00136	1.82061	0.36209
527.50125	1.81625	0.35972
526.00113	1.81202	0.35754
524.50102	1.80786	0.35557
523.00091	1.80379	0.35382
521.5008	1.79983	0.35227
520.00069	1.79597	0.35089
518.50057	1.79214	0.34965
517.00046	1.78833	0.34855
515.50035	1.78452	0.34762
514.00024	1.78074	0.34687
512.50013	1.77706	0.34633
511.00002	1.77349	0.34596
509.4999	1.77	0.34575
507.99979	1.7666	0.34565
506.49968	1.76325	0.34567
504.99957	1.75996	0.34583
503.49946	1.75671	0.34614
501.99934	1.75349	0.34662
500.49923	1.75028	0.34725
498.99912	1.74711	0.34802
497.49901	1.74397	0.34894
495.9989	1.74087	0.35
494.49879	1.73782	0.35124
492.99867	1.73488	0.35266
491.49856	1.73205	0.35426
489.99845	1.72933	0.35605
488.49834	1.72671	0.358
486.99823	1.7242	0.3601
485.49812	1.72179	0.36234
483.998	1.71949	0.36477
482.49789	1.71731	0.36733
480.99778	1.71527	0.37007
479.49767	1.71339	0.37297
477.99756	1.71171	0.37603
476.49744	1.71024	0.37921
474.99733	1.70896	0.38248
473.49722	1.70787	0.38588
471.99711	1.70697	0.38942
470.497	1.70623	0.39308
468.99689	1.70567	0.3969
467.49677	1.70531	0.40088
465.99666	1.70519	0.405
464.49655	1.70535	0.40924
462.99644	1.70587	0.41358
461.49633	1.70677	0.41802
459.99621	1.70816	0.42252
458.4961	1.71005	0.42701
456.99599	1.7125	0.43144
455.49588	1.71546	0.43572
453.99577	1.71888	0.43981
452.49566	1.72276	0.4436
450.99554	1.72708	0.44704
449.49543	1.7318	0.45005
447.99532	1.73683	0.45258
446.49521	1.74212	0.45459
444.9951	1.74756	0.45607
443.49498	1.75313	0.45696
441.99487	1.75874	0.45727
440.49476	1.76428	0.45698
438.99465	1.76958	0.45609
437.49454	1.77453	0.4547
435.99443	1.77908	0.45287
434.49431	1.78319	0.45069
432.9942	1.78684	0.4482
431.49409	1.78998	0.44551
429.99398	1.79258	0.44272
428.49387	1.7947	0.43992
426.99375	1.79647	0.43719
425.49364	1.79799	0.43454
423.99353	1.79932	0.43202
422.49342	1.80052	0.42958
420.99331	1.80161	0.42725
419.4932	1.80267	0.42502
417.99308	1.80381	0.42286
416.49297	1.80504	0.42068
414.99286	1.80631	0.41838
413.49275	1.80755	0.4159
411.99264	1.80865	0.41327
410.49252	1.80959	0.4105
408.99241	1.81025	0.40761
407.4923	1.81062	0.40465
405.99219	1.81061	0.40164
404.49208	1.81019	0.3986
402.99197	1.80937	0.39559
401.49185	1.80818	0.39267
399.99174	1.8067	0.38992
