#SUBSTANCE=Sulphuric acid
#DESCRIPTION=Refractive indices of 65 wt% sulphuric acid from 400 to 7500 cm-1 at 298 K
#TEMPERATURE=298 K
#CONCENTRATION=65 wt%
#DOI=10.1021/jp026576n
#REFERENCE=Spectroscopic Study of Aqueous H2SO4 at Different Temperatures and Compositions:  Variations in Dissociation and Optical Properties
##Cathrine E. Lund Myhre,†, Daniel H. Christensen,‡, Flemming M. Nicolaisen,‡ and, and Claus J. Nielsen*,†
##The Journal of Physical Chemistry A 2003 107 (12), 1979-1991 
#FORMAT=WAVN N K
7498.52083	1.40819	0.01737
7497.02072	1.40835	0.01723
7495.52061	1.40837	0.01704
7494.0205	1.40827	0.01685
7492.52039	1.40801	0.01676
7491.02027	1.40776	0.01684
7489.52016	1.40764	0.01705
7488.02005	1.40773	0.01724
7486.51994	1.40789	0.01734
7485.01983	1.40812	0.01734
7483.51971	1.40827	0.01717
7482.0196	1.4082	0.017
7480.51949	1.408	0.01697
7479.01938	1.40801	0.01704
7477.51927	1.40808	0.017
7476.01916	1.40801	0.01692
7474.51904	1.40786	0.01693
7473.01893	1.40781	0.01701
7471.51882	1.40781	0.01707
7470.01871	1.40779	0.01714
7468.5186	1.40791	0.01718
7467.01848	1.40789	0.01715
7465.51837	1.40782	0.01722
7464.01826	1.4079	0.01734
7462.51815	1.40815	0.01736
7461.01804	1.40832	0.0172
7459.51793	1.4083	0.017
7458.01781	1.4081	0.01692
7456.5177	1.40803	0.01694
7455.01759	1.40802	0.01695
7453.51748	1.40799	0.01691
7452.01737	1.40787	0.01693
7450.51725	1.40782	0.01702
7449.01714	1.40785	0.01712
7447.51703	1.408	0.01719
7446.01692	1.40824	0.01706
7444.51681	1.40813	0.01684
7443.0167	1.40788	0.01677
7441.51658	1.40769	0.01689
7440.01647	1.40771	0.01703
7438.51636	1.40776	0.01711
7437.01625	1.40782	0.01715
7435.51614	1.4079	0.01718
7434.01602	1.408	0.01712
7432.51591	1.40794	0.01706
7431.0158	1.40791	0.01707
7429.51569	1.40793	0.01708
7428.01558	1.40795	0.01703
7426.51547	1.40779	0.01703
7425.01535	1.40776	0.01718
7423.51524	1.4079	0.01728
7422.01513	1.40811	0.01724
7420.51502	1.40817	0.0171
7419.01491	1.40812	0.01697
7417.51479	1.40799	0.01691
7416.01468	1.40785	0.01695
7414.51457	1.40787	0.01702
7413.01446	1.40788	0.01703
7411.51435	1.40784	0.01705
7410.01424	1.40782	0.01712
7408.51412	1.40796	0.01717
7407.01401	1.40802	0.01709
7405.5139	1.40797	0.01702
7404.01379	1.40786	0.01705
7402.51368	1.40793	0.0171
7401.01356	1.40791	0.01705
7399.51345	1.40784	0.01709
7398.01334	1.40784	0.01717
7396.51323	1.40799	0.01719
7395.01312	1.40799	0.01712
7393.51301	1.40792	0.01712
7392.01289	1.4079	0.01717
7390.51278	1.40788	0.01726
7389.01267	1.40798	0.01737
7387.51256	1.40818	0.01743
7386.01245	1.40843	0.0174
7384.51233	1.40884	0.01715
7383.01222	1.40878	0.01666
7381.51211	1.40833	0.01638
7380.012	1.40782	0.01649
7378.51189	1.40785	0.01673
7377.01178	1.40787	0.01679
7375.51166	1.40784	0.01684
7374.01155	1.40786	0.01688
7372.51144	1.40784	0.01694
7371.01133	1.40792	0.01701
7369.51122	1.40805	0.01699
7368.0111	1.4081	0.01689
7366.51099	1.40803	0.0168
7365.01088	1.40795	0.01678
7363.51077	1.40789	0.01679
7362.01066	1.40785	0.01679
7360.51055	1.40779	0.01682
7359.01043	1.40778	0.01685
7357.51032	1.40771	0.01682
7356.01021	1.40747	0.01695
7354.5101	1.40744	0.01725
7353.00999	1.40775	0.01751
7351.50987	1.40815	0.01749
7350.00976	1.40834	0.01732
7348.50965	1.40833	0.01721
7347.00954	1.40845	0.0172
7345.50943	1.40873	0.01709
7344.00932	1.40905	0.01672
7342.5092	1.40909	0.0161
7341.00909	1.40838	0.0155
7339.50898	1.40738	0.01553
7338.00887	1.40668	0.01605
7336.50876	1.4065	0.0168
7335.00864	1.40681	0.01752
7333.50853	1.40759	0.01797
7332.00842	1.40864	0.01784
7330.50831	1.40935	0.01709
7329.0082	1.40905	0.01613
7327.50809	1.40817	0.01573
7326.00797	1.40739	0.01584
7324.50786	1.40696	0.01626
7323.00775	1.40691	0.01677
7321.50764	1.40715	0.01714
7320.00753	1.40752	0.01729
7318.50741	1.40772	0.0173
7317.0073	1.40798	0.0173
7315.50719	1.40826	0.01714
7314.00708	1.40839	0.0168
7312.50697	1.40797	0.01663
7311.00686	1.40798	0.01676
7309.50674	1.40818	0.0166
7308.00663	1.40802	0.0163
7306.50652	1.40735	0.01627
7305.00641	1.40702	0.01671
7303.5063	1.40721	0.0172
7302.00619	1.40775	0.01735
7300.50607	1.40794	0.01729
7299.00596	1.40827	0.01725
7297.50585	1.40864	0.01697
7296.00574	1.40878	0.01646
7294.50563	1.40836	0.01601
7293.00551	1.40787	0.0159
7291.5054	1.40751	0.01599
7290.00529	1.40734	0.0161
7288.50518	1.40711	0.01624
7287.00507	1.40693	0.01646
7285.50496	1.40687	0.01676
7284.00484	1.40698	0.01704
7282.50473	1.40728	0.01721
7281.00462	1.40751	0.01719
7279.50451	1.40763	0.01712
7278.0044	1.40768	0.01706
7276.50428	1.40776	0.01699
7275.00417	1.40774	0.01688
7273.50406	1.40766	0.01683
7272.00395	1.40759	0.01684
7270.50384	1.40761	0.01684
7269.00373	1.40741	0.01685
7267.50361	1.40732	0.01709
7266.0035	1.40763	0.01727
7264.50339	1.40804	0.01716
7263.00328	1.40811	0.0168
7261.50317	1.40778	0.01654
7260.00305	1.40727	0.01667
7258.50294	1.40724	0.01702
7257.00283	1.40751	0.01726
7255.50272	1.40784	0.01725
7254.00261	1.40803	0.01706
7252.5025	1.40796	0.01684
7251.00238	1.40769	0.01677
7249.50227	1.40746	0.01699
7248.00216	1.4076	0.01734
7246.50205	1.40829	0.01744
7245.00194	1.40892	0.01699
7243.50182	1.40892	0.01613
7242.00171	1.40799	0.01559
7240.5016	1.40685	0.0158
7239.00149	1.40633	0.01667
7237.50138	1.40681	0.01763
7236.00127	1.40819	0.01784
7234.50115	1.40924	0.01707
7233.00104	1.40893	0.01588
7231.50093	1.40779	0.01542
7230.00082	1.4068	0.01574
7228.50071	1.40663	0.01635
7227.00059	1.40679	0.01679
7225.50048	1.40711	0.01702
7224.00037	1.40742	0.01702
7222.50026	1.40758	0.01687
7221.00015	1.40751	0.01669
7219.50004	1.40729	0.01663
7217.99992	1.40707	0.01674
7216.49981	1.40701	0.01693
7214.9997	1.40706	0.01712
7213.49959	1.40714	0.01725
7211.99948	1.40721	0.0174
7210.49936	1.40734	0.0176
7208.99925	1.40784	0.01777
7207.49914	1.40845	0.01753
7205.99903	1.40876	0.01691
7204.49892	1.40827	0.01637
7202.99881	1.40771	0.01629
7201.49869	1.40736	0.01648
7199.99858	1.4073	0.01673
7198.49847	1.40738	0.01692
7196.99836	1.40759	0.01699
7195.49825	1.40773	0.01687
7193.99813	1.40761	0.01676
7192.49802	1.4074	0.0168
7190.99791	1.40733	0.01698
7189.4978	1.40741	0.01717
7187.99769	1.40759	0.01736
7186.49758	1.40808	0.01741
7184.99746	1.40866	0.01711
7183.49735	1.40882	0.01637
7181.99724	1.40817	0.01577
7180.49713	1.40719	0.01574
7178.99702	1.40659	0.01627
7177.4969	1.40655	0.01694
7175.99679	1.40701	0.01743
7174.49668	1.40759	0.0176
7172.99657	1.40818	0.01745
7171.49646	1.40856	0.01699
7169.99635	1.4085	0.01643
7168.49623	1.40798	0.01607
7166.99612	1.40746	0.01611
7165.49601	1.40721	0.01641
7163.9959	1.40737	0.01663
7162.49579	1.40762	0.01661
7160.99567	1.40757	0.01641
7159.49556	1.40732	0.01636
7157.99545	1.40709	0.01646
7156.49534	1.40702	0.01664
7154.99523	1.40697	0.01682
7153.49512	1.40703	0.01705
7151.995	1.40726	0.01719
7150.49489	1.40744	0.01726
7148.99478	1.40773	0.01727
7147.49467	1.40801	0.01709
7145.99456	1.4081	0.01683
7144.49444	1.40804	0.0166
7142.99433	1.408	0.01641
7141.49422	1.40784	0.01615
7139.99411	1.40741	0.01606
7138.494	1.40702	0.01623
7136.99389	1.40699	0.01654
7135.49377	1.40714	0.01668
7133.99366	1.40722	0.01669
7132.49355	1.40711	0.01673
7130.99344	1.40716	0.01689
7129.49333	1.40736	0.01695
7127.99321	1.40757	0.01683
7126.4931	1.40743	0.01669
7124.99299	1.40729	0.01674
7123.49288	1.40734	0.01688
7121.99277	1.40762	0.0169
7120.49266	1.40799	0.01661
7118.99254	1.40779	0.01609
7117.49243	1.40711	0.01587
7115.99232	1.40638	0.01615
7114.49221	1.40617	0.01674
7112.9921	1.40638	0.01728
7111.49198	1.40685	0.0176
7109.99187	1.40742	0.0176
7108.49176	1.40778	0.01734
7106.99165	1.40781	0.01699
7105.49154	1.40762	0.01678
7103.99143	1.40735	0.01677
7102.49131	1.40723	0.01691
7100.9912	1.40734	0.01709
7099.49109	1.40761	0.01712
7097.99098	1.40789	0.01694
7096.49087	1.4079	0.01662
7094.99076	1.40762	0.01638
7093.49064	1.40729	0.01639
7091.99053	1.40715	0.0165
7090.49042	1.40711	0.01659
7088.99031	1.40699	0.01668
7087.4902	1.40694	0.01688
7085.99008	1.40712	0.01701
7084.48997	1.40726	0.01702
7082.98986	1.40743	0.01695
7081.48975	1.40745	0.01676
7079.98964	1.40717	0.01667
7078.48953	1.40689	0.01683
7076.98941	1.40692	0.01714
7075.4893	1.40724	0.01732
7073.98919	1.40764	0.0172
7072.48908	1.40764	0.01695
7070.98897	1.40751	0.01681
7069.48885	1.4074	0.01679
7067.98874	1.40735	0.01677
7066.48863	1.40716	0.01682
7064.98852	1.40716	0.01699
7063.48841	1.40732	0.01706
7061.9883	1.40746	0.01703
7060.48818	1.40754	0.01693
7058.98807	1.40747	0.01681
7057.48796	1.40737	0.0168
7055.98785	1.40735	0.01677
7054.48774	1.40721	0.01676
7052.98762	1.40705	0.01688
7051.48751	1.40707	0.0171
7049.9874	1.40736	0.01719
7048.48729	1.40755	0.01709
7046.98718	1.40759	0.01692
7045.48707	1.40744	0.01677
7043.98695	1.40716	0.01682
7042.48684	1.40709	0.01704
7040.98673	1.40731	0.01723
7039.48662	1.40761	0.01719
7037.98651	1.40773	0.017
7036.48639	1.40759	0.01685
7034.98628	1.4075	0.01683
7033.48617	1.40744	0.01683
7031.98606	1.40736	0.01689
7030.48595	1.40741	0.01698
7028.98584	1.40753	0.01701
7027.48572	1.40764	0.01694
7025.98561	1.40768	0.01685
7024.4855	1.40769	0.01673
7022.98539	1.40759	0.0166
7021.48528	1.40739	0.01656
7019.98516	1.40718	0.01668
7018.48505	1.40728	0.01683
7016.98494	1.40737	0.01682
7015.48483	1.40733	0.01677
7013.98472	1.4072	0.01682
7012.48461	1.40717	0.01697
7010.98449	1.40734	0.01712
7009.48438	1.40759	0.01709
7007.98427	1.40775	0.01694
7006.48416	1.40775	0.01673
7004.98405	1.4076	0.01657
7003.48393	1.40737	0.01653
7001.98382	1.40716	0.01663
7000.48371	1.40707	0.01683
6998.9836	1.4072	0.01703
6997.48349	1.40742	0.01706
6995.98338	1.40754	0.01698
6994.48326	1.40748	0.01693
6992.98315	1.40747	0.017
6991.48304	1.40762	0.01708
6989.98293	1.40792	0.017
6988.48282	1.40808	0.01675
6986.9827	1.40805	0.01643
6985.48259	1.4078	0.01616
6983.98248	1.40737	0.01609
6982.48237	1.40703	0.01625
6980.98226	1.40689	0.01653
6979.48215	1.40697	0.01681
6977.98203	1.40724	0.01696
6976.48192	1.40758	0.01688
6974.98181	1.40763	0.01662
6973.4817	1.40742	0.01644
6971.98159	1.40711	0.01649
6970.48147	1.40701	0.01669
6968.98136	1.40715	0.01686
6967.48125	1.40735	0.01688
6965.98114	1.40746	0.01676
6964.48103	1.40736	0.01665
6962.98092	1.40722	0.01667
6961.4808	1.40718	0.01679
6959.98069	1.4073	0.01685
6958.48058	1.4074	0.01682
6956.98047	1.40741	0.01676
6955.48036	1.4074	0.01673
6953.98024	1.40742	0.01667
6952.48013	1.40731	0.01662
6950.98002	1.40726	0.01665
6949.47991	1.40722	0.01666
6947.9798	1.40715	0.0167
6946.47969	1.40709	0.01679
6944.97957	1.40713	0.01692
6943.47946	1.40726	0.01699
6941.97935	1.40741	0.01695
6940.47924	1.40739	0.0169
6938.97913	1.40742	0.0169
6937.47901	1.40745	0.01687
6935.9789	1.40742	0.0169
6934.47879	1.40758	0.0169
6932.97868	1.40766	0.01678
6931.47857	1.40757	0.01664
6929.97846	1.40735	0.01666
6928.47834	1.40732	0.01681
6926.97823	1.4075	0.01691
6925.47812	1.40769	0.01683
6923.97801	1.4077	0.01671
6922.4779	1.40761	0.01667
6920.97778	1.40773	0.01669
6919.47767	1.4079	0.01654
6917.97756	1.40789	0.01626
6916.47745	1.40756	0.01607
6914.97734	1.40721	0.01611
6913.47723	1.40701	0.0163
6911.97711	1.407	0.01653
6910.477	1.40714	0.01667
6908.97689	1.40726	0.0167
6907.47678	1.40735	0.01669
6905.97667	1.40741	0.01662
6904.47656	1.40733	0.01659
6902.97644	1.40732	0.01663
6901.47633	1.40737	0.01666
6899.97622	1.40743	0.01665
6898.47611	1.40751	0.0166
6896.976	1.4075	0.01652
6895.47588	1.40745	0.01647
6893.97577	1.40741	0.01641
6892.47566	1.40724	0.01642
6890.97555	1.40719	0.01655
6889.47544	1.40729	0.01665
6887.97533	1.40744	0.01662
6886.47521	1.40742	0.01656
6884.9751	1.4074	0.01656
6883.47499	1.40746	0.01658
6881.97488	1.40758	0.01648
6880.47477	1.4074	0.0164
6878.97465	1.40735	0.01648
6877.47454	1.40743	0.01652
6875.97443	1.40754	0.01647
6874.47432	1.40752	0.01639
6872.97421	1.4075	0.01635
6871.4741	1.40751	0.01632
6869.97398	1.40754	0.01622
6868.47387	1.40743	0.0161
6866.97376	1.40721	0.01606
6865.47365	1.40701	0.01618
6863.97354	1.40696	0.0164
6862.47342	1.40714	0.01656
6860.97331	1.40738	0.01656
6859.4732	1.40753	0.01641
6857.97309	1.40746	0.01624
6856.47298	1.40722	0.01622
6854.97287	1.40724	0.01634
6853.47275	1.40734	0.01632
6851.97264	1.40733	0.01627
6850.47253	1.40731	0.01627
6848.97242	1.4074	0.01624
6847.47231	1.40741	0.01607
6845.97219	1.40718	0.016
6844.47208	1.40703	0.01606
6842.97197	1.40694	0.01618
6841.47186	1.40696	0.01634
6839.97175	1.40713	0.01641
6838.47164	1.4073	0.01634
6836.97152	1.40731	0.0162
6835.47141	1.4072	0.01613
6833.9713	1.40711	0.01615
6832.47119	1.40715	0.01615
6830.97108	1.4071	0.01611
6829.47096	1.40704	0.01614
6827.97085	1.40708	0.01614
6826.47074	1.40703	0.0161
6824.97063	1.40693	0.01611
6823.47052	1.40688	0.01621
6821.97041	1.40698	0.01626
6820.47029	1.40705	0.01622
6818.97018	1.407	0.01615
6817.47007	1.40691	0.01617
6815.96996	1.4069	0.01621
6814.46985	1.40692	0.01622
6812.96973	1.40687	0.01621
6811.46962	1.40681	0.01628
6809.96951	1.40684	0.01638
6808.4694	1.40697	0.01642
6806.96929	1.40712	0.01637
6805.46918	1.40715	0.01623
6803.96906	1.40704	0.01614
6802.46895	1.40692	0.01614
6800.96884	1.40687	0.01619
6799.46873	1.40687	0.01624
6797.96862	1.40689	0.01626
6796.4685	1.40689	0.0163
6794.96839	1.40698	0.01632
6793.46828	1.40706	0.01626
6791.96817	1.40708	0.01616
6790.46806	1.40702	0.01607
6788.96795	1.4069	0.01602
6787.46783	1.40679	0.01602
6785.96772	1.40672	0.01605
6784.46761	1.4066	0.0161
6782.9675	1.40654	0.01621
6781.46739	1.40652	0.01632
6779.96727	1.40652	0.0165
6778.46716	1.40678	0.0166
6776.96705	1.40694	0.01652
6775.46694	1.40697	0.01642
6773.96683	1.40693	0.01638
6772.46672	1.40693	0.01638
6770.9666	1.40697	0.01637
6769.46649	1.407	0.01634
6767.96638	1.40702	0.01632
6766.46627	1.40709	0.01626
6764.96616	1.40705	0.01616
6763.46604	1.40698	0.01613
6761.96593	1.40698	0.0161
6760.46582	1.40694	0.01603
6758.96571	1.40677	0.016
6757.4656	1.40664	0.01612
6755.96549	1.40674	0.01623
6754.46537	1.40692	0.0162
6752.96526	1.40689	0.01605
6751.46515	1.40674	0.01599
6749.96504	1.40659	0.01605
6748.46493	1.40657	0.01615
6746.96481	1.40668	0.0162
6745.4647	1.40668	0.0161
6743.96459	1.40647	0.01612
6742.46448	1.4064	0.01629
6740.96437	1.40653	0.01645
6739.46426	1.40676	0.01645
6737.96414	1.4069	0.01632
6736.46403	1.40686	0.01615
6734.96392	1.40664	0.01605
6733.46381	1.40643	0.01615
6731.9637	1.40639	0.0163
6730.46358	1.40644	0.01642
6728.96347	1.40643	0.01651
6727.46336	1.40651	0.01668
6725.96325	1.40678	0.01676
6724.46314	1.40705	0.01668
6722.96303	1.4072	0.01649
6721.46291	1.40721	0.01627
6719.9628	1.4071	0.01611
6718.46269	1.40695	0.01602
6716.96258	1.40682	0.01601
6715.46247	1.40671	0.01602
6713.96236	1.4066	0.01608
6712.46224	1.40656	0.01619
6710.96213	1.40663	0.01629
6709.46202	1.40676	0.01631
6707.96191	1.40685	0.01625
6706.4618	1.40684	0.01616
6704.96168	1.40676	0.01611
6703.46157	1.40673	0.01613
6701.96146	1.40679	0.0161
6700.46135	1.4068	0.01601
6698.96124	1.40666	0.0159
6697.46113	1.40644	0.01591
6695.96101	1.40626	0.01603
6694.4609	1.40615	0.01626
6692.96079	1.40632	0.0165
6691.46068	1.40658	0.01654
6689.96057	1.40671	0.0165
6688.46045	1.40679	0.01644
6686.96034	1.40689	0.01636
6685.46023	1.40694	0.01623
6683.96012	1.40689	0.01609
6682.46001	1.40676	0.01602
6680.9599	1.40668	0.016
6679.45978	1.40658	0.01597
6677.95967	1.40639	0.01604
6676.45956	1.40631	0.0162
6674.95945	1.40638	0.01637
6673.45934	1.40654	0.01647
6671.95922	1.40675	0.01647
6670.45911	1.40698	0.01632
6668.959	1.40693	0.01606
6667.45889	1.40667	0.01595
6665.95878	1.40642	0.01606
6664.45867	1.40648	0.01623
6662.95855	1.40657	0.01629
6661.45844	1.40668	0.01632
6659.95833	1.40682	0.01626
6658.45822	1.40686	0.01612
6656.95811	1.40672	0.01601
6655.45799	1.4066	0.01606
6653.95788	1.40663	0.01612
6652.45777	1.40673	0.01611
6650.95766	1.40678	0.01602
6649.45755	1.40676	0.0159
6647.95744	1.40662	0.01578
6646.45732	1.40635	0.01579
6644.95721	1.40619	0.01596
6643.4571	1.40624	0.01617
6641.95699	1.40645	0.01623
6640.45688	1.40653	0.01617
6638.95676	1.40651	0.0161
6637.45665	1.40644	0.01609
6635.95654	1.40639	0.01613
6634.45643	1.40639	0.0162
6632.95632	1.40652	0.01624
6631.45621	1.40659	0.01614
6629.95609	1.40646	0.01608
6628.45598	1.40632	0.01617
6626.95587	1.40642	0.01632
6625.45576	1.40666	0.01633
6623.95565	1.40683	0.01612
6622.45553	1.40661	0.01594
6620.95542	1.40636	0.01598
6619.45531	1.40632	0.01618
6617.9552	1.40655	0.01624
6616.45509	1.40664	0.01616
6614.95498	1.40663	0.01607
6613.45486	1.40657	0.01602
6611.95475	1.40651	0.01599
6610.45464	1.40638	0.01604
6608.95453	1.4064	0.01614
6607.45442	1.4065	0.01617
6605.9543	1.40657	0.01615
6604.45419	1.40659	0.0161
6602.95408	1.4066	0.01606
6601.45397	1.40659	0.01601
6599.95386	1.40653	0.01598
6598.45375	1.40646	0.01601
6596.95363	1.40657	0.01605
6595.45352	1.40665	0.01593
6593.95341	1.40651	0.01583
6592.4533	1.40631	0.01587
6590.95319	1.4063	0.01602
6589.45307	1.40642	0.01609
6587.95296	1.40657	0.01604
6586.45285	1.40661	0.0159
6584.95274	1.40649	0.01577
6583.45263	1.40631	0.01576
6581.95252	1.40619	0.01579
6580.4524	1.40599	0.01591
6578.95229	1.40597	0.01614
6577.45218	1.40613	0.01634
6575.95207	1.4064	0.0164
6574.45196	1.40663	0.01631
6572.95184	1.40672	0.01614
6571.45173	1.40667	0.01598
6569.95162	1.40654	0.0159
6568.45151	1.40642	0.01592
6566.9514	1.40644	0.01599
6565.45129	1.40652	0.01598
6563.95117	1.40653	0.01593
6562.45106	1.40657	0.01586
6560.95095	1.40643	0.01577
6559.45084	1.40631	0.01584
6557.95073	1.40635	0.01592
6556.45061	1.40644	0.01593
6554.9505	1.40648	0.01587
6553.45039	1.4065	0.01581
6551.95028	1.4065	0.01568
6550.45017	1.40626	0.0156
6548.95006	1.40607	0.0157
6547.44994	1.40606	0.01587
6545.94983	1.4062	0.0159
6544.44972	1.40616	0.01587
6542.94961	1.40609	0.01593
6541.4495	1.4061	0.01605
6539.94938	1.40627	0.01611
6538.44927	1.40643	0.01604
6536.94916	1.4064	0.0159
6535.44905	1.40628	0.01588
6533.94894	1.40625	0.01595
6532.44883	1.40641	0.01594
6530.94871	1.40639	0.01582
6529.4486	1.40625	0.01579
6527.94849	1.40615	0.01587
6526.44838	1.40622	0.01596
6524.94827	1.4063	0.01597
6523.44816	1.40636	0.01593
6521.94804	1.40637	0.01587
6520.44793	1.40634	0.01583
6518.94782	1.40628	0.01584
6517.44771	1.40627	0.01589
6515.9476	1.40636	0.0159
6514.44748	1.40645	0.01584
6512.94737	1.40645	0.01573
6511.44726	1.40638	0.01565
6509.94715	1.40627	0.0156
6508.44704	1.40608	0.01566
6506.94693	1.40607	0.01581
6505.44681	1.4062	0.01589
6503.9467	1.40633	0.01585
6502.44659	1.40627	0.01581
6500.94648	1.40636	0.01583
6499.44637	1.40645	0.01572
6497.94625	1.40639	0.01561
6496.44614	1.40629	0.01556
6494.94603	1.40622	0.01557
6493.44592	1.40618	0.01558
6491.94581	1.40613	0.01562
6490.4457	1.40614	0.01568
6488.94558	1.40626	0.01571
6487.44547	1.40639	0.0156
6485.94536	1.40638	0.0154
6484.44525	1.40608	0.01529
6482.94514	1.40588	0.0154
6481.44502	1.40586	0.01554
6479.94491	1.40594	0.0156
6478.4448	1.40597	0.01558
6476.94469	1.40589	0.01556
6475.44458	1.40578	0.01564
6473.94447	1.40576	0.01579
6472.44435	1.40597	0.0159
6470.94424	1.40616	0.01584
6469.44413	1.40623	0.0157
6467.94402	1.40616	0.01556
6466.44391	1.40599	0.01551
6464.94379	1.40583	0.01559
6463.44368	1.40584	0.01577
6461.94357	1.40607	0.01583
6460.44346	1.40624	0.01572
6458.94335	1.40622	0.01554
6457.44324	1.4061	0.01546
6455.94312	1.40599	0.01543
6454.44301	1.40587	0.01547
6452.9429	1.40585	0.01554
6451.44279	1.40585	0.01556
6449.94268	1.4058	0.0156
6448.44256	1.40581	0.01567
6446.94245	1.40588	0.01572
6445.44234	1.40597	0.01572
6443.94223	1.40605	0.01565
6442.44212	1.40601	0.01558
6440.94201	1.40597	0.01554
6439.44189	1.40592	0.01554
6437.94178	1.40588	0.01556
6436.44167	1.40589	0.01559
6434.94156	1.40591	0.01559
6433.44145	1.40593	0.01557
6431.94133	1.40595	0.01551
6430.44122	1.40584	0.01547
6428.94111	1.4057	0.01553
6427.441	1.40569	0.01569
6425.94089	1.40585	0.01576
6424.44078	1.40594	0.01575
6422.94066	1.40601	0.01574
6421.44055	1.40613	0.0157
6419.94044	1.40627	0.01555
6418.44033	1.40618	0.01537
6416.94022	1.406	0.0153
6415.4401	1.4059	0.01535
6413.93999	1.40593	0.01534
6412.43988	1.40582	0.01533
6410.93977	1.40579	0.01539
6409.43966	1.40582	0.01542
6407.93955	1.40583	0.01543
6406.43943	1.40585	0.01545
6404.93932	1.40598	0.01545
6403.43921	1.40605	0.0153
6401.9391	1.40592	0.01515
6400.43899	1.40568	0.01515
6398.93887	1.4056	0.01529
6397.43876	1.40569	0.01539
6395.93865	1.40584	0.01537
6394.43854	1.40588	0.01525
6392.93843	1.40581	0.01513
6391.43832	1.40564	0.01505
6389.9382	1.40541	0.01512
6388.43809	1.40534	0.0153
6386.93798	1.40543	0.01545
6385.43787	1.4056	0.01549
6383.93776	1.40573	0.01539
6382.43764	1.40564	0.0153
6380.93753	1.40556	0.01531
6379.43742	1.40554	0.01535
6377.93731	1.40556	0.01537
6376.4372	1.40557	0.01539
6374.93709	1.40564	0.0154
6373.43697	1.40573	0.01534
6371.93686	1.40573	0.01522
6370.43675	1.40556	0.01515
6368.93664	1.40546	0.01522
6367.43653	1.4055	0.01531
6365.93641	1.40564	0.01525
6364.4363	1.40555	0.01514
6362.93619	1.40538	0.01513
6361.43608	1.4053	0.01526
6359.93597	1.4054	0.01533
6358.43586	1.4055	0.01531
6356.93574	1.4055	0.01522
6355.43563	1.40539	0.01516
6353.93552	1.40522	0.01524
6352.43541	1.40528	0.01539
6350.9353	1.40548	0.01542
6349.43518	1.40559	0.01528
6347.93507	1.40545	0.01517
6346.43496	1.40533	0.0152
6344.93485	1.40537	0.01526
6343.43474	1.40543	0.01521
6341.93463	1.40538	0.01514
6340.43451	1.40526	0.01513
6338.9344	1.40524	0.01517
6337.43429	1.40526	0.01516
6335.93418	1.40521	0.01511
6334.43407	1.40504	0.01511
6332.93395	1.40489	0.01524
6331.43384	1.40486	0.01545
6329.93373	1.40503	0.01562
6328.43362	1.40532	0.01562
6326.93351	1.40537	0.01548
6325.4334	1.4053	0.01542
6323.93328	1.40527	0.01547
6322.43317	1.40542	0.01547
6320.93306	1.4055	0.01537
6319.43295	1.40547	0.01524
6317.93284	1.40535	0.01516
6316.43273	1.40517	0.01518
6314.93261	1.40513	0.01528
6313.4325	1.40516	0.01535
6311.93239	1.40519	0.01544
6310.43228	1.4054	0.01546
6308.93217	1.40555	0.01533
6307.43205	1.40551	0.01512
6305.93194	1.40527	0.01505
6304.43183	1.40513	0.01514
6302.93172	1.40528	0.01523
6301.43161	1.40538	0.01509
6299.9315	1.40518	0.01499
6298.43138	1.40499	0.01506
6296.93127	1.40501	0.01519
6295.43116	1.40508	0.01522
6293.93105	1.4051	0.01522
6292.43094	1.40512	0.0152
6290.93082	1.4051	0.01518
6289.43071	1.40504	0.01518
6287.9306	1.405	0.01524
6286.43049	1.40508	0.01528
6284.93038	1.40513	0.01526
6283.43027	1.40516	0.01523
6281.93015	1.40517	0.01516
6280.43004	1.40507	0.01512
6278.92993	1.40499	0.01516
6277.42982	1.405	0.01522
6275.92971	1.40508	0.01523
6274.42959	1.40512	0.01517
6272.92948	1.40503	0.01512
6271.42937	1.40497	0.01517
6269.92926	1.405	0.01521
6268.42915	1.40501	0.01522
6266.92904	1.40509	0.01523
6265.42892	1.40513	0.01515
6263.92881	1.40508	0.01508
6262.4287	1.40497	0.01508
6260.92859	1.40494	0.01513
6259.42848	1.405	0.01517
6257.92836	1.40507	0.0151
6256.42825	1.40497	0.01505
6254.92814	1.40496	0.01508
6253.42803	1.40497	0.01505
6251.92792	1.40493	0.01503
6250.42781	1.40489	0.01502
6248.92769	1.40485	0.01501
6247.42758	1.40479	0.01501
6245.92747	1.40469	0.01505
6244.42736	1.40463	0.01515
6242.92725	1.40468	0.01526
6241.42713	1.40477	0.01532
6239.92702	1.40484	0.01534
6238.42691	1.40492	0.01534
6236.9268	1.40502	0.01531
6235.42669	1.40508	0.01523
6233.92658	1.40511	0.01515
6232.42646	1.40515	0.01504
6230.92635	1.40505	0.0149
6229.42624	1.40482	0.01485
6227.92613	1.40462	0.015
6226.42602	1.40474	0.0152
6224.9259	1.40501	0.0152
6223.42579	1.40514	0.01498
6221.92568	1.40494	0.01481
6220.42557	1.4047	0.01482
6218.92546	1.40465	0.01494
6217.42535	1.40467	0.01498
6215.92523	1.40463	0.01504
6214.42512	1.4047	0.0151
6212.92501	1.40475	0.01509
6211.4249	1.40476	0.01508
6209.92479	1.40479	0.01508
6208.42467	1.40489	0.01502
6206.92456	1.40485	0.01492
6205.42445	1.40473	0.01488
6203.92434	1.40465	0.01494
6202.42423	1.40474	0.01498
6200.92412	1.4048	0.01491
6199.424	1.40475	0.01479
6197.92389	1.40457	0.01475
6196.42378	1.40439	0.01483
6194.92367	1.40434	0.015
6193.42356	1.40444	0.01515
6191.92344	1.40465	0.01516
6190.42333	1.40468	0.0151
6188.92322	1.40474	0.01507
6187.42311	1.40482	0.01499
6185.923	1.40483	0.01483
6184.42289	1.4046	0.01476
6182.92277	1.40449	0.01484
6181.42266	1.40448	0.01491
6179.92255	1.40452	0.01495
6178.42244	1.40462	0.01493
6176.92233	1.40458	0.01485
6175.42221	1.40445	0.01484
6173.9221	1.40438	0.01494
6172.42199	1.40452	0.01501
6170.92188	1.40458	0.01497
6169.42177	1.4046	0.01493
6167.92166	1.40462	0.01485
6166.42154	1.40453	0.01478
6164.92143	1.40435	0.01479
6163.42132	1.4043	0.01495
6161.92121	1.40447	0.01504
6160.4211	1.40463	0.015
6158.92098	1.4047	0.01489
6157.42087	1.4047	0.01477
6155.92076	1.40465	0.01464
6154.42065	1.40449	0.01457
6152.92054	1.40437	0.01458
6151.42043	1.40429	0.01462
6149.92031	1.40426	0.01466
6148.4202	1.40421	0.0147
6146.92009	1.40422	0.01474
6145.41998	1.40423	0.01473
6143.91987	1.40418	0.01472
6142.41975	1.40408	0.01475
6140.91964	1.40405	0.01486
6139.41953	1.40411	0.01494
6137.91942	1.4042	0.01498
6136.41931	1.40429	0.01496
6134.9192	1.40434	0.0149
6133.41908	1.40434	0.01484
6131.91897	1.4043	0.0148
6130.41886	1.40425	0.0148
6128.91875	1.40432	0.01481
6127.41864	1.40435	0.0147
6125.91853	1.40424	0.01461
6124.41841	1.40407	0.01462
6122.9183	1.40399	0.01471
6121.41819	1.40401	0.01481
6119.91808	1.40409	0.01482
6118.41797	1.40406	0.0148
6116.91785	1.40407	0.01482
6115.41774	1.40408	0.01482
6113.91763	1.40405	0.01483
6112.41752	1.40407	0.01485
6110.91741	1.4041	0.01484
6109.4173	1.40409	0.01482
6107.91718	1.40406	0.01482
6106.41707	1.40408	0.01484
6104.91696	1.40413	0.01482
6103.41685	1.40411	0.01475
6101.91674	1.40401	0.01474
6100.41662	1.40396	0.0148
6098.91651	1.40403	0.01485
6097.4164	1.40408	0.01481
6095.91629	1.40404	0.01478
6094.41618	1.40401	0.01477
6092.91607	1.40397	0.01479
6091.41595	1.40395	0.01484
6089.91584	1.40399	0.0149
6088.41573	1.40414	0.01491
6086.91562	1.40423	0.0148
6085.41551	1.40421	0.01468
6083.91539	1.4041	0.0146
6082.41528	1.404	0.01459
6080.91517	1.40396	0.0146
6079.41506	1.4039	0.0146
6077.91495	1.40381	0.01465
6076.41484	1.40383	0.01474
6074.91472	1.40392	0.01477
6073.41461	1.40397	0.01471
6071.9145	1.40393	0.01467
6070.41439	1.40389	0.01466
6068.91428	1.40386	0.01466
6067.41416	1.40383	0.01467
6065.91405	1.40382	0.0147
6064.41394	1.40385	0.0147
6062.91383	1.40384	0.01467
6061.41372	1.40377	0.01466
6059.91361	1.40369	0.01476
6058.41349	1.40384	0.01482
6056.91338	1.40387	0.01476
6055.41327	1.40382	0.01475
6053.91316	1.4038	0.01479
6052.41305	1.40388	0.01484
6050.91293	1.40403	0.01482
6049.41282	1.40413	0.01469
6047.91271	1.40408	0.01456
6046.4126	1.40399	0.01449
6044.91249	1.40396	0.01445
6043.41238	1.4039	0.01437
6041.91226	1.40374	0.01435
6040.41215	1.40364	0.0144
6038.91204	1.40359	0.01447
6037.41193	1.40359	0.01454
6035.91182	1.40363	0.01457
6034.4117	1.40367	0.01457
6032.91159	1.40367	0.01454
6031.41148	1.4036	0.01452
6029.91137	1.40352	0.01459
6028.41126	1.40361	0.01467
6026.91115	1.40372	0.01465
6025.41103	1.40376	0.01454
6023.91092	1.40365	0.01445
6022.41081	1.40341	0.01452
6020.9107	1.40345	0.01471
6019.41059	1.40364	0.01477
6017.91047	1.40378	0.01472
6016.41036	1.40382	0.01462
6014.91025	1.4038	0.01454
6013.41014	1.40378	0.01448
6011.91003	1.40375	0.01443
6010.40992	1.40366	0.01441
6008.9098	1.40366	0.01444
6007.40969	1.40372	0.01441
6005.90958	1.40373	0.01428
6004.40947	1.40346	0.01424
6002.90936	1.40338	0.01439
6001.40924	1.40349	0.01449
5999.90913	1.40364	0.01441
5998.40902	1.40348	0.01434
5996.90891	1.40345	0.01442
5995.4088	1.40353	0.01445
5993.90869	1.40361	0.01438
5992.40857	1.40353	0.0143
5990.90846	1.40342	0.01431
5989.40835	1.40341	0.01439
5987.90824	1.40351	0.01438
5986.40813	1.40348	0.01436
5984.90801	1.40356	0.01434
5983.4079	1.40361	0.01423
5981.90779	1.4035	0.01412
5980.40768	1.40334	0.01411
5978.90757	1.40329	0.01416
5977.40746	1.40325	0.01417
5975.90734	1.40316	0.01422
5974.40723	1.40313	0.01432
5972.90712	1.40324	0.01442
5971.40701	1.4034	0.0144
5969.9069	1.40347	0.01426
5968.40678	1.40324	0.01422
5966.90667	1.4033	0.01434
5965.40656	1.40345	0.01429
5963.90645	1.40346	0.01416
5962.40634	1.4033	0.01411
5960.90623	1.40334	0.01416
5959.40611	1.40342	0.01407
5957.906	1.40338	0.01394
5956.40589	1.40317	0.01387
5954.90578	1.40305	0.01393
5953.40567	1.40299	0.014
5951.90555	1.40298	0.01408
5950.40544	1.40302	0.01414
5948.90533	1.4031	0.01416
5947.40522	1.40322	0.01412
5945.90511	1.4033	0.01396
5944.405	1.40318	0.0138
5942.90488	1.40298	0.01374
5941.40477	1.40282	0.01379
5939.90466	1.40274	0.01386
5938.40455	1.40265	0.01395
5936.90444	1.40265	0.01407
5935.40433	1.40274	0.01415
5933.90421	1.40284	0.01416
5932.4041	1.40289	0.01413
5930.90399	1.40293	0.01409
5929.40388	1.40299	0.01404
5927.90377	1.40303	0.01394
5926.40365	1.40305	0.01377
5924.90354	1.40285	0.01361
5923.40343	1.40262	0.0136
5921.90332	1.4025	0.01364
5920.40321	1.40236	0.0137
5918.9031	1.40226	0.01379
5917.40298	1.40219	0.01388
5915.90287	1.40212	0.01402
5914.40276	1.40214	0.01417
5912.90265	1.40227	0.01429
5911.40254	1.40242	0.0143
5909.90242	1.4025	0.01425
5908.40231	1.40247	0.0142
5906.9022	1.40248	0.01421
5905.40209	1.40255	0.01421
5903.90198	1.40265	0.01412
5902.40187	1.40264	0.01398
5900.90175	1.40248	0.01385
5899.40164	1.40226	0.01384
5897.90153	1.40207	0.01396
5896.40142	1.40203	0.01414
5894.90131	1.40217	0.01427
5893.40119	1.4023	0.01426
5891.90108	1.40232	0.01421
5890.40097	1.40229	0.01419
5888.90086	1.40233	0.01417
5887.40075	1.40231	0.01408
5885.90064	1.40216	0.01404
5884.40052	1.40201	0.01412
5882.90041	1.40201	0.01425
5881.4003	1.40207	0.01432
5879.90019	1.40212	0.01433
5878.40008	1.40211	0.01434
5876.89996	1.40207	0.0144
5875.39985	1.40213	0.0145
5873.89974	1.4023	0.0145
5872.39963	1.40236	0.01443
5870.89952	1.40235	0.01438
5869.39941	1.40235	0.01437
5867.89929	1.40239	0.01435
5866.39918	1.40244	0.01428
5864.89907	1.4024	0.01418
5863.39896	1.4023	0.01415
5861.89885	1.40221	0.01417
5860.39873	1.40218	0.01422
5858.89862	1.40219	0.01427
5857.39851	1.40223	0.0143
5855.8984	1.40228	0.01432
5854.39829	1.40239	0.0143
5852.89818	1.40247	0.0142
5851.39806	1.40243	0.01405
5849.89795	1.40227	0.01398
5848.39784	1.40211	0.01403
5846.89773	1.40216	0.01413
5845.39762	1.40224	0.01409
5843.8975	1.4022	0.01401
5842.39739	1.40205	0.01402
5840.89728	1.40204	0.01411
5839.39717	1.40209	0.01413
5837.89706	1.40213	0.01411
5836.39695	1.40212	0.01407
5834.89683	1.40206	0.01404
5833.39672	1.402	0.01407
5831.89661	1.40199	0.01413
5830.3965	1.4021	0.01416
5828.89639	1.40218	0.01409
5827.39627	1.40216	0.01396
5825.89616	1.40201	0.0139
5824.39605	1.40186	0.01395
5822.89594	1.40185	0.01406
5821.39583	1.4019	0.0141
5819.89572	1.40195	0.01411
5818.3956	1.402	0.01406
5816.89549	1.4019	0.01401
5815.39538	1.40181	0.01409
5813.89527	1.40189	0.01418
5812.39516	1.40208	0.01415
5810.89504	1.40209	0.01399
5809.39493	1.40197	0.01391
5807.89482	1.40183	0.01393
5806.39471	1.4018	0.01401
5804.8946	1.4019	0.01404
5803.39449	1.40192	0.01395
5801.89437	1.40178	0.01393
5800.39426	1.4017	0.014
5798.89415	1.4017	0.0141
5797.39404	1.40179	0.0142
5795.89393	1.40197	0.01421
5794.39381	1.40215	0.01412
5792.8937	1.40219	0.01394
5791.39359	1.40215	0.01378
5789.89348	1.40206	0.01362
5788.39337	1.40179	0.01357
5786.89326	1.4017	0.01366
5785.39314	1.40171	0.01369
5783.89303	1.40169	0.01365
5782.39292	1.40156	0.01364
5780.89281	1.40144	0.01372
5779.3927	1.40145	0.01384
5777.89258	1.40157	0.01387
5776.39247	1.40157	0.01383
5774.89236	1.40151	0.01382
5773.39225	1.40152	0.01389
5771.89214	1.40163	0.01388
5770.39203	1.40168	0.0138
5768.89191	1.40169	0.01369
5767.3918	1.4016	0.01356
5765.89169	1.40138	0.01352
5764.39158	1.40118	0.01361
5762.89147	1.40116	0.01378
5761.39135	1.40123	0.01387
5759.89124	1.40129	0.01393
5758.39113	1.40139	0.01395
5756.89102	1.40151	0.0139
5755.39091	1.40154	0.01378
5753.8908	1.40144	0.0137
5752.39068	1.40137	0.01369
5750.89057	1.40134	0.0137
5749.39046	1.40134	0.0137
5747.89035	1.40133	0.01368
5746.39024	1.40133	0.01364
5744.89013	1.40129	0.01359
5743.39001	1.40122	0.01357
5741.8899	1.40115	0.01355
5740.38979	1.40107	0.01357
5738.88968	1.40097	0.01362
5737.38957	1.40097	0.01372
5735.88945	1.40108	0.01372
5734.38934	1.40108	0.01367
5732.88923	1.40102	0.01364
5731.38912	1.40097	0.01365
5729.88901	1.40096	0.01367
5728.3889	1.40097	0.01366
5726.88878	1.40094	0.01363
5725.38867	1.40087	0.01362
5723.88856	1.40081	0.01365
5722.38845	1.40085	0.01366
5720.88834	1.40081	0.0136
5719.38822	1.40066	0.01357
5717.88811	1.40046	0.01368
5716.388	1.40042	0.01388
5714.88789	1.40058	0.01404
5713.38778	1.40078	0.01404
5711.88767	1.40087	0.01394
5710.38755	1.40082	0.01386
5708.88744	1.40079	0.01383
5707.38733	1.40075	0.01379
5705.88722	1.40066	0.01376
5704.38711	1.4005	0.01384
5702.88699	1.40054	0.01398
5701.38688	1.40064	0.01401
5699.88677	1.40069	0.01399
5698.38666	1.40069	0.01396
5696.88655	1.40067	0.01395
5695.38644	1.40063	0.01394
5693.88632	1.40057	0.01401
5692.38621	1.40061	0.0141
5690.8861	1.40076	0.01413
5689.38599	1.40089	0.01404
5687.88588	1.4009	0.01392
5686.38576	1.40082	0.01382
5684.88565	1.40074	0.01377
5683.38554	1.40064	0.01375
5681.88543	1.4005	0.01379
5680.38532	1.40042	0.01391
5678.88521	1.40054	0.01402
5677.38509	1.40066	0.01398
5675.88498	1.40063	0.0139
5674.38487	1.4005	0.01391
5672.88476	1.40048	0.01401
5671.38465	1.40059	0.01408
5669.88453	1.40074	0.01402
5668.38442	1.40067	0.01393
5666.88431	1.40056	0.01394
5665.3842	1.40059	0.01405
5663.88409	1.40077	0.01403
5662.38398	1.40081	0.01392
5660.88386	1.40073	0.01383
5659.38375	1.40066	0.01385
5657.88364	1.40071	0.01385
5656.38353	1.40076	0.01378
5654.88342	1.40064	0.01371
5653.3833	1.40059	0.01377
5651.88319	1.40072	0.01375
5650.38308	1.40073	0.01363
5648.88297	1.40057	0.01354
5647.38286	1.40043	0.01359
5645.88275	1.40044	0.01366
5644.38263	1.40057	0.01361
5642.88252	1.40047	0.01347
5641.38241	1.40022	0.01346
5639.8823	1.40001	0.01363
5638.38219	1.40006	0.01385
5636.88207	1.40026	0.01398
5635.38196	1.40046	0.01394
5633.88185	1.40056	0.01384
5632.38174	1.40058	0.01371
5630.88163	1.40054	0.0136
5629.38152	1.40043	0.01351
5627.8814	1.40029	0.01352
5626.38129	1.40029	0.01354
5624.88118	1.40023	0.01352
5623.38107	1.40015	0.01355
5621.88096	1.40011	0.01362
5620.38084	1.4002	0.01363
5618.88073	1.40017	0.01358
5617.38062	1.40008	0.01358
5615.88051	1.40002	0.01364
5614.3804	1.40008	0.01369
5612.88029	1.40012	0.01367
5611.38017	1.40005	0.01362
5609.88006	1.39991	0.01373
5608.37995	1.40001	0.01389
5606.87984	1.40032	0.01392
5605.37973	1.4005	0.01369
5603.87961	1.40038	0.0135
5602.3795	1.40027	0.01341
5600.87939	1.4002	0.01334
5599.37928	1.40005	0.01325
5597.87917	1.39979	0.01331
5596.37906	1.39973	0.01347
5594.87894	1.39981	0.01357
5593.37883	1.39989	0.01357
5591.87872	1.39989	0.01353
5590.37861	1.39986	0.0135
5588.8785	1.3998	0.01348
5587.37838	1.39969	0.0135
5585.87827	1.39961	0.0136
5584.37816	1.3997	0.0137
5582.87805	1.39981	0.0137
5581.37794	1.39982	0.01362
5579.87783	1.39973	0.01363
5578.37771	1.39978	0.01367
5576.8776	1.39984	0.01364
5575.37749	1.39983	0.01357
5573.87738	1.39975	0.01354
5572.37727	1.3997	0.01356
5570.87715	1.39971	0.01357
5569.37704	1.3997	0.01353
5567.87693	1.39961	0.01349
5566.37682	1.39943	0.01356
5564.87671	1.3994	0.01372
5563.3766	1.39949	0.01385
5561.87648	1.39964	0.01392
5560.37637	1.39986	0.01387
5558.87626	1.3999	0.01371
5557.37615	1.39981	0.0136
5555.87604	1.39968	0.0136
5554.37592	1.39969	0.01363
5552.87581	1.39967	0.01364
5551.3757	1.39964	0.01366
5549.87559	1.39965	0.01371
5548.37548	1.39975	0.01373
5546.87537	1.39982	0.01368
5545.37525	1.39985	0.01362
5543.87514	1.39987	0.01353
5542.37503	1.3998	0.01344
5540.87492	1.39967	0.01344
5539.37481	1.39968	0.01351
5537.8747	1.39982	0.01347
5536.37458	1.39979	0.01333
5534.87447	1.39962	0.01326
5533.37436	1.39948	0.01334
5531.87425	1.39951	0.01343
5530.37414	1.39964	0.01341
5528.87402	1.39957	0.01333
5527.37391	1.3995	0.01337
5525.8738	1.39956	0.01339
5524.37369	1.39964	0.01331
5522.87358	1.39954	0.01319
5521.37347	1.39935	0.01318
5519.87335	1.39921	0.01331
5518.37324	1.39935	0.01341
5516.87313	1.39937	0.01337
5515.37302	1.39932	0.01339
5513.87291	1.39932	0.01347
5512.37279	1.39947	0.01353
5510.87268	1.39972	0.01344
5509.37257	1.3998	0.01315
5507.87246	1.39957	0.0129
5506.37235	1.39917	0.01285
5504.87224	1.39888	0.01305
5503.37212	1.39887	0.01337
5501.87201	1.39916	0.0135
5500.3719	1.39935	0.01345
5498.87179	1.39933	0.01337
5497.37168	1.39936	0.01342
5495.87156	1.3996	0.0134
5494.37145	1.39994	0.0131
5492.87134	1.39969	0.01263
5491.37123	1.39922	0.01248
5489.87112	1.39885	0.01256
5488.37101	1.39866	0.01272
5486.87089	1.39847	0.01289
5485.37078	1.39838	0.01316
5483.87067	1.39845	0.01344
5482.37056	1.39865	0.01364
5480.87045	1.39889	0.01379
5479.37033	1.39938	0.01385
5477.87022	1.40001	0.01342
5476.37011	1.39997	0.01266
5474.87	1.39904	0.0122
5473.36989	1.39818	0.01257
5471.86978	1.39808	0.01323
5470.36966	1.39866	0.01361
5468.86955	1.39909	0.01351
5467.36944	1.39918	0.01327
5465.86933	1.39903	0.01319
5464.36922	1.39913	0.01318
5462.8691	1.39931	0.01301
5461.36899	1.39917	0.01267
5459.86888	1.39866	0.01261
5458.36877	1.39836	0.01282
5456.86866	1.39829	0.01311
5455.36855	1.39837	0.01338
5453.86843	1.39859	0.01363
5452.36832	1.39909	0.01371
5450.86821	1.39953	0.01349
5449.3681	1.39977	0.01306
5447.86799	1.39969	0.01255
5446.36787	1.39919	0.01224
5444.86776	1.39878	0.01224
5443.36765	1.39856	0.01236
5441.86754	1.39845	0.01239
5440.36743	1.39802	0.01263
5438.86732	1.39824	0.01308
5437.3672	1.39878	0.01314
5435.86709	1.39913	0.01272
5434.36698	1.39864	0.01243
5432.86687	1.39834	0.01257
5431.36676	1.39855	0.01276
5429.86664	1.39896	0.01241
5428.36653	1.39837	0.01197
5426.86642	1.3975	0.01211
5425.36631	1.39714	0.01284
5423.8662	1.39757	0.01336
5422.36609	1.398	0.01353
5420.86597	1.3982	0.01358
5419.36586	1.39848	0.01373
5417.86575	1.39909	0.01373
5416.36564	1.39994	0.01323
5414.86553	1.40003	0.01224
5413.36541	1.39936	0.01142
5411.8653	1.39821	0.01117
5410.36519	1.39721	0.01157
5408.86508	1.39688	0.01236
5407.36497	1.39716	0.01303
5405.86486	1.39776	0.01332
5404.36474	1.39827	0.01321
5402.86463	1.39833	0.01296
5401.36452	1.3982	0.01291
5399.86441	1.39826	0.01303
5398.3643	1.39874	0.01299
5396.86418	1.39916	0.01253
5395.36407	1.39896	0.01177
5393.86396	1.39797	0.0114
5392.36385	1.39682	0.01184
5390.86374	1.39678	0.01284
5389.36363	1.39768	0.01343
5387.86351	1.39884	0.013
5386.3634	1.39874	0.01213
5384.86329	1.39772	0.01174
5383.36318	1.39691	0.01226
5381.86307	1.39702	0.01309
5380.36295	1.39812	0.0134
5378.86284	1.39903	0.01285
5377.36273	1.39896	0.0118
5375.86262	1.39786	0.01127
5374.36251	1.39672	0.01161
5372.8624	1.39647	0.01244
5371.36228	1.39692	0.01306
5369.86217	1.39762	0.01317
5368.36206	1.39793	0.01297
5366.86195	1.39806	0.01273
5365.36184	1.39808	0.0125
5363.86172	1.39798	0.01222
5362.36161	1.39753	0.0121
5360.8615	1.39712	0.01234
5359.36139	1.39708	0.01281
5357.86128	1.39758	0.01323
5356.36117	1.39866	0.01299
5354.86105	1.39889	0.01208
5353.36094	1.39812	0.01135
5351.86083	1.39689	0.01153
5350.36072	1.39659	0.01235
5348.86061	1.39736	0.01298
5347.3605	1.39845	0.01274
5345.86038	1.39884	0.0117
5344.36027	1.39744	0.01109
5342.86016	1.39659	0.01163
5341.36005	1.39694	0.01242
5339.85994	1.3981	0.01215
5338.35982	1.39794	0.0113
5336.85971	1.39674	0.01096
5335.3596	1.39591	0.01164
5333.85949	1.39619	0.01237
5332.35938	1.39686	0.01266
5330.85927	1.39743	0.01246
5329.35915	1.39765	0.01199
5327.85904	1.39741	0.01146
5326.35893	1.39657	0.01132
5324.85882	1.39608	0.01171
5323.35871	1.3961	0.0122
5321.85859	1.39646	0.01243
5320.35848	1.3967	0.01244
5318.85837	1.39689	0.01234
5317.35826	1.39691	0.01215
5315.85815	1.39675	0.01206
5314.35804	1.3966	0.01209
5312.85792	1.39652	0.01221
5311.35781	1.39668	0.01237
5309.8577	1.39705	0.01224
5308.35759	1.3971	0.01188
5306.85748	1.39664	0.01162
5305.35736	1.39619	0.01179
5303.85725	1.39613	0.01212
5302.35714	1.39648	0.01227
5300.85703	1.39668	0.01212
5299.35692	1.39656	0.01189
5297.85681	1.39621	0.01191
5296.35669	1.39606	0.01217
5294.85658	1.39633	0.01242
5293.35647	1.39681	0.01235
5291.85636	1.39707	0.01187
5290.35625	1.39653	0.01147
5288.85613	1.39596	0.01156
5287.35602	1.3958	0.01195
5285.85591	1.3961	0.01211
5284.3558	1.39622	0.01204
5282.85569	1.39617	0.01195
5281.35558	1.39607	0.01193
5279.85546	1.39597	0.01195
5278.35535	1.39589	0.01204
5276.85524	1.39591	0.01215
5275.35513	1.39599	0.01222
5273.85502	1.39611	0.01223
5272.3549	1.39624	0.01217
5270.85479	1.39624	0.01206
5269.35468	1.3962	0.01203
5267.85457	1.3963	0.01205
5266.35446	1.39676	0.01179
5264.85435	1.39668	0.01115
5263.35423	1.39588	0.01065
5261.85412	1.39468	0.01091
5260.35401	1.39411	0.01182
5258.8539	1.39474	0.01273
5257.35379	1.39579	0.01284
5255.85367	1.39638	0.01219
5254.35356	1.39567	0.01174
5252.85345	1.39513	0.01205
5251.35334	1.39545	0.0126
5249.85323	1.39646	0.01241
5248.35312	1.3966	0.01169
5246.853	1.39602	0.01111
5245.35289	1.39526	0.01106
5243.85278	1.39471	0.01137
5242.35267	1.39449	0.01188
5240.85256	1.39476	0.01233
5239.35244	1.39517	0.01245
5237.85233	1.39544	0.0124
5236.35222	1.39559	0.01228
5234.85211	1.39576	0.01209
5233.352	1.3957	0.01176
5231.85189	1.39529	0.01162
5230.35177	1.39488	0.01184
5228.85166	1.39524	0.01215
5227.35155	1.39563	0.01191
5225.85144	1.39551	0.01146
5224.35133	1.39475	0.01135
5222.85121	1.39436	0.01176
5221.3511	1.39454	0.01219
5219.85099	1.39501	0.01219
5218.35088	1.39498	0.01198
5216.85077	1.39465	0.01195
5215.35066	1.39444	0.01223
5213.85054	1.39459	0.01257
5212.35043	1.39501	0.01278
5210.85032	1.39571	0.01265
5209.35021	1.39623	0.012
5207.8501	1.39604	0.01103
5206.34998	1.39467	0.01055
5204.84987	1.39349	0.01105
5203.34976	1.39317	0.01208
5201.84965	1.39384	0.01283
5200.34954	1.3948	0.01291
5198.84943	1.39522	0.01243
5197.34931	1.395	0.01196
5195.8492	1.39442	0.01194
5194.34909	1.39428	0.01222
5192.84898	1.39445	0.01244
5191.34887	1.39465	0.01246
5189.84875	1.39477	0.01243
5188.34864	1.39498	0.01232
5186.84853	1.39507	0.01204
5185.34842	1.39478	0.01173
5183.84831	1.39422	0.0118
5182.3482	1.3941	0.01212
5180.84808	1.39431	0.01235
5179.34797	1.39453	0.01232
5177.84786	1.39454	0.01221
5176.34775	1.39439	0.01218
5174.84764	1.39439	0.01225
5173.34752	1.39443	0.01226
5171.84741	1.39441	0.01222
5170.3473	1.39426	0.01226
5168.84719	1.3943	0.0124
5167.34708	1.39447	0.01246
5165.84697	1.39465	0.01237
5164.34685	1.39469	0.01218
5162.84674	1.39449	0.01203
5161.34663	1.39427	0.01207
5159.84652	1.3942	0.0122
5158.34641	1.3943	0.01228
5156.8463	1.39437	0.01225
5155.34618	1.39432	0.01218
5153.84607	1.39421	0.01223
5152.34596	1.39423	0.01229
5150.84585	1.3943	0.01231
5149.34574	1.39431	0.01228
5147.84562	1.39426	0.01231
5146.34551	1.39433	0.01233
5144.8454	1.39436	0.01228
5143.34529	1.3943	0.01225
5141.84518	1.39423	0.01232
5140.34507	1.3943	0.01241
5138.84495	1.39445	0.01243
5137.34484	1.39461	0.01236
5135.84473	1.39471	0.01222
5134.34462	1.39474	0.01203
5132.84451	1.39465	0.01184
5131.34439	1.39444	0.01173
5129.84428	1.3942	0.01176
5128.34417	1.39413	0.0119
5126.84406	1.39424	0.01197
5125.34395	1.39433	0.0119
5123.84384	1.39427	0.01182
5122.34372	1.39424	0.01179
5120.84361	1.39422	0.01172
5119.3435	1.39407	0.01168
5117.84339	1.39396	0.01176
5116.34328	1.39401	0.01183
5114.84316	1.39409	0.01179
5113.34305	1.39408	0.01171
5111.84294	1.394	0.01164
5110.34283	1.39386	0.01162
5108.84272	1.39372	0.0117
5107.34261	1.39374	0.01184
5105.84249	1.3939	0.01188
5104.34238	1.39402	0.01177
5102.84227	1.39395	0.01163
5101.34216	1.39378	0.01158
5099.84205	1.39363	0.01164
5098.34193	1.39355	0.01178
5096.84182	1.39366	0.01195
5095.34171	1.39394	0.01196
5093.8416	1.39413	0.01179
5092.34149	1.39411	0.01157
5090.84138	1.394	0.0114
5089.34126	1.39383	0.0113
5087.84115	1.39363	0.01128
5086.34104	1.39347	0.01137
5084.84093	1.39348	0.01151
5083.34082	1.39363	0.01154
5081.8407	1.3937	0.01143
5080.34059	1.39365	0.01134
5078.84048	1.39361	0.01126
5077.34037	1.39353	0.01115
5075.84026	1.39331	0.0111
5074.34015	1.39313	0.01119
5072.84003	1.3931	0.01131
5071.33992	1.39314	0.01137
5069.83981	1.39314	0.0114
5068.3397	1.39318	0.01142
5066.83959	1.39328	0.01139
5065.33947	1.39328	0.01127
5063.83936	1.39314	0.01119
5062.33925	1.39304	0.01123
5060.83914	1.39307	0.01124
5059.33903	1.39304	0.01117
5057.83892	1.39292	0.01115
5056.3388	1.39285	0.01117
5054.83869	1.39283	0.01117
5053.33858	1.3927	0.01116
5051.83847	1.39256	0.01126
5050.33836	1.39257	0.01139
5048.83824	1.39264	0.01148
5047.33813	1.39277	0.01151
5045.83802	1.39291	0.01142
5044.33791	1.39286	0.01125
5042.8378	1.39263	0.01121
5041.33769	1.39248	0.01133
5039.83757	1.39252	0.01148
5038.33746	1.39265	0.01155
5036.83735	1.3928	0.01154
5035.33724	1.39296	0.01144
5033.83713	1.39297	0.01124
5032.33701	1.39278	0.01113
5030.8369	1.39267	0.0112
5029.33679	1.39281	0.01122
5027.83668	1.39294	0.01105
5026.33657	1.3928	0.01082
5024.83646	1.39253	0.01075
5023.33634	1.39238	0.01082
5021.83623	1.39239	0.01082
5020.33612	1.39225	0.01076
5018.83601	1.39201	0.01084
5017.3359	1.39198	0.01099
5015.83578	1.39203	0.01104
5014.33567	1.39192	0.01108
5012.83556	1.39184	0.01126
5011.33545	1.39205	0.01144
5009.83534	1.39241	0.01138
5008.33523	1.3925	0.01113
5006.83511	1.3923	0.01095
5005.335	1.39217	0.01097
5003.83489	1.3922	0.01096
5002.33478	1.39215	0.01088
5000.83467	1.39201	0.0109
4999.33455	1.39204	0.01095
4997.83444	1.39214	0.01089
4996.33433	1.39206	0.01077
4994.83422	1.39193	0.01074
4993.33411	1.39188	0.01073
4991.834	1.3918	0.01071
4990.33388	1.39167	0.01074
4988.83377	1.39162	0.01083
4987.33366	1.39168	0.01088
4985.83355	1.39174	0.01085
4984.33344	1.39173	0.01078
4982.83332	1.39164	0.01073
4981.33321	1.39156	0.01074
4979.8331	1.39152	0.01076
4978.33299	1.39149	0.01078
4976.83288	1.3915	0.0108
4975.33277	1.39152	0.01077
4973.83265	1.3915	0.01072
4972.33254	1.39143	0.01067
4970.83243	1.39133	0.01068
4969.33232	1.39127	0.01073
4967.83221	1.3913	0.01078
4966.3321	1.39136	0.01075
4964.83198	1.39131	0.01068
4963.33187	1.39121	0.01068
4961.83176	1.39117	0.01074
4960.33165	1.39122	0.01077
4958.83154	1.3913	0.01074
4957.33142	1.39132	0.01065
4955.83131	1.39121	0.01058
4954.3312	1.39112	0.01063
4952.83109	1.39125	0.01065
4951.33098	1.39139	0.01048
4949.83087	1.39124	0.01024
4948.33075	1.39091	0.01018
4946.83064	1.39068	0.01029
4945.33053	1.39063	0.01043
4943.83042	1.39066	0.01053
4942.33031	1.39072	0.01058
4940.83019	1.39075	0.01057
4939.33008	1.39076	0.01055
4937.82997	1.39074	0.01054
4936.32986	1.39077	0.01056
4934.82975	1.39088	0.0105
4933.32964	1.39089	0.01033
4931.82952	1.39072	0.0102
4930.32941	1.39052	0.0102
4928.8293	1.39038	0.01029
4927.32919	1.39041	0.01041
4925.82908	1.39058	0.01042
4924.32896	1.39066	0.01028
4922.82885	1.39057	0.01013
4921.32874	1.39045	0.01004
4919.82863	1.3903	0.00998
4918.32852	1.39012	0.00997
4916.82841	1.38995	0.01003
4915.32829	1.38985	0.01015
4913.82818	1.38987	0.01026
4912.32807	1.38991	0.01029
4910.82796	1.38991	0.01031
4909.32785	1.38995	0.01032
4907.82773	1.39001	0.01023
4906.32762	1.3899	0.01013
4904.82751	1.3897	0.01013
4903.3274	1.3896	0.01022
4901.82729	1.38956	0.01032
4900.32718	1.38957	0.01041
4898.82706	1.38966	0.01047
4897.32695	1.38974	0.01046
4895.82684	1.38978	0.01042
4894.32673	1.38981	0.01037
4892.82662	1.38984	0.01029
4891.3265	1.38983	0.01017
4889.82639	1.38971	0.01005
4888.32628	1.38948	0.01004
4886.82617	1.38935	0.01015
4885.32606	1.38939	0.01024
4883.82595	1.38943	0.01024
4882.32583	1.38943	0.01022
4880.82572	1.38938	0.01021
4879.32561	1.38935	0.01023
4877.8255	1.38938	0.01024
4876.32539	1.38942	0.0102
4874.82527	1.38937	0.01012
4873.32516	1.38926	0.01013
4871.82505	1.38927	0.01019
4870.32494	1.38939	0.01015
4868.82483	1.38937	0.01
4867.32472	1.3892	0.00996
4865.8246	1.38914	0.00999
4864.32449	1.38917	0.00997
4862.82438	1.38912	0.00992
4861.32427	1.38902	0.00989
4859.82416	1.38895	0.00991
4858.32404	1.38895	0.00993
4856.82393	1.38896	0.00991
4855.32382	1.38892	0.00986
4853.82371	1.38885	0.00984
4852.3236	1.3888	0.00985
4850.82349	1.38883	0.00985
4849.32337	1.38886	0.00976
4847.82326	1.38878	0.00964
4846.32315	1.38859	0.00958
4844.82304	1.38842	0.00963
4843.32293	1.38837	0.00972
4841.82281	1.38841	0.00975
4840.3227	1.38837	0.00971
4838.82259	1.38826	0.0097
4837.32248	1.38817	0.00976
4835.82237	1.38815	0.00984
4834.32226	1.38821	0.0099
4832.82214	1.38833	0.00986
4831.32203	1.38833	0.00974
4829.82192	1.38817	0.00968
4828.32181	1.38809	0.00973
4826.8217	1.38817	0.00974
4825.32158	1.3882	0.00963
4823.82147	1.38805	0.00952
4822.32136	1.38788	0.00952
4820.82125	1.38775	0.00957
4819.32114	1.38768	0.00964
4817.82103	1.38762	0.00973
4816.32091	1.38765	0.00983
4814.8208	1.38777	0.00986
4813.32069	1.38784	0.0098
4811.82058	1.38784	0.00973
4810.32047	1.38788	0.00966
4808.82035	1.38787	0.00951
4807.32024	1.38768	0.00939
4805.82013	1.38747	0.00941
4804.32002	1.38739	0.00949
4802.81991	1.38738	0.00954
4801.3198	1.38737	0.00955
4799.81968	1.38738	0.00956
4798.31957	1.38745	0.00948
4796.81946	1.38738	0.0093
4795.31935	1.38701	0.00924
4793.81924	1.38675	0.00945
4792.31912	1.38683	0.00967
4790.81901	1.387	0.00972
4789.3189	1.38702	0.00968
4787.81879	1.38704	0.00967
4786.31868	1.3871	0.0096
4784.81857	1.38704	0.00949
4783.31845	1.38691	0.00944
4781.81834	1.3868	0.00943
4780.31823	1.38667	0.00946
4778.81812	1.3866	0.00953
4777.31801	1.38659	0.00959
4775.81789	1.38655	0.00963
4774.31778	1.38658	0.00968
4772.81767	1.38664	0.00965
4771.31756	1.38656	0.00958
4769.81745	1.3864	0.00962
4768.31734	1.38638	0.00974
4766.81722	1.38647	0.00979
4765.31711	1.38653	0.00976
4763.817	1.38649	0.00974
4762.31689	1.38647	0.00975
4760.81678	1.3865	0.00975
4759.31667	1.38651	0.00974
4757.81655	1.38654	0.00971
4756.31644	1.38655	0.00966
4754.81633	1.38649	0.00962
4753.31622	1.38648	0.00962
4751.81611	1.38652	0.00957
4750.31599	1.38649	0.00949
4748.81588	1.38639	0.00943
4747.31577	1.3863	0.00944
4745.81566	1.38626	0.00948
4744.31555	1.38628	0.0095
4742.81544	1.38632	0.00947
4741.31532	1.3863	0.00943
4739.81521	1.38628	0.00942
4738.3151	1.38635	0.00938
4736.81499	1.3864	0.00926
4735.31488	1.38632	0.0091
4733.81476	1.38611	0.00901
4732.31465	1.38593	0.00906
4730.81454	1.38588	0.00915
4729.31443	1.38592	0.00918
4727.81432	1.38592	0.00916
4726.31421	1.3859	0.00914
4724.81409	1.38591	0.00912
4723.31398	1.38593	0.00905
4721.81387	1.38587	0.00895
4720.31376	1.3857	0.00893
4718.81365	1.38561	0.00901
4717.31353	1.38571	0.00907
4715.81342	1.38585	0.00896
4714.31331	1.38576	0.0088
4712.8132	1.38559	0.00874
4711.31309	1.38547	0.00877
4709.81298	1.38546	0.00881
4708.31286	1.38547	0.00879
4706.81275	1.38544	0.00876
4705.31264	1.38547	0.00874
4703.81253	1.38551	0.00864
4702.31242	1.38545	0.00849
4700.8123	1.38529	0.00838
4699.31219	1.38509	0.00835
4697.81208	1.38493	0.0084
4696.31197	1.38487	0.00849
4694.81186	1.38488	0.00852
4693.31175	1.38485	0.00852
4691.81163	1.38483	0.00853
4690.31152	1.38483	0.00853
4688.81141	1.38485	0.0085
4687.3113	1.38482	0.00845
4685.81119	1.38476	0.00842
4684.31107	1.38475	0.00843
4682.81096	1.38485	0.00839
4681.31085	1.38494	0.0082
4679.81074	1.3848	0.00796
4678.31063	1.38449	0.00784
4676.81052	1.38423	0.00788
4675.3104	1.38409	0.00797
4673.81029	1.38401	0.00807
4672.31018	1.38399	0.00816
4670.81007	1.384	0.00823
4669.30996	1.38407	0.00824
4667.80984	1.38412	0.00819
4666.30973	1.38412	0.00812
4664.80962	1.38409	0.00805
4663.30951	1.38406	0.00795
4661.8094	1.38394	0.00788
4660.30929	1.38382	0.00787
4658.80917	1.3838	0.00788
4657.30906	1.38382	0.00781
4655.80895	1.38373	0.00771
4654.30884	1.38359	0.00766
4652.80873	1.38349	0.00766
4651.30861	1.38342	0.00765
4649.8085	1.38334	0.00763
4648.30839	1.38327	0.00762
4646.80828	1.38322	0.00761
4645.30817	1.38317	0.00761
4643.80806	1.38318	0.00755
4642.30794	1.38309	0.00743
4640.80783	1.38289	0.00738
4639.30772	1.38274	0.00742
4637.80761	1.38265	0.00746
4636.3075	1.38255	0.00752
4634.80738	1.38251	0.00762
4633.30727	1.38263	0.00768
4631.80716	1.3828	0.00757
4630.30705	1.38279	0.00734
4628.80694	1.38257	0.00716
4627.30683	1.38231	0.00711
4625.80671	1.38212	0.00715
4624.3066	1.382	0.00721
4622.80649	1.38195	0.00727
4621.30638	1.38196	0.00728
4619.80627	1.3819	0.00722
4618.30615	1.38179	0.00718
4616.80604	1.38169	0.00717
4615.30593	1.38157	0.00715
4613.80582	1.38144	0.00717
4612.30571	1.38137	0.00719
4610.8056	1.38127	0.00716
4609.30548	1.38106	0.00718
4607.80537	1.38089	0.00733
4606.30526	1.38089	0.00749
4604.80515	1.38099	0.00757
4603.30504	1.38111	0.00754
4601.80492	1.3811	0.00741
4600.30481	1.3809	0.00734
4598.8047	1.38075	0.00743
4597.30459	1.38079	0.00751
4595.80448	1.38084	0.00749
4594.30437	1.38084	0.00743
4592.80425	1.38081	0.00734
4591.30414	1.38068	0.00725
4589.80403	1.38051	0.00723
4588.30392	1.3804	0.00728
4586.80381	1.38037	0.00731
4585.30369	1.38033	0.0073
4583.80358	1.38026	0.00728
4582.30347	1.3802	0.00727
4580.80336	1.38013	0.00722
4579.30325	1.37998	0.0072
4577.80314	1.37981	0.00727
4576.30302	1.3798	0.00736
4574.80291	1.37986	0.00736
4573.3028	1.37981	0.00728
4571.80269	1.37966	0.00725
4570.30258	1.37952	0.00728
4568.80247	1.37942	0.00734
4567.30235	1.37938	0.00741
4565.80224	1.37936	0.00746
4564.30213	1.37933	0.0075
4562.80202	1.37937	0.00753
4561.30191	1.37943	0.00749
4559.80179	1.37941	0.0074
4558.30168	1.37932	0.00732
4556.80157	1.37921	0.00727
4555.30146	1.37907	0.00727
4553.80135	1.37897	0.00732
4552.30124	1.37898	0.00736
4550.80112	1.37905	0.0073
4549.30101	1.37896	0.00714
4547.8009	1.37869	0.00707
4546.30079	1.37844	0.00717
4544.80068	1.3784	0.00732
4543.30056	1.37847	0.00735
4541.80045	1.37839	0.00731
4540.30034	1.37827	0.00735
4538.80023	1.37825	0.00739
4537.30012	1.37822	0.00739
4535.80001	1.37812	0.0074
4534.29989	1.37804	0.00747
4532.79978	1.37806	0.00754
4531.29967	1.37814	0.00754
4529.79956	1.37817	0.00744
4528.29945	1.37804	0.00733
4526.79933	1.37785	0.00734
4525.29922	1.37777	0.00743
4523.79911	1.37781	0.00748
4522.299	1.37788	0.00742
4520.79889	1.3778	0.00731
4519.29878	1.3776	0.00727
4517.79866	1.37745	0.00736
4516.29855	1.37747	0.00745
4514.79844	1.37752	0.00746
4513.29833	1.37754	0.00741
4511.79822	1.37754	0.00731
4510.2981	1.37742	0.0072
4508.79799	1.37722	0.00718
4507.29788	1.37711	0.00724
4505.79777	1.37713	0.00727
4504.29766	1.37713	0.00721
4502.79755	1.37703	0.00713
4501.29743	1.37691	0.00709
4499.79732	1.37678	0.00704
4498.29721	1.37658	0.00703
4496.7971	1.37635	0.00711
4495.29699	1.37621	0.00728
4493.79687	1.37627	0.00744
4492.29676	1.37637	0.00746
4490.79665	1.37633	0.00741
4489.29654	1.37624	0.00744
4487.79643	1.37624	0.00749
4486.29632	1.37627	0.00749
4484.7962	1.37627	0.00745
4483.29609	1.37625	0.00738
4481.79598	1.37616	0.00732
4480.29587	1.37602	0.0073
4478.79576	1.37592	0.00736
4477.29564	1.37594	0.00741
4475.79553	1.37601	0.00735
4474.29542	1.37592	0.00724
4472.79531	1.37572	0.00723
4471.2952	1.37563	0.0073
4469.79509	1.37564	0.00734
4468.29497	1.37566	0.00732
4466.79486	1.37565	0.00724
4465.29475	1.37555	0.00717
4463.79464	1.37542	0.00713
4462.29453	1.3753	0.00713
4460.79441	1.3752	0.00715
4459.2943	1.37512	0.00718
4457.79419	1.37507	0.00721
4456.29408	1.37504	0.00722
4454.79397	1.37504	0.00721
4453.29386	1.375	0.00714
4451.79374	1.37484	0.0071
4450.29363	1.37472	0.00714
4448.79352	1.37469	0.00719
4447.29341	1.37471	0.00718
4445.7933	1.37464	0.00711
4444.29318	1.3745	0.00709
4442.79307	1.37441	0.00713
4441.29296	1.37441	0.00714
4439.79285	1.37436	0.0071
4438.29274	1.37426	0.00707
4436.79263	1.37417	0.00706
4435.29251	1.37407	0.00705
4433.7924	1.37394	0.0071
4432.29229	1.3739	0.00718
4430.79218	1.37397	0.00719
4429.29207	1.37395	0.00711
4427.79195	1.37382	0.00706
4426.29184	1.37374	0.00709
4424.79173	1.37374	0.00707
4423.29162	1.37368	0.00701
4421.79151	1.37356	0.00698
4420.2914	1.37346	0.00698
4418.79128	1.37342	0.00698
4417.29117	1.37336	0.00694
4415.79106	1.37324	0.00691
4414.29095	1.37313	0.00691
4412.79084	1.37304	0.00691
4411.29072	1.37292	0.00693
4409.79061	1.37284	0.00697
4408.2905	1.37279	0.00701
4406.79039	1.37276	0.00703
4405.29028	1.37274	0.00703
4403.79017	1.37274	0.007
4402.29005	1.3727	0.00691
4400.78994	1.37255	0.00683
4399.28983	1.37235	0.00685
4397.78972	1.37226	0.00693
4396.28961	1.37228	0.00695
4394.78949	1.37222	0.00692
4393.28938	1.37214	0.00692
4391.78927	1.37213	0.0069
4390.28916	1.37208	0.00681
4388.78905	1.37189	0.00674
4387.28894	1.37167	0.00678
4385.78882	1.37157	0.00688
4384.28871	1.37157	0.00693
4382.7886	1.37156	0.00692
4381.28849	1.37146	0.0069
4379.78838	1.37134	0.00692
4378.28827	1.37128	0.00696
4376.78815	1.37125	0.00699
4375.28804	1.37123	0.007
4373.78793	1.37119	0.00699
4372.28782	1.37118	0.00695
4370.78771	1.37115	0.00687
4369.28759	1.37103	0.00677
4367.78748	1.3708	0.00673
4366.28737	1.37058	0.00679
4364.78726	1.37045	0.00693
4363.28715	1.37046	0.00707
4361.78704	1.37055	0.0071
4360.28692	1.37058	0.00704
4358.78681	1.37051	0.00698
4357.2867	1.37043	0.00695
4355.78659	1.37034	0.00695
4354.28648	1.3703	0.00697
4352.78636	1.37032	0.00694
4351.28625	1.37028	0.00684
4349.78614	1.37014	0.00677
4348.28603	1.37002	0.00675
4346.78592	1.36994	0.00671
4345.28581	1.36978	0.00667
4343.78569	1.36958	0.00671
4342.28558	1.3695	0.00681
4340.78547	1.36951	0.00684
4339.28536	1.36947	0.00682
4337.78525	1.36938	0.00681
4336.28513	1.36933	0.00682
4334.78502	1.36931	0.00678
4333.28491	1.36918	0.00671
4331.7848	1.36898	0.00671
4330.28469	1.36885	0.00681
4328.78458	1.36885	0.0069
4327.28446	1.36889	0.00691
4325.78435	1.36892	0.00686
4324.28424	1.36887	0.00675
4322.78413	1.36871	0.00668
4321.28402	1.36855	0.00668
4319.7839	1.36847	0.00671
4318.28379	1.36839	0.00672
4316.78368	1.36832	0.00674
4315.28357	1.36831	0.00674
4313.78346	1.36829	0.00667
4312.28335	1.36813	0.0066
4310.78323	1.36797	0.00662
4309.28312	1.36794	0.00665
4307.78301	1.36792	0.0066
4306.2829	1.3678	0.00653
4304.78279	1.36761	0.00651
4303.28267	1.36747	0.00655
4301.78256	1.36739	0.00658
4300.28245	1.36728	0.00661
4298.78234	1.36719	0.00668
4297.28223	1.36722	0.00673
4295.78212	1.36724	0.00668
4294.282	1.36714	0.00659
4292.78189	1.367	0.00656
4291.28178	1.36687	0.00657
4289.78167	1.36677	0.0066
4288.28156	1.36672	0.00662
4286.78144	1.36664	0.00661
4285.28133	1.36652	0.00663
4283.78122	1.36647	0.00671
4282.28111	1.36657	0.00672
4280.781	1.36662	0.00659
4279.28089	1.36651	0.00644
4277.78077	1.36632	0.00635
4276.28066	1.36616	0.00632
4274.78055	1.36601	0.00632
4273.28044	1.3659	0.00632
4271.78033	1.3658	0.00632
4270.28021	1.36569	0.0063
4268.7801	1.36556	0.00627
4267.27999	1.36538	0.0063
4265.77988	1.36529	0.00637
4264.27977	1.36527	0.00639
4262.77966	1.36524	0.00634
4261.27954	1.36512	0.00624
4259.77943	1.36484	0.00621
4258.27932	1.3646	0.00633
4256.77921	1.36457	0.00651
4255.2791	1.36466	0.00656
4253.77898	1.36469	0.0065
4252.27887	1.36461	0.00641
4250.77876	1.36447	0.00635
4249.27865	1.36431	0.00633
4247.77854	1.36417	0.00636
4246.27843	1.36407	0.00641
4244.77831	1.36403	0.00646
4243.2782	1.36402	0.00645
4241.77809	1.364	0.0064
4240.27798	1.36393	0.0063
4238.77787	1.36375	0.00622
4237.27775	1.36356	0.00621
4235.77764	1.36341	0.00624
4234.27753	1.36327	0.00628
4232.77742	1.36317	0.00635
4231.27731	1.36315	0.00639
4229.7772	1.36314	0.00636
4228.27708	1.36306	0.00628
4226.77697	1.3629	0.00624
4225.27686	1.36273	0.00624
4223.77675	1.36259	0.00628
4222.27664	1.3625	0.00634
4220.77652	1.36246	0.00636
4219.27641	1.36241	0.00634
4217.7763	1.36232	0.00632
4216.27619	1.36223	0.0063
4214.77608	1.36216	0.00627
4213.27597	1.36207	0.00621
4211.77585	1.3619	0.00615
4210.27574	1.36166	0.00617
4208.77563	1.36153	0.00627
4207.27552	1.36152	0.00632
4205.77541	1.36149	0.00629
4204.27529	1.36137	0.00626
4202.77518	1.36128	0.00624
4201.27507	1.36121	0.0062
4199.77496	1.36106	0.00613
4198.27485	1.36085	0.00611
4196.77474	1.36064	0.00618
4195.27462	1.36058	0.00628
4193.77451	1.36059	0.00628
4192.2744	1.36051	0.00621
4190.77429	1.36034	0.00615
4189.27418	1.36016	0.00613
4187.77407	1.35991	0.00615
4186.27395	1.35967	0.0063
4184.77384	1.35962	0.0065
4183.27373	1.35976	0.0066
4181.77362	1.35985	0.00653
4180.27351	1.35981	0.0064
4178.77339	1.35968	0.00629
4177.27328	1.3595	0.0062
4175.77317	1.35926	0.00617
4174.27306	1.35905	0.00625
4172.77295	1.35899	0.00632
4171.27284	1.35893	0.0063
4169.77272	1.35877	0.00628
4168.27261	1.3586	0.00632
4166.7725	1.35849	0.00638
4165.27239	1.35843	0.00643
4163.77228	1.35837	0.00644
4162.27216	1.35829	0.00643
4160.77205	1.35821	0.00641
4159.27194	1.3581	0.00637
4157.77183	1.35795	0.00633
4156.27172	1.35774	0.00634
4154.77161	1.35757	0.00643
4153.27149	1.35751	0.00654
4151.77138	1.35755	0.00658
4150.27127	1.35756	0.00651
4148.77116	1.35744	0.0064
4147.27105	1.35724	0.00637
4145.77093	1.35712	0.00636
4144.27082	1.35697	0.00634
4142.77071	1.3568	0.00635
4141.2706	1.35667	0.00638
4139.77049	1.35653	0.0064
4138.27038	1.35639	0.00645
4136.77026	1.35632	0.0065
4135.27015	1.35625	0.00649
4133.77004	1.35612	0.00648
4132.26993	1.35597	0.0065
4130.76982	1.35587	0.00655
4129.2697	1.35585	0.00657
4127.76959	1.35582	0.00651
4126.26948	1.35569	0.00642
4124.76937	1.3555	0.00635
4123.26926	1.35524	0.00633
4121.76915	1.35499	0.00641
4120.26903	1.35485	0.00655
4118.76892	1.35482	0.00666
4117.26881	1.35484	0.00669
4115.7687	1.35482	0.00663
4114.26859	1.35471	0.00655
4112.76847	1.35453	0.00649
4111.26836	1.35433	0.00649
4109.76825	1.35416	0.00653
4108.26814	1.35404	0.00658
4106.76803	1.35394	0.0066
4105.26792	1.3538	0.00661
4103.7678	1.35365	0.00667
4102.26769	1.3536	0.00673
4100.76758	1.35362	0.00669
4099.26747	1.3535	0.00657
4097.76736	1.35323	0.00651
4096.26724	1.35298	0.00656
4094.76713	1.3528	0.00666
4093.26702	1.35271	0.00676
4091.76691	1.35267	0.00681
4090.2668	1.35261	0.0068
4088.76669	1.3525	0.00679
4087.26657	1.35237	0.00679
4085.76646	1.35226	0.0068
4084.26635	1.35218	0.00678
4082.76624	1.35205	0.00674
4081.26613	1.35187	0.00671
4079.76601	1.35171	0.00672
4078.2659	1.35157	0.00672
4076.76579	1.35138	0.00672
4075.26568	1.35117	0.00676
4073.76557	1.35102	0.00685
4072.26546	1.35095	0.0069
4070.76534	1.35085	0.00689
4069.26523	1.35068	0.00687
4067.76512	1.35048	0.00689
4066.26501	1.35027	0.00696
4064.7649	1.3501	0.00705
4063.26478	1.34994	0.00717
4061.76467	1.34985	0.00733
4060.26456	1.34989	0.00744
4058.76445	1.34996	0.00744
4057.26434	1.34996	0.00734
4055.76423	1.34983	0.00722
4054.26411	1.34961	0.00714
4052.764	1.34937	0.00715
4051.26389	1.34917	0.0072
4049.76378	1.34899	0.00728
4048.26367	1.34889	0.00736
4046.76355	1.34879	0.00741
4045.26344	1.34865	0.00745
4043.76333	1.34853	0.00752
4042.26322	1.34848	0.00759
4040.76311	1.34844	0.00761
4039.263	1.34839	0.00759
4037.76288	1.3483	0.00755
4036.26277	1.34816	0.00749
4034.76266	1.34794	0.00747
4033.26255	1.34772	0.00754
4031.76244	1.34758	0.00765
4030.26232	1.34754	0.00775
4028.76221	1.34755	0.00778
4027.2621	1.34754	0.00773
4025.76199	1.34744	0.00764
4024.26188	1.34726	0.00759
4022.76177	1.34711	0.00759
4021.26165	1.34698	0.00756
4019.76154	1.3468	0.00754
4018.26143	1.34661	0.00755
4016.76132	1.34644	0.00759
4015.26121	1.3463	0.00764
4013.76109	1.34619	0.00769
4012.26098	1.3461	0.00772
4010.76087	1.34601	0.00772
4009.26076	1.34592	0.00771
4007.76065	1.3458	0.00767
4006.26054	1.34565	0.00764
4004.76042	1.34547	0.00762
4003.26031	1.34525	0.00766
4001.7602	1.34513	0.00774
4000.26009	1.34511	0.00776
3998.75998	1.34503	0.00771
3997.25986	1.34491	0.00763
3995.75975	1.3447	0.00756
3994.25964	1.34447	0.00755
3992.75953	1.3443	0.00757
3991.25942	1.34413	0.00755
3989.75931	1.34386	0.00757
3988.25919	1.34364	0.00769
3986.75908	1.34358	0.0078
3985.25897	1.34355	0.00781
3983.75886	1.34347	0.00776
3982.25875	1.34329	0.00769
3980.75864	1.34306	0.00769
3979.25852	1.3429	0.00773
3977.75841	1.34279	0.00772
3976.2583	1.34261	0.00766
3974.75819	1.34232	0.00766
3973.25808	1.3421	0.00774
3971.75796	1.34195	0.00779
3970.25785	1.34174	0.00783
3968.75774	1.34151	0.00792
3967.25763	1.34134	0.00807
3965.75752	1.34129	0.00822
3964.25741	1.34135	0.00828
3962.75729	1.34138	0.00818
3961.25718	1.34121	0.00804
3959.75707	1.34094	0.00798
3958.25696	1.34069	0.00799
3956.75685	1.34045	0.00805
3955.25673	1.34022	0.00816
3953.75662	1.34014	0.00829
3952.25651	1.34016	0.00831
3950.7564	1.34008	0.00822
3949.25629	1.3398	0.00813
3947.75618	1.33945	0.00822
3946.25606	1.33934	0.00843
3944.75595	1.33949	0.00844
3943.25584	1.33939	0.00823
3941.75573	1.33896	0.00815
3940.25562	1.33864	0.00826
3938.7555	1.33842	0.0084
3937.25539	1.33822	0.00862
3935.75528	1.33831	0.00884
3934.25517	1.33859	0.00876
3932.75506	1.33852	0.00842
3931.25495	1.33799	0.00825
3929.75483	1.33754	0.00842
3928.25472	1.33746	0.00866
3926.75461	1.33756	0.0087
3925.2545	1.33744	0.00856
3923.75439	1.33704	0.00856
3922.25427	1.33688	0.00875
3920.75416	1.33697	0.0088
3919.25405	1.33697	0.00863
3917.75394	1.33664	0.00842
3916.25383	1.3361	0.00844
3914.75372	1.33575	0.00872
3913.2536	1.33573	0.00897
3911.75349	1.33569	0.00905
3910.25338	1.33548	0.0092
3908.75327	1.3355	0.00947
3907.25316	1.33591	0.00955
3905.75304	1.33629	0.00921
3904.25293	1.33611	0.00869
3902.75282	1.3356	0.00842
3901.25271	1.33529	0.00827
3899.7526	1.33473	0.00811
3898.25249	1.33396	0.00835
3896.75237	1.33373	0.00885
3895.25226	1.33398	0.00918
3893.75215	1.33434	0.00909
3892.25204	1.33419	0.00869
3890.75193	1.33343	0.0087
3889.25181	1.33326	0.00917
3887.7517	1.33389	0.00922
3886.25159	1.33392	0.00869
3884.75148	1.33315	0.00852
3883.25137	1.33306	0.0087
3881.75126	1.33325	0.00842
3880.25114	1.3325	0.00806
3878.75103	1.33156	0.00844
3877.25092	1.33171	0.00904
3875.75081	1.33221	0.00905
3874.2507	1.33203	0.00881
3872.75058	1.33196	0.00881
3871.25047	1.33224	0.00843
3869.75036	1.33152	0.00794
3868.25025	1.33071	0.00819
3866.75014	1.3309	0.00842
3865.25003	1.33095	0.00809
3863.74991	1.33024	0.00784
3862.2498	1.32953	0.00804
3860.74969	1.32914	0.00849
3859.24958	1.32923	0.00901
3857.74947	1.32985	0.00921
3856.24935	1.33066	0.00873
3854.74924	1.33086	0.00745
3853.24913	1.32914	0.00644
3851.74902	1.32727	0.00692
3850.24891	1.32691	0.00782
3848.7488	1.32695	0.00835
3847.24868	1.32704	0.00867
3845.74857	1.32721	0.00875
3844.24846	1.32712	0.00868
3842.74835	1.32694	0.00877
3841.24824	1.32723	0.00878
3839.74812	1.32737	0.00832
3838.24801	1.32681	0.00784
3836.7479	1.32611	0.00777
3835.24779	1.32572	0.00786
3833.74768	1.32543	0.00784
3832.24757	1.3249	0.00784
3830.74745	1.32433	0.00812
3829.24734	1.32426	0.00846
3827.74723	1.32434	0.0085
3826.24712	1.324	0.00851
3824.74701	1.32387	0.00877
3823.24689	1.32443	0.00865
3821.74678	1.32434	0.00789
3820.24667	1.32306	0.00769
3818.74656	1.32282	0.00803
3817.24645	1.32298	0.00772
3815.74634	1.32185	0.00739
3814.24622	1.32078	0.00796
3812.74611	1.32069	0.00866
3811.246	1.32086	0.00906
3809.74589	1.32122	0.00919
3808.24578	1.32151	0.00885
3806.74566	1.32091	0.00851
3805.24555	1.3205	0.00873
3803.74544	1.32111	0.00866
3802.24533	1.32108	0.00775
3800.74522	1.31957	0.00728
3799.24511	1.31881	0.00768
3797.74499	1.31877	0.00778
3796.24488	1.31812	0.00766
3794.74477	1.31733	0.00794
3793.24466	1.31707	0.00836
3791.74455	1.31701	0.00858
3790.24444	1.31685	0.00863
3788.74432	1.31664	0.00865
3787.24421	1.31643	0.00861
3785.7441	1.31605	0.00853
3784.24399	1.31546	0.00863
3782.74388	1.31523	0.00893
3781.24376	1.31541	0.00893
3779.74365	1.31512	0.00853
3778.24354	1.31422	0.00842
3776.74343	1.31354	0.00876
3775.24332	1.31325	0.00917
3773.74321	1.31322	0.0095
3772.24309	1.3135	0.0095
3770.74298	1.31342	0.00907
3769.24287	1.31261	0.00884
3767.74276	1.31204	0.00899
3766.24265	1.31168	0.00904
3764.74253	1.31097	0.00925
3763.24242	1.3107	0.00978
3761.74231	1.31104	0.00996
3760.2422	1.31107	0.00964
3758.74209	1.31048	0.00939
3757.24198	1.30983	0.00952
3755.74186	1.30962	0.00985
3754.24175	1.30992	0.0099
3752.74164	1.31009	0.00934
3751.24153	1.30933	0.00865
3749.74142	1.3079	0.00865
3748.2413	1.30741	0.0093
3746.74119	1.30809	0.00933
3745.24108	1.30773	0.00834
3743.74097	1.30549	0.00818
3742.24086	1.30453	0.00937
3740.74075	1.30498	0.01022
3739.24063	1.3055	0.01035
3737.74052	1.3059	0.00996
3736.24041	1.30579	0.00908
3734.7403	1.30469	0.00841
3733.24019	1.30354	0.00825
3731.74007	1.30239	0.00845
3730.23996	1.30166	0.00897
3728.73985	1.30155	0.00928
3727.23974	1.30123	0.00923
3725.73963	1.3006	0.00921
3724.23952	1.30009	0.00924
3722.7394	1.29945	0.00921
3721.23929	1.29864	0.00932
3719.73918	1.29796	0.0096
3718.23907	1.29735	0.00991
3716.73896	1.29684	0.01031
3715.23884	1.29673	0.01067
3713.73873	1.29691	0.01061
3712.23862	1.29663	0.01004
3710.73851	1.29551	0.00958
3709.2384	1.29418	0.00968
3707.73829	1.29319	0.01015
3706.23817	1.29263	0.01068
3704.73806	1.29236	0.011
3703.23795	1.29205	0.01098
3701.73784	1.29123	0.01086
3700.23773	1.29013	0.0111
3698.73761	1.28942	0.01159
3697.2375	1.28891	0.01197
3695.73739	1.28828	0.01232
3694.23728	1.28783	0.01277
3692.73717	1.28774	0.01305
3691.23706	1.28775	0.01283
3689.73694	1.28703	0.01221
3688.23683	1.28526	0.01202
3686.73672	1.28373	0.01269
3685.23661	1.28306	0.01351
3683.7365	1.28254	0.0141
3682.23638	1.28201	0.01459
3680.73627	1.28152	0.01505
3679.23616	1.28119	0.01548
3677.73605	1.28139	0.01548
3676.23594	1.28077	0.01469
3674.73583	1.27842	0.01465
3673.23571	1.27719	0.01571
3671.7356	1.27712	0.01625
3670.23549	1.27618	0.01616
3668.73538	1.27441	0.0166
3667.23527	1.27326	0.0176
3665.73515	1.27258	0.01852
3664.23504	1.27185	0.01927
3662.73493	1.27109	0.02004
3661.23482	1.27037	0.02085
3659.73471	1.2698	0.02166
3658.2346	1.26939	0.02229
3656.73448	1.2685	0.02279
3655.23437	1.26729	0.02379
3653.73426	1.26697	0.02514
3652.23415	1.26745	0.02596
3650.73404	1.26753	0.02592
3649.23392	1.26653	0.02571
3647.73381	1.26492	0.02605
3646.2337	1.26345	0.02704
3644.73359	1.26262	0.02831
3643.23348	1.26203	0.02941
3641.73337	1.26138	0.03044
3640.23325	1.26083	0.0315
3638.73314	1.26027	0.03252
3637.23303	1.2597	0.03361
3635.73292	1.25932	0.03475
3634.23281	1.259	0.03582
3632.73269	1.25879	0.03689
3631.23258	1.25898	0.03774
3629.73247	1.25878	0.03802
3628.23236	1.25737	0.03854
3626.73225	1.25639	0.03991
3625.23214	1.2561	0.0414
3623.73202	1.25599	0.04271
3622.23191	1.25609	0.04388
3620.7318	1.2563	0.04471
3619.23169	1.25599	0.04529
3617.73158	1.25531	0.04619
3616.23146	1.25505	0.04738
3614.73135	1.25512	0.04842
3613.23124	1.25495	0.04924
3611.73113	1.25461	0.05016
3610.23102	1.2545	0.05117
3608.73091	1.25442	0.05201
3607.23079	1.25396	0.05284
3605.73068	1.25347	0.05398
3604.23057	1.25338	0.05531
3602.73046	1.2536	0.0565
3601.23035	1.25376	0.05744
3599.73024	1.25374	0.05834
3598.23012	1.2538	0.05929
3596.73001	1.2539	0.06015
3595.2299	1.25383	0.06093
3593.72979	1.2536	0.06184
3592.22968	1.25352	0.06297
3590.72956	1.25383	0.06412
3589.22945	1.25436	0.06493
3587.72934	1.25444	0.06536
3586.22923	1.25398	0.06601
3584.72912	1.25374	0.06708
3583.22901	1.25386	0.0682
3581.72889	1.25408	0.06919
3580.22878	1.25434	0.07005
3578.72867	1.25447	0.07079
3577.22856	1.25444	0.07156
3575.72845	1.25437	0.07244
3574.22833	1.25437	0.07346
3572.72822	1.25454	0.07455
3571.22811	1.25493	0.07564
3569.728	1.25564	0.07653
3568.22789	1.25625	0.07695
3566.72778	1.25612	0.07717
3565.22766	1.25573	0.07781
3563.72755	1.25566	0.0788
3562.22744	1.25581	0.07977
3560.72733	1.25598	0.08066
3559.22722	1.25616	0.08153
3557.7271	1.25634	0.0824
3556.22699	1.25657	0.0833
3554.72688	1.25693	0.0842
3553.22677	1.25735	0.08495
3551.72666	1.2576	0.0856
3550.22655	1.25775	0.08632
3548.72643	1.25804	0.08712
3547.22632	1.25839	0.08783
3545.72621	1.25864	0.08846
3544.2261	1.25882	0.0891
3542.72599	1.25893	0.08978
3541.22587	1.25904	0.09056
3539.72576	1.25926	0.09142
3538.22565	1.2596	0.09226
3536.72554	1.26001	0.09301
3535.22543	1.26028	0.09364
3533.72532	1.26045	0.09437
3532.2252	1.26079	0.09518
3530.72509	1.26117	0.09591
3529.22498	1.26154	0.09661
3527.72487	1.26192	0.09727
3526.22476	1.26225	0.09789
3524.72464	1.26256	0.09851
3523.22453	1.2628	0.09912
3521.72442	1.263	0.0998
3520.22431	1.26329	0.10056
3518.7242	1.26366	0.10128
3517.22409	1.26397	0.10197
3515.72397	1.26432	0.10274
3514.22386	1.26483	0.10348
3512.72375	1.26533	0.10408
3511.22364	1.26571	0.10461
3509.72353	1.26598	0.10517
3508.22341	1.26627	0.10586
3506.7233	1.26671	0.10659
3505.22319	1.26726	0.10723
3503.72308	1.26774	0.10774
3502.22297	1.26805	0.10822
3500.72286	1.26838	0.1088
3499.22274	1.26878	0.1094
3497.72263	1.26914	0.10994
3496.22252	1.26944	0.1105
3494.72241	1.26972	0.11112
3493.2223	1.27007	0.11185
3491.72218	1.27058	0.11257
3490.22207	1.2711	0.1132
3488.72196	1.27163	0.11381
3487.22185	1.27222	0.11437
3485.72174	1.27276	0.11483
3484.22163	1.27321	0.11524
3482.72151	1.27354	0.11568
3481.2214	1.27391	0.11624
3479.72129	1.27437	0.11681
3478.22118	1.27481	0.11736
3476.72107	1.2753	0.11793
3475.22095	1.27586	0.11846
3473.72084	1.27638	0.1189
3472.22073	1.27679	0.11933
3470.72062	1.2772	0.11985
3469.22051	1.27774	0.12041
3467.7204	1.27832	0.12089
3466.22028	1.27886	0.12131
3464.72017	1.27938	0.12171
3463.22006	1.27983	0.12208
3461.71995	1.28025	0.1225
3460.21984	1.28069	0.12297
3458.71972	1.28116	0.12346
3457.21961	1.28171	0.12395
3455.7195	1.28227	0.12438
3454.21939	1.28279	0.12479
3452.71928	1.28332	0.12524
3451.21917	1.28394	0.12568
3449.71905	1.28461	0.12606
3448.21894	1.28525	0.12631
3446.71883	1.28571	0.12648
3445.21872	1.28604	0.12677
3443.71861	1.28654	0.1272
3442.21849	1.28711	0.12757
3440.71838	1.28767	0.1279
3439.21827	1.28824	0.12816
3437.71816	1.2887	0.12839
3436.21805	1.28914	0.12868
3434.71794	1.2896	0.12899
3433.21782	1.29009	0.12933
3431.71771	1.29063	0.12966
3430.2176	1.29116	0.12995
3428.71749	1.29171	0.13022
3427.21738	1.29221	0.13045
3425.71726	1.29265	0.1307
3424.21715	1.29315	0.13102
3422.71704	1.29371	0.13132
3421.21693	1.2943	0.13156
3419.71682	1.29485	0.13174
3418.21671	1.29532	0.13191
3416.71659	1.29581	0.13213
3415.21648	1.29637	0.13233
3413.71637	1.29682	0.13245
3412.21626	1.29717	0.13264
3410.71615	1.29764	0.13294
3409.21604	1.29821	0.13321
3407.71592	1.29876	0.13339
3406.21581	1.29927	0.13356
3404.7157	1.2998	0.13373
3403.21559	1.30035	0.13388
3401.71548	1.30088	0.13398
3400.21536	1.30137	0.13406
3398.71525	1.30182	0.13412
3397.21514	1.30218	0.13419
3395.71503	1.30254	0.13435
3394.21492	1.30302	0.13456
3392.71481	1.30353	0.1347
3391.21469	1.30397	0.13478
3389.71458	1.30435	0.13491
3388.21447	1.3048	0.13511
3386.71436	1.30536	0.13528
3385.21425	1.30591	0.13534
3383.71413	1.30635	0.13536
3382.21402	1.30678	0.13543
3380.71391	1.30726	0.13548
3379.2138	1.30766	0.13549
3377.71369	1.30799	0.13553
3376.21358	1.30839	0.13564
3374.71346	1.30878	0.13572
3373.21335	1.30917	0.13586
3371.71324	1.30967	0.13603
3370.21313	1.31028	0.13612
3368.71302	1.31088	0.13605
3367.2129	1.31129	0.13586
3365.71279	1.31155	0.13573
3364.21268	1.31182	0.13571
3362.71257	1.31209	0.13573
3361.21246	1.31239	0.1358
3359.71235	1.31276	0.13587
3358.21223	1.31313	0.13591
3356.71212	1.3135	0.13594
3355.21201	1.31386	0.13596
3353.7119	1.31422	0.13597
3352.21179	1.31462	0.13597
3350.71167	1.31501	0.13592
3349.21156	1.31532	0.13582
3347.71145	1.31555	0.13574
3346.21134	1.31572	0.13571
3344.71123	1.31593	0.13578
3343.21112	1.31625	0.13588
3341.711	1.31658	0.13593
3340.21089	1.31692	0.13598
3338.71078	1.31731	0.13599
3337.21067	1.31763	0.13591
3335.71056	1.31787	0.13586
3334.21044	1.31814	0.13587
3332.71033	1.31847	0.13585
3331.21022	1.31872	0.13576
3329.71011	1.3189	0.13571
3328.21	1.31913	0.13572
3326.70989	1.31936	0.13571
3325.20977	1.31959	0.13572
3323.70966	1.31985	0.13572
3322.20955	1.32006	0.13568
3320.70944	1.32026	0.13568
3319.20933	1.32049	0.13568
3317.70921	1.32067	0.13564
3316.2091	1.3208	0.13564
3314.70899	1.32095	0.13572
3313.20888	1.32118	0.13582
3311.70877	1.32146	0.13588
3310.20866	1.32173	0.1359
3308.70854	1.322	0.13588
3307.20843	1.32223	0.13583
3305.70832	1.32237	0.13577
3304.20821	1.32249	0.13576
3302.7081	1.32261	0.13581
3301.20798	1.3228	0.13589
3299.70787	1.323	0.13594
3298.20776	1.32319	0.13599
3296.70765	1.3234	0.13605
3295.20754	1.32367	0.13612
3293.70743	1.32398	0.1361
3292.20731	1.3242	0.13599
3290.7072	1.32429	0.13587
3289.20709	1.32433	0.13583
3287.70698	1.32436	0.13585
3286.20687	1.32439	0.13592
3284.70675	1.32446	0.13607
3283.20664	1.32465	0.13625
3281.70653	1.32489	0.13637
3280.20642	1.32512	0.13643
3278.70631	1.32532	0.13645
3277.2062	1.32546	0.13647
3275.70608	1.32559	0.13652
3274.20597	1.32573	0.1366
3272.70586	1.32594	0.1367
3271.20575	1.32617	0.13673
3269.70564	1.32629	0.1367
3268.20552	1.32636	0.13672
3266.70541	1.32646	0.1368
3265.2053	1.32658	0.13689
3263.70519	1.32671	0.13698
3262.20508	1.32682	0.13708
3260.70497	1.32695	0.13719
3259.20485	1.32707	0.13731
3257.70474	1.32723	0.13748
3256.20463	1.32751	0.13762
3254.70452	1.32774	0.13765
3253.20441	1.32785	0.13766
3251.70429	1.32796	0.13774
3250.20418	1.32811	0.13786
3248.70407	1.32829	0.13796
3247.20396	1.32845	0.13804
3245.70385	1.3286	0.13812
3244.20374	1.32876	0.13822
3242.70362	1.3289	0.1383
3241.20351	1.32903	0.13841
3239.7034	1.32921	0.13855
3238.20329	1.32941	0.13865
3236.70318	1.32957	0.13875
3235.20306	1.32977	0.13886
3233.70295	1.33001	0.13895
3232.20284	1.33022	0.13897
3230.70273	1.33034	0.13898
3229.20262	1.33044	0.13904
3227.70251	1.33056	0.13913
3226.20239	1.33069	0.13924
3224.70228	1.33086	0.13936
3223.20217	1.33105	0.13943
3221.70206	1.33114	0.13949
3220.20195	1.33123	0.13962
3218.70183	1.3314	0.13979
3217.20172	1.33162	0.13994
3215.70161	1.33187	0.14004
3214.2015	1.33208	0.14009
3212.70139	1.33226	0.14012
3211.20128	1.33236	0.14014
3209.70116	1.33243	0.14023
3208.20105	1.3326	0.14038
3206.70094	1.3328	0.14048
3205.20083	1.33296	0.14055
3203.70072	1.33309	0.14062
3202.20061	1.33323	0.14073
3200.70049	1.3334	0.14083
3199.20038	1.33355	0.14091
3197.70027	1.33368	0.14099
3196.20016	1.33379	0.14108
3194.70005	1.33389	0.14124
3193.19993	1.33411	0.14144
3191.69982	1.3344	0.14154
3190.19971	1.33459	0.14157
3188.6996	1.33474	0.1416
3187.19949	1.33488	0.14165
3185.69938	1.33499	0.14171
3184.19926	1.33509	0.1418
3182.69915	1.3352	0.14192
3181.19904	1.33535	0.14206
3179.69893	1.33556	0.14218
3178.19882	1.33571	0.14224
3176.6987	1.3358	0.14234
3175.19859	1.33596	0.14249
3173.69848	1.33616	0.14261
3172.19837	1.33636	0.14269
3170.69826	1.3365	0.14275
3169.19815	1.33663	0.14284
3167.69803	1.33681	0.14293
3166.19792	1.33693	0.14298
3164.69781	1.33701	0.14306
3163.1977	1.3371	0.14318
3161.69759	1.33719	0.14333
3160.19747	1.33733	0.14352
3158.69736	1.33753	0.1437
3157.19725	1.33776	0.14386
3155.69714	1.33801	0.14397
3154.19703	1.33824	0.14403
3152.69692	1.33844	0.14404
3151.1968	1.33854	0.14403
3149.69669	1.33856	0.14407
3148.19658	1.33861	0.14421
3146.69647	1.33871	0.14439
3145.19636	1.33886	0.14458
3143.69624	1.33904	0.14475
3142.19613	1.33924	0.14492
3140.69602	1.33952	0.14504
3139.19591	1.33972	0.14507
3137.6958	1.33983	0.14511
3136.19569	1.33994	0.1452
3134.69557	1.34007	0.1453
3133.19546	1.34017	0.1454
3131.69535	1.34026	0.14553
3130.19524	1.3404	0.14569
3128.69513	1.34053	0.14583
3127.19501	1.34063	0.14597
3125.6949	1.34072	0.14618
3124.19479	1.34092	0.14645
3122.69468	1.34121	0.14669
3121.19457	1.34158	0.14686
3119.69446	1.34194	0.1469
3118.19434	1.34217	0.14683
3116.69423	1.34227	0.14679
3115.19412	1.34233	0.1468
3113.69401	1.34233	0.14687
3112.1939	1.34238	0.14705
3110.69378	1.34254	0.14727
3109.19367	1.34276	0.14742
3107.69356	1.3429	0.1475
3106.19345	1.34295	0.14763
3104.69334	1.34308	0.14787
3103.19323	1.34335	0.1481
3101.69311	1.34367	0.14823
3100.193	1.34387	0.14823
3098.69289	1.3439	0.14827
3097.19278	1.34397	0.14843
3095.69267	1.34412	0.14863
3094.19255	1.34422	0.14881
3092.69244	1.34441	0.14908
3091.19233	1.34472	0.14932
3089.69222	1.34502	0.14945
3088.19211	1.34525	0.14953
3086.692	1.34545	0.14962
3085.19188	1.34563	0.14971
3083.69177	1.34576	0.14983
3082.19166	1.34593	0.15
3080.69155	1.34619	0.15019
3079.19144	1.34646	0.15032
3077.69132	1.34668	0.15039
3076.19121	1.34686	0.15048
3074.6911	1.34703	0.15058
3073.19099	1.34721	0.15071
3071.69088	1.34739	0.15084
3070.19077	1.34757	0.151
3068.69065	1.34782	0.15118
3067.19054	1.34813	0.15129
3065.69043	1.34837	0.15132
3064.19032	1.34852	0.15136
3062.69021	1.34863	0.15143
3061.19009	1.34873	0.15156
3059.68998	1.34887	0.15175
3058.18987	1.34907	0.15197
3056.68976	1.34933	0.15216
3055.18965	1.34959	0.1523
3053.68954	1.34981	0.15243
3052.18942	1.35006	0.15258
3050.68931	1.3503	0.15269
3049.1892	1.35049	0.15281
3047.68909	1.35073	0.15299
3046.18898	1.35106	0.15317
3044.68886	1.35142	0.15326
3043.18875	1.35171	0.15327
3041.68864	1.35193	0.15326
3040.18853	1.35211	0.15327
3038.68842	1.35219	0.15329
3037.18831	1.35226	0.15344
3035.68819	1.35248	0.15367
3034.18808	1.35278	0.15384
3032.68797	1.35306	0.15392
3031.18786	1.35327	0.15397
3029.68775	1.35341	0.15405
3028.18763	1.35355	0.1542
3026.68752	1.3538	0.15444
3025.18741	1.35418	0.15461
3023.6873	1.3545	0.15463
3022.18719	1.35466	0.15463
3020.68708	1.35479	0.15474
3019.18696	1.35499	0.15493
3017.68685	1.3553	0.15513
3016.18674	1.3557	0.15527
3014.68663	1.35608	0.15527
3013.18652	1.3563	0.1552
3011.68641	1.35644	0.15517
3010.18629	1.35652	0.15521
3008.68618	1.35664	0.15533
3007.18607	1.35681	0.15549
3005.68596	1.35699	0.15565
3004.18585	1.35722	0.15584
3002.68573	1.3575	0.156
3001.18562	1.35775	0.15614
2999.68551	1.35803	0.15629
2998.1854	1.35835	0.15642
2996.68529	1.35865	0.1565
2995.18518	1.35889	0.15657
2993.68506	1.35914	0.1567
2992.18495	1.35948	0.15681
2990.68484	1.35978	0.15684
2989.18473	1.36	0.15687
2987.68462	1.3602	0.15692
2986.1845	1.36037	0.15703
2984.68439	1.36062	0.15719
2983.18428	1.36092	0.15733
2981.68417	1.36121	0.15744
2980.18406	1.3615	0.15754
2978.68395	1.36177	0.15764
2977.18383	1.36208	0.15777
2975.68372	1.36245	0.15786
2974.18361	1.36279	0.15786
2972.6835	1.36298	0.15783
2971.18339	1.36313	0.15791
2969.68327	1.36335	0.15808
2968.18316	1.36367	0.15827
2966.68305	1.36404	0.15842
2965.18294	1.36445	0.15852
2963.68283	1.36485	0.15856
2962.18272	1.36518	0.15854
2960.6826	1.36545	0.15851
2959.18249	1.36568	0.15853
2957.68238	1.3659	0.15861
2956.18227	1.36619	0.15874
2954.68216	1.36657	0.15885
2953.18204	1.36695	0.1589
2951.68193	1.36725	0.15889
2950.18182	1.36748	0.15894
2948.68171	1.36783	0.1591
2947.1816	1.36831	0.1592
2945.68149	1.36877	0.15917
2944.18137	1.36914	0.15905
2942.68126	1.36933	0.15894
2941.18115	1.3695	0.15898
2939.68104	1.36981	0.1591
2938.18093	1.37017	0.15921
2936.68081	1.37058	0.15931
2935.1807	1.37103	0.15937
2933.68059	1.37152	0.15939
2932.18048	1.37207	0.15937
2930.68037	1.37263	0.15921
2929.18026	1.37306	0.15894
2927.68014	1.37336	0.15865
2926.18003	1.37354	0.15841
2924.67992	1.3737	0.15828
2923.17981	1.37394	0.15822
2921.6797	1.37428	0.15815
2920.17958	1.3746	0.158
2918.67947	1.37483	0.15782
2917.17936	1.37503	0.15768
2915.67925	1.37527	0.15757
2914.17914	1.37551	0.15742
2912.67903	1.37569	0.15725
2911.17891	1.37582	0.15712
2909.6788	1.37596	0.15703
2908.17869	1.3761	0.15696
2906.67858	1.37623	0.15691
2905.17847	1.37638	0.15691
2903.67835	1.37659	0.15693
2902.17824	1.37683	0.15692
2900.67813	1.37706	0.15689
2899.17802	1.37728	0.15687
2897.67791	1.37755	0.15685
2896.1778	1.37784	0.15677
2894.67768	1.37802	0.15663
2893.17757	1.37813	0.15657
2891.67746	1.37833	0.15658
2890.17735	1.37857	0.15655
2888.67724	1.37878	0.15648
2887.17712	1.37889	0.15641
2885.67701	1.37896	0.15644
2884.1769	1.37918	0.15657
2882.67679	1.37948	0.15666
2881.17668	1.37978	0.1567
2879.67657	1.38008	0.15672
2878.17645	1.38038	0.15674
2876.67634	1.38073	0.15677
2875.17623	1.38116	0.15677
2873.67612	1.38159	0.15663
2872.17601	1.38185	0.1564
2870.67589	1.38194	0.15625
2869.17578	1.38212	0.15628
2867.67567	1.38244	0.15633
2866.17556	1.3828	0.1563
2864.67545	1.38313	0.15622
2863.17534	1.38341	0.15613
2861.67522	1.38372	0.1561
2860.17511	1.38413	0.15605
2858.675	1.38452	0.15591
2857.17489	1.38485	0.15576
2855.67478	1.38524	0.15561
2854.17466	1.38562	0.15535
2852.67455	1.38582	0.15505
2851.17444	1.38598	0.15485
2849.67433	1.38623	0.15472
2848.17422	1.38657	0.15452
2846.67411	1.38674	0.15421
2845.17399	1.38676	0.15397
2843.67388	1.38683	0.1539
2842.17377	1.38701	0.15389
2840.67366	1.38735	0.15387
2839.17355	1.38771	0.1537
2837.67343	1.3879	0.15345
2836.17332	1.38806	0.15327
2834.67321	1.38826	0.15313
2833.1731	1.38843	0.15297
2831.67299	1.38859	0.15284
2830.17288	1.38881	0.15274
2828.67276	1.38905	0.1526
2827.17265	1.38923	0.15245
2825.67254	1.38942	0.15233
2824.17243	1.38968	0.15222
2822.67232	1.38994	0.15207
2821.17221	1.39017	0.15189
2819.67209	1.39039	0.1517
2818.17198	1.39058	0.15152
2816.67187	1.39076	0.15136
2815.17176	1.39095	0.15122
2813.67165	1.39118	0.1511
2812.17153	1.3915	0.15097
2810.67142	1.39184	0.15073
2809.17131	1.39206	0.15041
2807.6712	1.39218	0.15012
2806.17109	1.3923	0.14989
2804.67098	1.39247	0.14969
2803.17086	1.39265	0.14947
2801.67075	1.39279	0.14923
2800.17064	1.39293	0.14902
2798.67053	1.39311	0.14879
2797.17042	1.39324	0.14853
2795.6703	1.39333	0.14829
2794.17019	1.39341	0.14809
2792.67008	1.39354	0.14793
2791.16997	1.39374	0.14772
2789.66986	1.39388	0.14744
2788.16975	1.39393	0.14717
2786.66963	1.39395	0.14695
2785.16952	1.39404	0.14679
2783.66941	1.39418	0.14659
2782.1693	1.39424	0.14634
2780.66919	1.39424	0.14612
2779.16907	1.39426	0.14598
2777.66896	1.39436	0.14589
2776.16885	1.39456	0.14575
2774.66874	1.39472	0.1455
2773.16863	1.39476	0.14523
2771.66852	1.39478	0.14502
2770.1684	1.39482	0.14485
2768.66829	1.39489	0.14468
2767.16818	1.39496	0.1445
2765.66807	1.39502	0.14431
2764.16796	1.39506	0.14412
2762.66784	1.39509	0.14395
2761.16773	1.39512	0.14381
2759.66762	1.39518	0.14368
2758.16751	1.39528	0.14355
2756.6674	1.39536	0.14339
2755.16729	1.39543	0.14323
2753.66717	1.39552	0.14308
2752.16706	1.39565	0.14294
2750.66695	1.39581	0.14275
2749.16684	1.39593	0.1425
2747.66673	1.39602	0.14222
2746.16661	1.39602	0.14192
2744.6665	1.39592	0.14165
2743.16639	1.39581	0.1415
2741.66628	1.39578	0.14143
2740.16617	1.39588	0.14138
2738.66606	1.39603	0.14123
2737.16594	1.39611	0.141
2735.66583	1.39611	0.14078
2734.16572	1.3961	0.1406
2732.66561	1.39614	0.14046
2731.1655	1.39617	0.14028
2729.66538	1.39617	0.14014
2728.16527	1.39628	0.14002
2726.66516	1.39644	0.13981
2725.16505	1.39649	0.13951
2723.66494	1.39644	0.13922
2722.16483	1.39638	0.13899
2720.66471	1.39631	0.13878
2719.1646	1.39623	0.13858
2717.66449	1.39614	0.13843
2716.16438	1.39607	0.13831
2714.66427	1.39605	0.1382
2713.16415	1.39604	0.13808
2711.66404	1.39605	0.13796
2710.16393	1.39609	0.13781
2708.66382	1.3961	0.13762
2707.16371	1.39605	0.13743
2705.6636	1.39601	0.13727
2704.16348	1.39601	0.13711
2702.66337	1.396	0.13693
2701.16326	1.39597	0.13672
2699.66315	1.39589	0.13649
2698.16304	1.39574	0.1363
2696.66292	1.39559	0.13617
2695.16281	1.39549	0.13607
2693.6627	1.39542	0.13598
2692.16259	1.39536	0.13587
2690.66248	1.39529	0.13575
2689.16237	1.3952	0.13564
2687.66225	1.39516	0.13555
2686.16214	1.39509	0.1354
2684.66203	1.39495	0.13528
2683.16192	1.39484	0.13522
2681.66181	1.3948	0.13518
2680.16169	1.39482	0.1351
2678.66158	1.39479	0.13493
2677.16147	1.39467	0.13476
2675.66136	1.39455	0.13463
2674.16125	1.3944	0.13451
2672.66114	1.39423	0.13441
2671.16102	1.39404	0.13436
2669.66091	1.39389	0.13436
2668.1608	1.39382	0.13438
2666.66069	1.39377	0.13436
2665.16058	1.39367	0.13431
2663.66046	1.39355	0.13428
2662.16035	1.39346	0.13428
2660.66024	1.3934	0.13428
2659.16013	1.39335	0.13427
2657.66002	1.39329	0.13423
2656.15991	1.39321	0.13418
2654.65979	1.39307	0.13415
2653.15968	1.39296	0.13418
2651.65957	1.39293	0.13423
2650.15946	1.39289	0.13423
2648.65935	1.39282	0.13423
2647.15923	1.39279	0.13425
2645.65912	1.39275	0.13423
2644.15901	1.39264	0.13421
2642.6589	1.39254	0.13426
2641.15879	1.39252	0.13434
2639.65868	1.39255	0.13438
2638.15856	1.39253	0.13436
2636.65845	1.39247	0.13436
2635.15834	1.39242	0.13439
2633.65823	1.39238	0.13444
2632.15812	1.39239	0.13453
2630.658	1.39248	0.13458
2629.15789	1.39256	0.13455
2627.65778	1.39255	0.13448
2626.15767	1.39249	0.13444
2624.65756	1.39247	0.13445
2623.15745	1.39246	0.13445
2621.65733	1.39243	0.13446
2620.15722	1.39242	0.13447
2618.65711	1.39241	0.13449
2617.157	1.39241	0.13452
2615.65689	1.39243	0.13454
2614.15678	1.39244	0.13456
2612.65666	1.39251	0.1346
2611.15655	1.39261	0.13457
2609.65644	1.39264	0.1345
2608.15633	1.39266	0.13443
2606.65622	1.39262	0.13435
2605.1561	1.39255	0.13431
2603.65599	1.39251	0.13433
2602.15588	1.39253	0.13435
2600.65577	1.39257	0.13435
2599.15566	1.39259	0.1343
2597.65555	1.39256	0.13424
2596.15543	1.39251	0.13422
2594.65532	1.39247	0.13423
2593.15521	1.39247	0.13427
2591.6551	1.39254	0.13429
2590.15499	1.39262	0.13425
2588.65487	1.39262	0.13416
2587.15476	1.39258	0.13408
2585.65465	1.39251	0.13404
2584.15454	1.39246	0.13405
2582.65443	1.39246	0.13405
2581.15432	1.39247	0.13403
2579.6542	1.39245	0.134
2578.15409	1.39241	0.13396
2576.65398	1.39238	0.13394
2575.15387	1.39233	0.13392
2573.65376	1.39225	0.13393
2572.15364	1.39226	0.13397
2570.65353	1.39229	0.13395
2569.15342	1.39222	0.1339
2567.65331	1.39211	0.13391
2566.1532	1.39207	0.13398
2564.65309	1.3921	0.13403
2563.15297	1.39212	0.13403
2561.65286	1.39207	0.13401
2560.15275	1.39203	0.13404
2558.65264	1.39201	0.13408
2557.15253	1.39202	0.13411
2555.65241	1.39201	0.13413
2554.1523	1.39199	0.13416
2552.65219	1.39201	0.13419
2551.15208	1.392	0.1342
2549.65197	1.39197	0.13422
2548.15186	1.39196	0.13426
2546.65174	1.39195	0.1343
2545.15163	1.39194	0.13433
2543.65152	1.39194	0.13438
2542.15141	1.39193	0.13443
2540.6513	1.39192	0.13449
2539.15118	1.39195	0.13458
2537.65107	1.39203	0.13465
2536.15096	1.3921	0.13467
2534.65085	1.39213	0.13468
2533.15074	1.39213	0.1347
2531.65063	1.39216	0.13476
2530.15051	1.3922	0.13481
2528.6504	1.39225	0.13486
2527.15029	1.39232	0.1349
2525.65018	1.39239	0.13494
2524.15007	1.39247	0.13497
2522.64995	1.39255	0.13498
2521.14984	1.39261	0.13499
2519.64973	1.3927	0.135
2518.14962	1.39275	0.13498
2516.64951	1.39279	0.13499
2515.1494	1.39286	0.13502
2513.64928	1.39295	0.13504
2512.14917	1.39306	0.13504
2510.64906	1.39316	0.13501
2509.14895	1.39323	0.13497
2507.64884	1.39328	0.13493
2506.14872	1.39333	0.13491
2504.64861	1.39341	0.1349
2503.1485	1.39348	0.13488
2501.64839	1.39357	0.13487
2500.14828	1.39369	0.13482
2498.64817	1.39374	0.13473
2497.14805	1.39377	0.13469
2495.64794	1.39384	0.13465
2494.14783	1.3939	0.1346
2492.64772	1.39397	0.13456
2491.14761	1.39404	0.13449
2489.64749	1.39407	0.13442
2488.14738	1.3941	0.13438
2486.64727	1.39416	0.13436
2485.14716	1.39426	0.13432
2483.64705	1.39436	0.13424
2482.14694	1.39443	0.13415
2480.64682	1.39451	0.13405
2479.14671	1.39457	0.13393
2477.6466	1.39459	0.13379
2476.14649	1.39459	0.13366
2474.64638	1.39456	0.13354
2473.14626	1.39449	0.13346
2471.64615	1.39447	0.13345
2470.14604	1.39452	0.13342
2468.64593	1.39459	0.13336
2467.14582	1.39465	0.13325
2465.64571	1.39464	0.13312
2464.14559	1.3946	0.13301
2462.64548	1.39456	0.13293
2461.14537	1.39455	0.13288
2459.64526	1.39457	0.1328
2458.14515	1.39452	0.13271
2456.64503	1.39449	0.13267
2455.14492	1.3945	0.13261
2453.64481	1.39449	0.13254
2452.1447	1.3945	0.13248
2450.64459	1.3945	0.13239
2449.14448	1.39446	0.13229
2447.64436	1.39442	0.13222
2446.14425	1.39437	0.13215
2444.64414	1.39434	0.1321
2443.14403	1.3943	0.13204
2441.64392	1.39426	0.13201
2440.1438	1.39425	0.13198
2438.64369	1.39425	0.13193
2437.14358	1.39424	0.13187
2435.64347	1.39422	0.1318
2434.14336	1.39416	0.13174
2432.64325	1.39411	0.13172
2431.14313	1.39413	0.13171
2429.64302	1.39417	0.13167
2428.14291	1.39417	0.1316
2426.6428	1.39419	0.13153
2425.14269	1.3942	0.13143
2423.64258	1.39416	0.1313
2422.14246	1.39406	0.1312
2420.64235	1.39395	0.13118
2419.14224	1.39395	0.1312
2417.64213	1.39399	0.13116
2416.14202	1.39398	0.13107
2414.6419	1.39392	0.13101
2413.14179	1.39391	0.13099
2411.64168	1.39398	0.13095
2410.14157	1.39399	0.13082
2408.64146	1.39393	0.1307
2407.14135	1.39388	0.13063
2405.64123	1.39385	0.13055
2404.14112	1.39382	0.13046
2402.64101	1.39374	0.13038
2401.1409	1.39371	0.13035
2399.64079	1.39374	0.13028
2398.14067	1.39369	0.13016
2396.64056	1.39363	0.13007
2395.14045	1.39361	0.12999
2393.64034	1.39358	0.12988
2392.14023	1.39352	0.12975
2390.64012	1.39339	0.12964
2389.14	1.39326	0.12959
2387.63989	1.39322	0.12959
2386.13978	1.3933	0.12953
2384.63967	1.39324	0.12936
2383.13956	1.39314	0.12923
2381.63944	1.39304	0.12912
2380.13933	1.39294	0.12902
2378.63922	1.39283	0.12893
2377.13911	1.39272	0.12884
2375.639	1.39261	0.12876
2374.13889	1.3925	0.12868
2372.63877	1.39238	0.12861
2371.13866	1.39226	0.12854
2369.63855	1.39215	0.12847
2368.13844	1.39203	0.12841
2366.63833	1.39191	0.12835
2365.13821	1.39178	0.12829
2363.6381	1.39166	0.12824
2362.13799	1.39154	0.12819
2360.63788	1.39141	0.12814
2359.13777	1.39129	0.12809
2357.63766	1.39116	0.12805
2356.13754	1.39103	0.12801
2354.63743	1.3909	0.12797
2353.13732	1.39077	0.12794
2351.63721	1.39064	0.1279
2350.1371	1.39051	0.12787
2348.63698	1.39037	0.12784
2347.13687	1.39024	0.12782
2345.63676	1.39011	0.12779
2344.13665	1.38997	0.12777
2342.63654	1.38983	0.12775
2341.13643	1.3897	0.12773
2339.63631	1.38956	0.12772
2338.1362	1.38942	0.1277
2336.63609	1.38928	0.12769
2335.13598	1.38914	0.12769
2333.63587	1.389	0.12768
2332.13575	1.38885	0.12768
2330.63564	1.38871	0.12768
2329.13553	1.38856	0.12768
2327.63542	1.38842	0.12768
2326.13531	1.38827	0.12769
2324.6352	1.38812	0.1277
2323.13508	1.38797	0.12771
2321.63497	1.38782	0.12772
2320.13486	1.38767	0.12774
2318.63475	1.38752	0.12776
2317.13464	1.38736	0.12778
2315.63452	1.38721	0.12781
2314.13441	1.38705	0.12784
2312.6343	1.38689	0.12788
2311.13419	1.38673	0.12792
2309.63408	1.38657	0.12796
2308.13397	1.38641	0.12801
2306.63385	1.38624	0.12806
2305.13374	1.38607	0.12812
2303.63363	1.3859	0.12819
2302.13352	1.38572	0.12827
2300.63341	1.38554	0.12837
2299.13329	1.38535	0.12849
2297.63318	1.38522	0.12867
2296.13307	1.38516	0.12882
2294.63296	1.38507	0.12891
2293.13285	1.38495	0.12902
2291.63274	1.38487	0.12916
2290.13262	1.38483	0.12927
2288.63251	1.38477	0.12935
2287.1324	1.38467	0.12942
2285.63229	1.38454	0.12952
2284.13218	1.38446	0.12967
2282.63206	1.38445	0.12981
2281.13195	1.38445	0.12989
2279.63184	1.38441	0.12994
2278.13173	1.38436	0.12999
2276.63162	1.38432	0.13003
2275.13151	1.38419	0.13006
2273.63139	1.38406	0.13015
2272.13128	1.38401	0.13028
2270.63117	1.384	0.13038
2269.13106	1.38397	0.13044
2267.63095	1.38394	0.13049
2266.13083	1.38388	0.13052
2264.63072	1.38376	0.13055
2263.13061	1.38367	0.13064
2261.6305	1.38361	0.13075
2260.13039	1.38358	0.13083
2258.63028	1.38355	0.1309
2257.13016	1.38353	0.13096
2255.63005	1.38351	0.13099
2254.12994	1.38344	0.13101
2252.62983	1.38336	0.13106
2251.12972	1.38331	0.13111
2249.6296	1.38322	0.13115
2248.12949	1.38319	0.13121
2246.62938	1.38315	0.13123
2245.12927	1.38303	0.13123
2243.62916	1.38291	0.13128
2242.12905	1.3828	0.13137
2240.62893	1.38276	0.13148
2239.12882	1.38274	0.13154
2237.62871	1.38269	0.13156
2236.1286	1.38259	0.13157
2234.62849	1.38244	0.13162
2233.12838	1.38231	0.13174
2231.62826	1.38228	0.13188
2230.12815	1.38226	0.13197
2228.62804	1.38224	0.13203
2227.12793	1.3822	0.13206
2225.62782	1.3821	0.1321
2224.1277	1.382	0.13218
2222.62759	1.38192	0.13228
2221.12748	1.38188	0.13239
2219.62737	1.38187	0.13248
2218.12726	1.38184	0.13255
2216.62715	1.38179	0.13261
2215.12703	1.38174	0.13269
2213.62692	1.38168	0.13278
2212.12681	1.38169	0.13291
2210.6267	1.38176	0.13298
2209.12659	1.38176	0.13298
2207.62647	1.38172	0.13301
2206.12636	1.38168	0.13304
2204.62625	1.38161	0.13309
2203.12614	1.38158	0.13318
2201.62603	1.38162	0.13326
2200.12592	1.38167	0.13329
2198.6258	1.38164	0.13325
2197.12569	1.38153	0.13328
2195.62558	1.38152	0.13339
2194.12547	1.38157	0.13345
2192.62536	1.38162	0.13347
2191.12524	1.38165	0.13344
2189.62513	1.38159	0.1334
2188.12502	1.38154	0.13342
2186.62491	1.38154	0.13346
2185.1248	1.38157	0.13347
2183.62469	1.38159	0.13344
2182.12457	1.38158	0.13341
2180.62446	1.38158	0.13337
2179.12435	1.38155	0.1333
2177.62424	1.38148	0.13325
2176.12413	1.38143	0.13322
2174.62401	1.38135	0.13319
2173.1239	1.38128	0.13321
2171.62379	1.38129	0.13323
2170.12368	1.38133	0.13319
2168.62357	1.38133	0.1331
2167.12346	1.38126	0.133
2165.62334	1.38117	0.13294
2164.12323	1.38114	0.13289
2162.62312	1.3811	0.1328
2161.12301	1.381	0.1327
2159.6229	1.38089	0.13263
2158.12278	1.38078	0.13258
2156.62267	1.38071	0.13254
2155.12256	1.38067	0.13247
2153.62245	1.38057	0.13235
2152.12234	1.38043	0.13227
2150.62223	1.38033	0.1322
2149.12211	1.38021	0.13211
2147.622	1.38009	0.13202
2146.12189	1.37992	0.13192
2144.62178	1.37975	0.13187
2143.12167	1.37963	0.1318
2141.62155	1.37944	0.13173
2140.12144	1.37928	0.1317
2138.62133	1.37915	0.13166
2137.12122	1.37901	0.1316
2135.62111	1.37888	0.13152
2134.121	1.37871	0.13144
2132.62088	1.37853	0.13137
2131.12077	1.37836	0.13128
2129.62066	1.37813	0.1312
2128.12055	1.37791	0.13114
2126.62044	1.37766	0.1311
2125.12032	1.37744	0.13111
2123.62021	1.37728	0.1311
2122.1201	1.3771	0.13105
2120.61999	1.37688	0.131
2119.11988	1.37664	0.13095
2117.61977	1.37639	0.13093
2116.11965	1.37615	0.13092
2114.61954	1.37591	0.13093
2113.11943	1.37569	0.13095
2111.61932	1.37548	0.13096
2110.11921	1.37526	0.13097
2108.61909	1.37503	0.13098
2107.11898	1.37479	0.13099
2105.61887	1.37455	0.13103
2104.11876	1.37435	0.13109
2102.61865	1.37419	0.13113
2101.11854	1.37402	0.13113
2099.61842	1.37382	0.1311
2098.11831	1.37356	0.13107
2096.6182	1.37328	0.1311
2095.11809	1.37309	0.13116
2093.61798	1.37291	0.13118
2092.11786	1.37272	0.13118
2090.61775	1.37249	0.13114
2089.11764	1.37219	0.13113
2087.61753	1.37194	0.13118
2086.11742	1.37171	0.1312
2084.61731	1.37148	0.13121
2083.11719	1.37118	0.1312
2081.61708	1.37085	0.13125
2080.11697	1.37063	0.13136
2078.61686	1.37042	0.1314
2077.11675	1.37015	0.13144
2075.61663	1.3699	0.1315
2074.11652	1.36966	0.13157
2072.61641	1.36945	0.13165
2071.1163	1.36925	0.13168
2069.61619	1.369	0.1317
2068.11608	1.36879	0.13175
2066.61596	1.36859	0.13175
2065.11585	1.36834	0.13173
2063.61574	1.36803	0.1317
2062.11563	1.36767	0.13171
2060.61552	1.36733	0.1318
2059.1154	1.36707	0.1319
2057.61529	1.36682	0.13197
2056.11518	1.36657	0.13204
2054.61507	1.36635	0.13208
2053.11496	1.36608	0.13208
2051.61485	1.36574	0.13209
2050.11473	1.36541	0.13216
2048.61462	1.36515	0.13225
2047.11451	1.36492	0.13227
2045.6144	1.36457	0.13226
2044.11429	1.36421	0.1323
2042.61418	1.36389	0.13237
2041.11406	1.36354	0.13241
2039.61395	1.36319	0.13248
2038.11384	1.36285	0.13256
2036.61373	1.36253	0.13264
2035.11362	1.36221	0.13268
2033.6135	1.36178	0.13271
2032.11339	1.36135	0.13282
2030.61328	1.36097	0.13297
2029.11317	1.36063	0.13313
2027.61306	1.36035	0.13324
2026.11295	1.35997	0.1333
2024.61283	1.35957	0.1334
2023.11272	1.3592	0.1335
2021.61261	1.35875	0.13361
2020.1125	1.35836	0.1338
2018.61239	1.35802	0.13395
2017.11227	1.35765	0.13407
2015.61216	1.35723	0.13419
2014.11205	1.3568	0.13434
2012.61194	1.3564	0.13451
2011.11183	1.35597	0.13467
2009.61172	1.35552	0.13486
2008.1116	1.35514	0.13509
2006.61149	1.35477	0.13527
2005.11138	1.35433	0.13542
2003.61127	1.35387	0.13561
2002.11116	1.35338	0.13584
2000.61104	1.35292	0.13613
1999.11093	1.35252	0.13644
1997.61082	1.35213	0.13674
1996.11071	1.35177	0.13707
1994.6106	1.35153	0.13738
1993.11049	1.35131	0.13756
1991.61037	1.35092	0.13764
1990.11026	1.35039	0.13778
1988.61015	1.34991	0.13804
1987.11004	1.34949	0.13831
1985.60993	1.34901	0.13856
1984.10981	1.34856	0.13888
1982.6097	1.34815	0.13918
1981.10959	1.3477	0.13949
1979.60948	1.3473	0.13982
1978.10937	1.34685	0.14012
1976.60926	1.34641	0.14048
1975.10914	1.346	0.14082
1973.60903	1.34554	0.14118
1972.10892	1.34515	0.14162
1970.60881	1.34485	0.14203
1969.1087	1.34457	0.14238
1967.60858	1.34427	0.14265
1966.10847	1.34378	0.14287
1964.60836	1.34331	0.14324
1963.10825	1.34294	0.14362
1961.60814	1.34251	0.14397
1960.10803	1.34211	0.14435
1958.60791	1.34167	0.14471
1957.1078	1.34126	0.14513
1955.60769	1.34089	0.1455
1954.10758	1.34041	0.14587
1952.60747	1.33995	0.14633
1951.10735	1.33958	0.14681
1949.60724	1.33923	0.14726
1948.10713	1.33886	0.14767
1946.60702	1.33846	0.14811
1945.10691	1.33814	0.14858
1943.6068	1.33786	0.14896
1942.10668	1.33739	0.14925
1940.60657	1.33683	0.14966
1939.10646	1.33641	0.1502
1937.60635	1.336	0.15068
1936.10624	1.33558	0.15119
1934.60612	1.33521	0.15169
1933.10601	1.33477	0.15216
1931.6059	1.33436	0.15268
1930.10579	1.33392	0.15318
1928.60568	1.33342	0.15376
1927.10557	1.33306	0.15442
1925.60545	1.3328	0.15505
1924.10534	1.33261	0.15557
1922.60523	1.33218	0.15594
1921.10512	1.33164	0.1565
1919.60501	1.33142	0.15719
1918.10489	1.33111	0.15763
1916.60478	1.33055	0.15808
1915.10467	1.33005	0.15873
1913.60456	1.32963	0.15945
1912.10445	1.32939	0.16017
1910.60434	1.32914	0.16077
1909.10422	1.32876	0.16129
1907.60411	1.32832	0.16185
1906.104	1.32781	0.16251
1904.60389	1.32743	0.16328
1903.10378	1.32713	0.16401
1901.60366	1.32674	0.1647
1900.10355	1.32635	0.16545
1898.60344	1.32603	0.16629
1897.10333	1.32585	0.16711
1895.60322	1.32569	0.16782
1894.10311	1.32537	0.16846
1892.60299	1.32505	0.16922
1891.10288	1.32492	0.16999
1889.60277	1.32465	0.17056
1888.10266	1.32414	0.17121
1886.60255	1.32373	0.17206
1885.10243	1.3234	0.17296
1883.60232	1.32317	0.1739
1882.10221	1.323	0.1748
1880.6021	1.32284	0.17568
1879.10199	1.32274	0.17652
1877.60188	1.3225	0.17728
1876.10176	1.32224	0.17814
1874.60165	1.322	0.17904
1873.10154	1.32178	0.18006
1871.60143	1.3219	0.18119
1870.10132	1.32217	0.18205
1868.6012	1.3222	0.1826
1867.10109	1.32191	0.18315
1865.60098	1.32153	0.18393
1864.10087	1.32133	0.1849
1862.60076	1.32118	0.18584
1861.10065	1.32104	0.18681
1859.60053	1.32102	0.18782
1858.10042	1.321	0.18873
1856.60031	1.32097	0.18966
1855.1002	1.32094	0.19056
1853.60009	1.32084	0.19147
1852.09997	1.32078	0.19248
1850.59986	1.32081	0.19354
1849.09975	1.32092	0.19458
1847.59964	1.32111	0.19559
1846.09953	1.32139	0.19652
1844.59942	1.32164	0.19724
1843.0993	1.32148	0.19783
1841.59919	1.32119	0.19873
1840.09908	1.3212	0.19991
1838.59897	1.32142	0.20101
1837.09886	1.32154	0.20193
1835.59875	1.32155	0.20288
1834.09863	1.32158	0.204
1832.59852	1.32187	0.20526
1831.09841	1.32253	0.2064
1829.5983	1.32294	0.20704
1828.09819	1.32294	0.20771
1826.59807	1.32313	0.20865
1825.09796	1.32331	0.2095
1823.59785	1.32336	0.21034
1822.09774	1.32337	0.2113
1820.59763	1.3235	0.21244
1819.09752	1.32379	0.21356
1817.5974	1.32404	0.21457
1816.09729	1.32429	0.21564
1814.59718	1.32461	0.21676
1813.09707	1.32506	0.2179
1811.59696	1.32564	0.21891
1810.09684	1.326	0.21969
1808.59673	1.32618	0.22055
1807.09662	1.32639	0.22159
1805.59651	1.32665	0.22273
1804.0964	1.32713	0.224
1802.59629	1.32778	0.22516
1801.09617	1.32844	0.22613
1799.59606	1.32893	0.22696
1798.09595	1.32921	0.22785
1796.59584	1.32957	0.22904
1795.09573	1.33028	0.23036
1793.59561	1.33131	0.23147
1792.0955	1.33216	0.2321
1790.59539	1.33241	0.23255
1789.09528	1.33253	0.23347
1787.59517	1.333	0.23474
1786.09506	1.33365	0.2359
1784.59494	1.33422	0.23696
1783.09483	1.33487	0.23814
1781.59472	1.33572	0.23931
1780.09461	1.33655	0.2403
1778.5945	1.33719	0.24124
1777.09438	1.33784	0.24241
1775.59427	1.33883	0.24375
1774.09416	1.34017	0.24497
1772.59405	1.3416	0.24572
1771.09394	1.34248	0.24602
1769.59383	1.34299	0.24658
1768.09371	1.34361	0.24747
1766.5936	1.34426	0.24844
1765.09349	1.34505	0.24962
1763.59338	1.34628	0.25089
1762.09327	1.34756	0.25174
1760.59315	1.34848	0.25241
1759.09304	1.34946	0.25333
1757.59293	1.35061	0.25424
1756.09282	1.35161	0.255
1754.59271	1.35247	0.25591
1753.0926	1.35362	0.25719
1751.59248	1.35532	0.25845
1750.09237	1.35711	0.25918
1748.59226	1.35863	0.25962
1747.09215	1.35995	0.26
1745.59204	1.36112	0.26049
1744.09192	1.36247	0.26115
1742.59181	1.3638	0.26168
1741.0917	1.36514	0.26224
1739.59159	1.36647	0.26272
1738.09148	1.36757	0.26332
1736.59137	1.36917	0.26441
1735.09125	1.37161	0.26524
1733.59114	1.37368	0.26495
1732.09103	1.3748	0.26452
1730.59092	1.37598	0.26464
1729.09081	1.3772	0.26477
1727.59069	1.37829	0.265
1726.09058	1.37958	0.26549
1724.59047	1.38105	0.26596
1723.09036	1.38255	0.26636
1721.59025	1.38406	0.26686
1720.09014	1.38608	0.26764
1718.59002	1.38894	0.26802
1717.08991	1.3913	0.26717
1715.5898	1.39272	0.26608
1714.08969	1.3937	0.26533
1712.58958	1.39465	0.26512
1711.08946	1.39595	0.2652
1709.58935	1.39741	0.26527
1708.08924	1.39917	0.26538
1706.58913	1.40119	0.26521
1705.08902	1.40283	0.26459
1703.58891	1.40425	0.26421
1702.08879	1.40635	0.26414
1700.58868	1.40865	0.26335
1699.08857	1.41001	0.26203
1697.58846	1.41166	0.2612
1696.08835	1.41322	0.25982
1694.58823	1.4136	0.2583
1693.08812	1.41408	0.25782
1691.58801	1.41533	0.25771
1690.0879	1.41681	0.25727
1688.58779	1.41803	0.25671
1687.08768	1.41977	0.25651
1685.58756	1.42261	0.25594
1684.08745	1.42463	0.25363
1682.58734	1.42465	0.25116
1681.08723	1.42488	0.25007
1679.58712	1.42553	0.24931
1678.087	1.4264	0.24865
1676.58689	1.4277	0.2479
1675.08678	1.42871	0.24664
1673.58667	1.42928	0.24558
1672.08656	1.43055	0.24502
1670.58645	1.43232	0.24384
1669.08633	1.43308	0.24169
1667.58622	1.43285	0.24004
1666.08611	1.43311	0.23939
1664.586	1.43416	0.23879
1663.08589	1.43526	0.23756
1661.58577	1.43549	0.236
1660.08566	1.43552	0.23505
1658.58555	1.43589	0.23463
1657.08544	1.43686	0.23454
1655.58533	1.4392	0.23443
1654.08522	1.44227	0.23251
1652.5851	1.44193	0.22864
1651.08499	1.44058	0.22724
1649.58488	1.44154	0.2273
1648.08477	1.44364	0.22621
1646.58466	1.44451	0.2235
1645.08455	1.44355	0.22107
1643.58443	1.44304	0.22005
1642.08432	1.44323	0.21939
1640.58421	1.4437	0.2187
1639.0841	1.44483	0.21809
1637.58399	1.44691	0.21684
1636.08387	1.44824	0.21397
1634.58376	1.44718	0.21083
1633.08365	1.44616	0.20935
1631.58354	1.44618	0.20853
1630.08343	1.44676	0.20743
1628.58332	1.44725	0.20582
1627.0832	1.44741	0.20409
1625.58309	1.44775	0.20249
1624.08298	1.44825	0.20051
1622.58287	1.44791	0.19812
1621.08276	1.44709	0.19634
1619.58264	1.44724	0.19513
1618.08253	1.44807	0.19318
1616.58242	1.4476	0.19018
1615.08231	1.44589	0.18775
1613.5822	1.44479	0.18633
1612.08209	1.44424	0.18495
1610.58197	1.44371	0.18326
1609.08186	1.44294	0.18139
1607.58175	1.44184	0.17954
1606.08164	1.44064	0.17793
1604.58153	1.4396	0.17647
1603.08141	1.43855	0.17495
1601.5813	1.43732	0.17341
1600.08119	1.43598	0.17201
1598.58108	1.43467	0.17077
1597.08097	1.43349	0.16956
1595.58086	1.43223	0.16828
1594.08074	1.43079	0.16702
1592.58063	1.42929	0.16592
1591.08052	1.42782	0.16494
1589.58041	1.42637	0.16401
1588.0803	1.42485	0.16315
1586.58018	1.42341	0.1624
1585.08007	1.42194	0.16166
1583.57996	1.42039	0.16104
1582.07985	1.41888	0.16059
1580.57974	1.41749	0.16038
1579.07963	1.41683	0.16031
1577.57951	1.41675	0.15949
1576.0794	1.41522	0.15772
1574.57929	1.41247	0.15677
1573.07918	1.41076	0.15707
1571.57907	1.41022	0.1572
1570.07895	1.40942	0.15635
1568.57884	1.40736	0.15537
1567.07873	1.4054	0.15531
1565.57862	1.40399	0.15555
1564.07851	1.40254	0.15586
1562.5784	1.40177	0.15669
1561.07828	1.40277	0.15733
1559.57817	1.40435	0.15562
1558.07806	1.40137	0.15227
1556.57795	1.39844	0.15179
1555.07784	1.39678	0.15183
1553.57772	1.39485	0.15169
1552.07761	1.39321	0.15191
1550.5775	1.39191	0.15209
1549.07739	1.39028	0.1522
1547.57728	1.38878	0.15278
1546.07717	1.38815	0.15359
1544.57705	1.38798	0.15395
1543.07694	1.38787	0.15389
1541.57683	1.38831	0.15316
1540.07672	1.38723	0.15092
1538.57661	1.38358	0.14948
1537.07649	1.38114	0.15029
1535.57638	1.38034	0.1512
1534.07627	1.37981	0.15109
1532.57616	1.37785	0.15047
1531.07605	1.37574	0.15085
1529.57594	1.37464	0.15169
1528.07582	1.37388	0.15217
1526.57571	1.37296	0.15235
1525.0756	1.3719	0.1526
1523.57549	1.3715	0.153
1522.07538	1.37124	0.15254
1520.57526	1.36945	0.15161
1519.07515	1.36774	0.15169
1517.57504	1.36675	0.15181
1516.07493	1.36501	0.1515
1514.57482	1.36295	0.15181
1513.07471	1.36153	0.15269
1511.57459	1.3605	0.15363
1510.07448	1.36014	0.15465
1508.57437	1.36099	0.155
1507.07426	1.36101	0.15331
1505.57415	1.35762	0.15153
1504.07403	1.35473	0.15215
1502.57392	1.35325	0.15344
1501.07381	1.35246	0.15445
1499.5737	1.35186	0.15502
1498.07359	1.35134	0.15515
1496.57348	1.35017	0.15472
1495.07336	1.34807	0.15467
1493.57325	1.34657	0.15557
1492.07314	1.34599	0.15642
1490.57303	1.34555	0.15656
1489.07292	1.34431	0.15614
1487.5728	1.34238	0.15601
1486.07269	1.34062	0.15652
1484.57258	1.33917	0.15724
1483.07247	1.33799	0.15797
1481.57236	1.3368	0.15853
1480.07225	1.33533	0.15917
1478.57213	1.33428	0.16018
1477.07202	1.33367	0.16106
1475.57191	1.33315	0.16165
1474.0718	1.33287	0.16187
1472.57169	1.33179	0.16133
1471.07157	1.32966	0.16115
1469.57146	1.32784	0.16195
1468.07135	1.32675	0.16307
1466.57124	1.32619	0.16387
1465.07113	1.32529	0.16405
1463.57102	1.3236	0.16426
1462.0709	1.32207	0.16525
1460.57079	1.32143	0.16659
1459.07068	1.32167	0.16749
1457.57057	1.3217	0.16713
1456.07046	1.31986	0.1661
1454.57035	1.3177	0.16629
1453.07023	1.31623	0.16709
1451.57012	1.31491	0.16779
1450.07001	1.3138	0.16853
1448.5699	1.31284	0.16904
1447.06979	1.31145	0.16931
1445.56967	1.30995	0.16988
1444.06956	1.30863	0.17061
1442.56945	1.30733	0.17134
1441.06934	1.30607	0.17219
1439.56923	1.30514	0.17319
1438.06912	1.30473	0.17392
1436.569	1.30383	0.17385
1435.06889	1.30198	0.17388
1433.56878	1.30042	0.17464
1432.06867	1.29925	0.17545
1430.56856	1.2981	0.17604
1429.06844	1.2967	0.17649
1427.56833	1.2951	0.17714
1426.06822	1.2938	0.17809
1424.56811	1.29263	0.17889
1423.068	1.29128	0.17965
1421.56789	1.29029	0.18065
1420.06777	1.28963	0.18131
1418.56766	1.28842	0.18135
1417.06755	1.28664	0.18157
1415.56744	1.28493	0.18225
1414.06733	1.28341	0.18307
1412.56721	1.28195	0.18386
1411.0671	1.28046	0.18462
1409.56699	1.27891	0.18541
1408.06688	1.27741	0.18631
1406.56677	1.27605	0.1872
1405.06666	1.27459	0.1879
1403.56654	1.27282	0.18863
1402.06643	1.27119	0.18974
1400.56632	1.2699	0.19085
1399.06621	1.2685	0.19167
1397.5661	1.26703	0.19254
1396.06598	1.26567	0.19334
1394.56587	1.26395	0.19385
1393.06576	1.2618	0.19455
1391.56565	1.25975	0.19574
1390.06554	1.25811	0.19716
1388.56543	1.25669	0.19836
1387.06531	1.25497	0.19921
1385.5652	1.25293	0.20016
1384.06509	1.25089	0.20141
1382.56498	1.249	0.20286
1381.06487	1.24727	0.2043
1379.56475	1.24545	0.20563
1378.06464	1.24355	0.20705
1376.56453	1.24177	0.20858
1375.06442	1.24005	0.21005
1373.56431	1.23816	0.21136
1372.0642	1.23602	0.21278
1370.56408	1.23396	0.21451
1369.06397	1.23203	0.21631
1367.56386	1.23002	0.2181
1366.06375	1.22808	0.22006
1364.56364	1.22629	0.2221
1363.06352	1.22458	0.22404
1361.56341	1.2227	0.22583
1360.0633	1.22063	0.22775
1358.56319	1.21863	0.22995
1357.06308	1.21675	0.23221
1355.56297	1.21486	0.23448
1354.06285	1.21297	0.23683
1352.56274	1.21109	0.23928
1351.06263	1.20929	0.24184
1349.56252	1.20753	0.24444
1348.06241	1.20577	0.2471
1346.56229	1.20411	0.24993
1345.06218	1.20258	0.25281
1343.56207	1.20106	0.25564
1342.06196	1.19955	0.2586
1340.56185	1.19824	0.2617
1339.06174	1.19705	0.2647
1337.56162	1.19579	0.26761
1336.06151	1.19452	0.27064
1334.5614	1.19334	0.27382
1333.06129	1.19229	0.27705
1331.56118	1.19134	0.2803
1330.06106	1.19051	0.28359
1328.56095	1.18979	0.28687
1327.06084	1.18917	0.29009
1325.56073	1.18857	0.29326
1324.06062	1.188	0.29646
1322.56051	1.18754	0.29972
1321.06039	1.18722	0.30297
1319.56028	1.18703	0.30616
1318.06017	1.18688	0.30919
1316.56006	1.18672	0.31217
1315.05995	1.18662	0.31516
1313.55983	1.18659	0.31807
1312.05972	1.18659	0.32089
1310.55961	1.18661	0.32364
1309.0595	1.18664	0.3263
1307.55939	1.18663	0.32885
1306.05928	1.18656	0.33138
1304.55916	1.18653	0.33393
1303.05905	1.18652	0.33637
1301.55894	1.18644	0.33869
1300.05883	1.18628	0.34097
1298.55872	1.18608	0.34323
1297.0586	1.18582	0.34545
1295.55849	1.1855	0.34762
1294.05838	1.18509	0.34975
1292.55827	1.1846	0.35186
1291.05816	1.18399	0.35395
1289.55805	1.18326	0.35602
1288.05793	1.1824	0.35815
1286.55782	1.18144	0.36032
1285.05771	1.18035	0.36253
1283.5576	1.17915	0.36485
1282.05749	1.17785	0.36724
1280.55737	1.17643	0.36972
1279.05726	1.17491	0.37233
1277.55715	1.17328	0.37506
1276.05704	1.17157	0.37799
1274.55693	1.1698	0.38107
1273.05682	1.16793	0.38429
1271.5567	1.16602	0.38778
1270.05659	1.16411	0.39149
1268.55648	1.1622	0.39538
1267.05637	1.16028	0.39947
1265.55626	1.15833	0.40375
1264.05615	1.15642	0.40837
1262.55603	1.15459	0.4132
1261.05592	1.15281	0.4183
1259.55581	1.15119	0.42371
1258.0557	1.14972	0.42928
1256.55559	1.14838	0.43508
1255.05547	1.14719	0.44111
1253.55536	1.14617	0.44736
1252.05525	1.14539	0.45389
1250.55514	1.14488	0.46056
1249.05503	1.14459	0.46736
1247.55492	1.14453	0.47434
1246.0548	1.14476	0.48148
1244.55469	1.1453	0.48876
1243.05458	1.14617	0.49608
1241.55447	1.1473	0.50343
1240.05436	1.14872	0.51086
1238.55424	1.15048	0.51832
1237.05413	1.15252	0.52573
1235.55402	1.15486	0.53315
1234.05391	1.1575	0.54053
1232.5538	1.16042	0.54786
1231.05369	1.16366	0.55517
1229.55357	1.16723	0.5623
1228.05346	1.17105	0.56931
1226.55335	1.17516	0.57616
1225.05324	1.17946	0.58279
1223.55313	1.18398	0.58933
1222.05301	1.18873	0.59559
1220.5529	1.19357	0.60167
1219.05279	1.1986	0.60766
1217.55268	1.20376	0.61339
1216.05257	1.20905	0.61907
1214.55246	1.21455	0.62453
1213.05234	1.22013	0.62973
1211.55223	1.22583	0.63483
1210.05212	1.23161	0.63959
1208.55201	1.23737	0.64428
1207.0519	1.24324	0.64885
1205.55178	1.2491	0.65321
1204.05167	1.25504	0.6576
1202.55156	1.26111	0.66179
1201.05145	1.26719	0.66586
1199.55134	1.27338	0.66989
1198.05123	1.27963	0.67371
1196.55111	1.28592	0.67749
1195.051	1.29232	0.68116
1193.55089	1.29875	0.68472
1192.05078	1.3053	0.68826
1190.55067	1.31198	0.69167
1189.05055	1.31873	0.69494
1187.55044	1.32556	0.69816
1186.05033	1.33251	0.70128
1184.55022	1.33958	0.70435
1183.05011	1.34685	0.70739
1181.55	1.35432	0.71024
1180.04988	1.36196	0.71297
1178.54977	1.36984	0.71553
1177.04966	1.37786	0.71783
1175.54955	1.3861	0.72002
1174.04944	1.39456	0.72186
1172.54932	1.40312	0.72341
1171.04921	1.4119	0.72473
1169.5491	1.42079	0.72561
1168.04899	1.42977	0.72623
1166.54888	1.4389	0.72646
1165.04877	1.44801	0.72623
1163.54865	1.45724	0.72578
1162.04854	1.46651	0.72476
1160.54843	1.47568	0.72334
1159.04832	1.4849	0.72157
1157.54821	1.49394	0.71924
1156.04809	1.50292	0.71666
1154.54798	1.51183	0.71352
1153.04787	1.52047	0.7099
1151.54776	1.52895	0.70594
1150.04765	1.53709	0.70141
1148.54754	1.54491	0.69663
1147.04742	1.55244	0.69146
1145.54731	1.55955	0.68592
1144.0472	1.56632	0.68014
1142.54709	1.57265	0.674
1141.04698	1.57846	0.66768
1139.54686	1.58388	0.66125
1138.04675	1.58885	0.65467
1136.54664	1.59343	0.64802
1135.04653	1.59761	0.64124
1133.54642	1.60129	0.63435
1132.04631	1.60452	0.6275
1130.54619	1.60736	0.62066
1129.04608	1.60975	0.61382
1127.54597	1.61174	0.60707
1126.04586	1.61331	0.60037
1124.54575	1.61445	0.59384
1123.04563	1.61532	0.5875
1121.54552	1.6158	0.58121
1120.04541	1.61596	0.57516
1118.5453	1.61587	0.56924
1117.04519	1.61535	0.56343
1115.54508	1.61457	0.55794
1114.04496	1.61353	0.5526
1112.54485	1.61221	0.54752
1111.04474	1.61075	0.54266
1109.54463	1.60891	0.53786
1108.04452	1.60681	0.53343
1106.5444	1.6045	0.5292
1105.04429	1.60187	0.52524
1103.54418	1.59915	0.52163
1102.04407	1.59611	0.51814
1100.54396	1.59283	0.51506
1099.04385	1.58943	0.5123
1097.54373	1.58574	0.50979
1096.04362	1.58189	0.50769
1094.54351	1.57781	0.50588
1093.0434	1.57351	0.50451
1091.54329	1.56908	0.50356
1090.04317	1.56437	0.50302
1088.54306	1.55954	0.50306
1087.04295	1.55459	0.50361
1085.54284	1.54944	0.50469
1084.04273	1.54418	0.50651
1082.54262	1.53891	0.50912
1081.0425	1.53377	0.51256
1079.54239	1.52885	0.51684
1078.04228	1.52417	0.52193
1076.54217	1.51987	0.52798
1075.04206	1.51618	0.53499
1073.54194	1.51318	0.54283
1072.04183	1.51104	0.55156
1070.54172	1.51	0.56106
1069.04161	1.5101	0.57107
1067.5415	1.51142	0.58149
1066.04139	1.51397	0.59208
1064.54127	1.51774	0.60278
1063.04116	1.52288	0.61344
1061.54105	1.52925	0.62375
1060.04094	1.53686	0.63371
1058.54083	1.54571	0.64303
1057.04072	1.55552	0.65148
1055.5406	1.56626	0.65918
1054.04049	1.57777	0.66587
1052.54038	1.58997	0.67176
1051.04027	1.60305	0.67676
1049.54016	1.61668	0.68049
1048.04004	1.63093	0.68313
1046.53993	1.64553	0.68421
1045.03982	1.66009	0.68388
1043.53971	1.67466	0.68234
1042.0396	1.68897	0.67945
1040.53949	1.70302	0.67546
1039.03937	1.71671	0.67021
1037.53926	1.7297	0.66371
1036.03915	1.74198	0.6563
1034.53904	1.75345	0.64797
1033.03893	1.76409	0.63892
1031.53881	1.77385	0.62919
1030.0387	1.78258	0.61887
1028.53859	1.79039	0.60825
1027.03848	1.79735	0.59733
1025.53837	1.80329	0.5861
1024.03826	1.80825	0.57481
1022.53814	1.81237	0.56359
1021.03803	1.81566	0.55244
1019.53792	1.81818	0.54144
1018.03781	1.8199	0.53062
1016.5377	1.82092	0.52018
1015.03758	1.82152	0.51012
1013.53747	1.82152	0.50025
1012.03736	1.82098	0.49078
1010.53725	1.82005	0.48173
1009.03714	1.81878	0.47309
1007.53703	1.81731	0.46482
1006.03691	1.81545	0.45679
1004.5368	1.8133	0.44921
1003.03669	1.81112	0.44203
1001.53658	1.8087	0.43507
1000.03647	1.80613	0.42847
998.53635	1.80342	0.42212
997.03624	1.80052	0.41611
995.53613	1.7977	0.41044
994.03602	1.79468	0.40489
992.53591	1.7916	0.39972
991.0358	1.78855	0.39478
989.53568	1.78538	0.39004
988.03557	1.78227	0.38558
986.53546	1.77911	0.38127
985.03535	1.77598	0.37721
983.53524	1.77296	0.37329
982.03512	1.76989	0.36944
980.53501	1.76681	0.36569
979.0349	1.76362	0.36201
977.53479	1.76032	0.35852
976.03468	1.75712	0.35524
974.53457	1.75393	0.352
973.03445	1.75064	0.3488
971.53434	1.74726	0.3457
970.03423	1.7438	0.34273
968.53412	1.74027	0.33991
967.03401	1.7367	0.33721
965.53389	1.73303	0.33463
964.03378	1.72935	0.3322
962.53367	1.72564	0.32987
961.03356	1.72179	0.32761
959.53345	1.71789	0.3255
958.03334	1.71382	0.32347
956.53322	1.70956	0.32165
955.03311	1.70528	0.32009
953.533	1.70093	0.31872
952.03289	1.69659	0.31759
950.53278	1.69221	0.31656
949.03266	1.68766	0.31569
947.53255	1.68307	0.31506
946.03244	1.67828	0.31464
944.53233	1.67347	0.31461
943.03222	1.66882	0.31486
941.53211	1.66403	0.31523
940.03199	1.65916	0.31589
938.53188	1.6542	0.31687
937.03177	1.64927	0.31829
935.53166	1.64453	0.32003
934.03155	1.63971	0.32198
932.53143	1.63487	0.32436
931.03132	1.63014	0.32717
929.53121	1.62551	0.3304
928.0311	1.6211	0.33409
926.53099	1.61687	0.33818
925.03088	1.61287	0.34273
923.53076	1.6092	0.34774
922.03065	1.60585	0.35317
920.53054	1.60287	0.35906
919.03043	1.60035	0.36541
917.53032	1.59837	0.37222
916.0302	1.59704	0.37946
914.53009	1.59641	0.38703
913.02998	1.59654	0.3949
911.52987	1.59752	0.40299
910.02976	1.59936	0.41116
908.52965	1.60208	0.41937
907.02953	1.60579	0.42752
905.52942	1.61042	0.43541
904.02931	1.61599	0.44294
902.5292	1.62237	0.44993
901.02909	1.62942	0.45638
899.52897	1.63731	0.46233
898.02886	1.64594	0.46745
896.52875	1.6551	0.47171
895.02864	1.6648	0.47508
893.52853	1.67482	0.4774
892.02842	1.68509	0.47874
890.5283	1.69547	0.47898
889.02819	1.70576	0.47819
887.52808	1.71602	0.47643
886.02797	1.72596	0.47358
884.52786	1.73549	0.46981
883.02774	1.74456	0.46516
881.52763	1.75295	0.45969
880.02752	1.76077	0.45364
878.52741	1.76793	0.44694
877.0273	1.77437	0.43975
875.52719	1.78006	0.43208
874.02707	1.7848	0.42403
872.52696	1.78874	0.41592
871.02685	1.79197	0.40777
869.52674	1.79449	0.39964
868.02663	1.79646	0.39162
866.52652	1.79785	0.38364
865.0264	1.79862	0.37576
863.52629	1.79885	0.36806
862.02618	1.79857	0.36057
860.52607	1.79781	0.35335
859.02596	1.79665	0.34643
857.52584	1.7951	0.33985
856.02573	1.79342	0.33365
854.52562	1.79154	0.3276
853.02551	1.78923	0.32175
851.5254	1.7867	0.3163
850.02529	1.78407	0.31115
848.52517	1.78124	0.30627
847.02506	1.7783	0.30171
845.52495	1.77528	0.29745
844.02484	1.77232	0.29346
842.52473	1.76927	0.28959
841.02461	1.76602	0.28596
839.5245	1.76289	0.28266
838.02439	1.75982	0.27947
836.52428	1.75669	0.27638
835.02417	1.75348	0.27339
833.52406	1.75005	0.27058
832.02394	1.74667	0.26808
830.52383	1.74331	0.26572
829.02372	1.73992	0.26353
827.52361	1.73656	0.26147
826.0235	1.733	0.25957
824.52338	1.72945	0.25801
823.02327	1.72604	0.2567
821.52316	1.72273	0.25561
820.02305	1.71964	0.25471
818.52294	1.71676	0.25389
817.02283	1.71405	0.25307
815.52271	1.71139	0.25216
814.0226	1.70861	0.25121
812.52249	1.70574	0.25037
811.02238	1.70286	0.24969
809.52227	1.70003	0.24918
808.02215	1.69737	0.24882
806.52204	1.69481	0.24846
805.02193	1.69222	0.24813
803.52182	1.68973	0.24793
802.02171	1.68736	0.24777
800.5216	1.68504	0.2476
799.02148	1.68277	0.24741
797.52137	1.68036	0.2472
796.02126	1.67794	0.24717
794.52115	1.67565	0.24725
793.02104	1.6734	0.24739
791.52092	1.67127	0.24759
790.02081	1.66916	0.24778
788.5207	1.66708	0.24806
787.02059	1.66518	0.2484
785.52048	1.66329	0.24868
784.02037	1.66144	0.24899
782.52025	1.65962	0.2493
781.02014	1.6578	0.24965
779.52003	1.65609	0.25002
778.01992	1.65433	0.25039
776.51981	1.65268	0.25086
775.01969	1.65114	0.25132
773.51958	1.64959	0.25175
772.01947	1.64817	0.2522
770.51936	1.64678	0.25255
769.01925	1.64529	0.25286
767.51914	1.6438	0.25325
766.01902	1.64243	0.25371
764.51891	1.64115	0.2541
763.0188	1.63981	0.2544
761.51869	1.63842	0.25475
760.01858	1.63715	0.25515
758.51846	1.63593	0.25548
757.01835	1.63468	0.25574
755.51824	1.63339	0.25597
754.01813	1.63202	0.25621
752.51802	1.63067	0.25653
751.01791	1.62949	0.25686
749.51779	1.62823	0.25701
748.01768	1.62679	0.25716
746.51757	1.62533	0.25741
745.01746	1.62388	0.25773
743.51735	1.62251	0.2581
742.01723	1.62116	0.25844
740.51712	1.61983	0.25877
739.01701	1.61854	0.25904
737.5169	1.61703	0.25924
736.01679	1.61549	0.25962
734.51668	1.61411	0.26007
733.01656	1.61277	0.26047
731.51645	1.61146	0.2608
730.01634	1.61	0.26105
728.51623	1.60848	0.2614
727.01612	1.60707	0.26177
725.516	1.60555	0.26205
724.01589	1.60393	0.2624
722.51578	1.60237	0.26282
721.01567	1.60083	0.26323
719.51556	1.59925	0.26357
718.01545	1.59746	0.26389
716.51533	1.5956	0.26437
715.01522	1.59378	0.26496
713.51511	1.59203	0.26564
712.015	1.59037	0.26629
710.51489	1.58858	0.26687
709.01477	1.58667	0.26754
707.51466	1.58484	0.26833
706.01455	1.58301	0.26915
704.51444	1.58118	0.27
703.01433	1.5794	0.2709
701.51422	1.57758	0.27177
700.0141	1.57572	0.2727
698.51399	1.5739	0.27368
697.01388	1.57207	0.27465
695.51377	1.57025	0.27567
694.01366	1.5684	0.27664
692.51354	1.56642	0.27763
691.01343	1.56446	0.27872
689.51332	1.56242	0.2798
688.01321	1.56033	0.281
686.5131	1.55826	0.28226
685.01299	1.55608	0.28358
683.51287	1.55396	0.28509
682.01276	1.55197	0.28666
680.51265	1.55005	0.28821
679.01254	1.5481	0.28965
677.51243	1.54584	0.29108
676.01232	1.54362	0.29284
674.5122	1.54163	0.29468
673.01209	1.53961	0.29649
671.51198	1.53788	0.29837
670.01187	1.53631	0.29983
668.51176	1.53353	0.3006
667.01164	1.52994	0.30238
665.51153	1.52748	0.30534
664.01142	1.52565	0.30801
662.51131	1.52373	0.31021
661.0112	1.52159	0.31226
659.51109	1.51917	0.31429
658.01097	1.51647	0.31651
656.51086	1.51384	0.3191
655.01075	1.5114	0.32182
653.51064	1.50892	0.32448
652.01053	1.50635	0.32717
650.51041	1.50364	0.32993
649.0103	1.5008	0.33283
647.51019	1.49788	0.33591
646.01008	1.49483	0.33914
644.50997	1.49164	0.34263
643.00986	1.48851	0.34645
641.50974	1.4854	0.35044
640.00963	1.48221	0.35463
638.50952	1.47899	0.35908
637.00941	1.47572	0.36383
635.5093	1.47256	0.36892
634.00918	1.46939	0.3742
632.50907	1.4661	0.37978
631.00896	1.46284	0.38581
629.50885	1.4596	0.3923
628.00874	1.45667	0.39945
626.50863	1.45415	0.40689
625.00851	1.45157	0.41445
623.5084	1.44916	0.42263
622.00829	1.447	0.43132
620.50818	1.44529	0.44073
619.00807	1.44434	0.45065
617.50795	1.44383	0.46068
616.00784	1.44393	0.47107
614.50773	1.44434	0.48142
613.00762	1.44504	0.49228
611.50751	1.4466	0.50377
610.0074	1.44876	0.51526
608.50728	1.45152	0.52709
607.00717	1.45508	0.53918
605.50706	1.4594	0.55141
604.00695	1.46464	0.56377
602.50684	1.47049	0.57586
601.00672	1.47693	0.5882
599.50661	1.48451	0.60084
598.0065	1.49293	0.6131
596.50639	1.50202	0.62535
595.00628	1.51208	0.63786
593.50617	1.52332	0.65055
592.00605	1.53632	0.66357
590.50594	1.55137	0.67596
589.00583	1.56768	0.68697
587.50572	1.58528	0.69741
586.00561	1.60473	0.70706
584.50549	1.62603	0.71537
583.00538	1.64941	0.72189
581.50527	1.67435	0.72563
580.00516	1.70053	0.72656
578.50505	1.72768	0.72394
577.00494	1.75462	0.71717
575.50482	1.78091	0.7065
574.00471	1.80486	0.69111
572.5046	1.82523	0.67267
571.00449	1.84272	0.65241
569.50438	1.85621	0.63001
568.00426	1.86567	0.60704
566.50415	1.87107	0.58407
565.00404	1.87259	0.56256
563.50393	1.87229	0.54344
562.00382	1.86993	0.52577
560.50371	1.86632	0.5104
559.00359	1.86232	0.49674
557.50348	1.85747	0.48435
556.00337	1.85236	0.4735
554.50326	1.84683	0.46378
553.00315	1.8411	0.45549
551.50303	1.83576	0.44849
550.00292	1.83067	0.44232
548.50281	1.82608	0.43694
547.0027	1.82187	0.43182
545.50259	1.81734	0.42687
544.00248	1.81274	0.42264
542.50236	1.80851	0.41905
541.00225	1.80446	0.4158
539.50214	1.80064	0.41295
538.00203	1.79708	0.41034
536.50192	1.7935	0.40792
535.0018	1.79017	0.40588
533.50169	1.78711	0.40402
532.00158	1.78415	0.40224
530.50147	1.78122	0.40055
529.00136	1.77837	0.39915
527.50125	1.77605	0.39791
526.00113	1.77349	0.39623
524.50102	1.77037	0.39477
523.00091	1.76761	0.39397
521.5008	1.7651	0.39333
520.00069	1.76306	0.39287
518.50057	1.76131	0.392
517.00046	1.75887	0.3907
515.50035	1.75615	0.38976
514.00024	1.75321	0.38915
512.50013	1.75045	0.38916
511.00002	1.74829	0.38943
509.4999	1.74611	0.38958
507.99979	1.74438	0.38986
506.49968	1.74253	0.38969
504.99957	1.74027	0.38958
503.49946	1.73817	0.38975
501.99934	1.73579	0.38985
500.49923	1.73328	0.39036
498.99912	1.73106	0.39121
497.49901	1.72898	0.39219
495.9989	1.72717	0.3933
494.49879	1.72544	0.39431
492.99867	1.72365	0.3953
491.49856	1.72191	0.39638
489.99845	1.72004	0.39738
488.49834	1.71791	0.39857
486.99823	1.71582	0.40017
485.49812	1.71395	0.40205
483.998	1.71235	0.40409
482.49789	1.71083	0.40601
480.99778	1.7089	0.40799
479.49767	1.70725	0.41063
477.99756	1.70583	0.41338
476.49744	1.70448	0.41649
474.99733	1.70412	0.42007
473.49722	1.7043	0.4231
471.99711	1.70424	0.42554
470.497	1.70369	0.42772
468.99689	1.70234	0.43022
467.49677	1.70144	0.43384
465.99666	1.70107	0.4377
464.49655	1.70085	0.44188
462.99644	1.70147	0.44654
461.49633	1.70246	0.45113
459.99621	1.70442	0.45607
458.4961	1.70727	0.46034
456.99599	1.70969	0.46377
455.49588	1.71236	0.46734
453.99577	1.71476	0.47072
452.49566	1.71796	0.4748
450.99554	1.72172	0.47828
449.49543	1.72571	0.48204
447.99532	1.73034	0.48496
446.49521	1.73515	0.48773
444.9951	1.74047	0.49034
443.49498	1.74668	0.49265
441.99487	1.75384	0.49395
440.49476	1.76092	0.49348
438.99465	1.76719	0.4917
437.49454	1.77282	0.48916
435.99443	1.77749	0.48577
434.49431	1.78084	0.48202
432.9942	1.78326	0.47855
431.49409	1.78506	0.4755
429.99398	1.78657	0.473
428.49387	1.78824	0.47091
426.99375	1.78979	0.46873
425.49364	1.79097	0.46667
423.99353	1.79239	0.46501
422.49342	1.79398	0.46313
420.99331	1.79489	0.46092
419.4932	1.7955	0.45925
417.99308	1.79674	0.4581
416.49297	1.79841	0.45664
414.99286	1.79989	0.45456
413.49275	1.80079	0.45217
411.99264	1.80136	0.44995
410.49252	1.802	0.44785
408.99241	1.80238	0.44549
407.4923	1.80222	0.44312
405.99219	1.80193	0.44108
404.49208	1.8016	0.4391
402.99197	1.80101	0.4371
401.49185	1.80019	0.43517
399.99174	1.79883	0.43326
