#SUBSTANCE=Sulphuric acid
#DESCRIPTION=Refractive indices of 58 wt% sulphuric acid from 400 to 7500 cm-1 at 233 K
#TEMPERATURE=233 K
#CONCENTRATION=58 wt%
#DOI=10.1021/jp026576n
#REFERENCE=Spectroscopic Study of Aqueous H2SO4 at Different Temperatures and Compositions:  Variations in Dissociation and Optical Properties
##Cathrine E. Lund Myhre,†, Daniel H. Christensen,‡, Flemming M. Nicolaisen,‡ and, and Claus J. Nielsen*,†
##The Journal of Physical Chemistry A 2003 107 (12), 1979-1991 
#FORMAT=WAVN N K
7498.52083	1.41027	0.01482
7497.02072	1.41021	0.01483
7495.52061	1.41015	0.01484
7494.0205	1.4101	0.01485
7492.52039	1.41006	0.01486
7491.02027	1.41001	0.01485
7489.52016	1.40996	0.01483
7488.02005	1.40993	0.01482
7486.51994	1.40989	0.01481
7485.01983	1.40985	0.01482
7483.51971	1.40981	0.01485
7482.0196	1.40976	0.01491
7480.51949	1.40973	0.01497
7479.01938	1.40971	0.01502
7477.51927	1.40971	0.01507
7476.01916	1.40972	0.01513
7474.51904	1.40973	0.01517
7473.01893	1.40975	0.01522
7471.51882	1.40978	0.01526
7470.01871	1.40982	0.01529
7468.5186	1.40988	0.0153
7467.01848	1.40991	0.0153
7465.51837	1.40994	0.01527
7464.01826	1.40996	0.01525
7462.51815	1.40999	0.01523
7461.01804	1.41002	0.01521
7459.51793	1.41005	0.01519
7458.01781	1.41006	0.01518
7456.5177	1.41005	0.01515
7455.01759	1.41005	0.01513
7453.51748	1.41005	0.01508
7452.01737	1.41004	0.01504
7450.51725	1.41002	0.01499
7449.01714	1.40999	0.01496
7447.51703	1.40995	0.01493
7446.01692	1.40991	0.01493
7444.51681	1.40988	0.01496
7443.0167	1.40985	0.01499
7441.51658	1.40984	0.01505
7440.01647	1.40984	0.0151
7438.51636	1.40986	0.01513
7437.01625	1.40989	0.01516
7435.51614	1.40992	0.01517
7434.01602	1.40995	0.01516
7432.51591	1.40999	0.01512
7431.0158	1.41	0.01506
7429.51569	1.41	0.01499
7428.01558	1.40998	0.01492
7426.51547	1.40994	0.01486
7425.01535	1.4099	0.01482
7423.51524	1.40985	0.01482
7422.01513	1.40979	0.01484
7420.51502	1.40975	0.01488
7419.01491	1.40971	0.01492
7417.51479	1.40969	0.01496
7416.01468	1.40968	0.015
7414.51457	1.40967	0.01504
7413.01446	1.40967	0.01506
7411.51435	1.40968	0.01509
7410.01424	1.40969	0.01511
7408.51412	1.40971	0.01512
7407.01401	1.40972	0.01514
7405.5139	1.40974	0.01516
7404.01379	1.40977	0.01519
7402.51368	1.40981	0.01521
7401.01356	1.40986	0.01522
7399.51345	1.40989	0.01521
7398.01334	1.40991	0.01517
7396.51323	1.40991	0.0151
7395.01312	1.40992	0.01502
7393.51301	1.40991	0.01495
7392.01289	1.40989	0.01491
7390.51278	1.40986	0.01491
7389.01267	1.40983	0.01494
7387.51256	1.40981	0.01499
7386.01245	1.40982	0.01503
7384.51233	1.40984	0.01505
7383.01222	1.40984	0.01504
7381.51211	1.40985	0.01501
7380.012	1.40985	0.01496
7378.51189	1.40984	0.0149
7377.01178	1.40984	0.01485
7375.51166	1.40981	0.01482
7374.01155	1.40977	0.01482
7372.51144	1.40974	0.01483
7371.01133	1.40972	0.01487
7369.51122	1.40971	0.01491
7368.0111	1.40972	0.01495
7366.51099	1.40973	0.01497
7365.01088	1.40974	0.01496
7363.51077	1.40974	0.01492
7362.01066	1.40973	0.01486
7360.51055	1.40971	0.01479
7359.01043	1.40968	0.01474
7357.51032	1.40964	0.01473
7356.01021	1.4096	0.01475
7354.5101	1.40957	0.01482
7353.00999	1.40957	0.01489
7351.50987	1.40957	0.01496
7350.00976	1.4096	0.015
7348.50965	1.40961	0.01499
7347.00954	1.40961	0.01494
7345.50943	1.40961	0.01487
7344.00932	1.4096	0.0148
7342.5092	1.40958	0.01475
7341.00909	1.40956	0.01475
7339.50898	1.40953	0.01478
7338.00887	1.4095	0.01484
7336.50876	1.40948	0.0149
7335.00864	1.40947	0.01493
7333.50853	1.40947	0.01492
7332.00842	1.40946	0.01487
7330.50831	1.40942	0.01481
7329.0082	1.40938	0.01476
7327.50809	1.40933	0.01475
7326.00797	1.40929	0.0148
7324.50786	1.40926	0.01488
7323.00775	1.40924	0.01499
7321.50764	1.40924	0.0151
7320.00753	1.40925	0.01519
7318.50741	1.4093	0.01524
7317.0073	1.40935	0.01525
7315.50719	1.4094	0.01524
7314.00708	1.40944	0.01522
7312.50697	1.40946	0.01519
7311.00686	1.40949	0.01516
7309.50674	1.40951	0.01514
7308.00663	1.40953	0.01514
7306.50652	1.40955	0.01516
7305.00641	1.40956	0.0152
7303.5063	1.40961	0.01523
7302.00619	1.40964	0.01522
7300.50607	1.40968	0.01518
7299.00596	1.40969	0.01511
7297.50585	1.40969	0.01501
7296.00574	1.40967	0.0149
7294.50563	1.40963	0.01483
7293.00551	1.40957	0.0148
7291.5054	1.40952	0.01481
7290.00529	1.40947	0.01486
7288.50518	1.40942	0.01492
7287.00507	1.40939	0.01498
7285.50496	1.40939	0.01504
7284.00484	1.4094	0.01508
7282.50473	1.40943	0.01511
7281.00462	1.40946	0.01514
7279.50451	1.40951	0.01517
7278.0044	1.40956	0.01517
7276.50428	1.40962	0.01515
7275.00417	1.40965	0.01511
7273.50406	1.40965	0.01502
7272.00395	1.40963	0.01493
7270.50384	1.4096	0.01484
7269.00373	1.40956	0.01477
7267.50361	1.4095	0.01474
7266.0035	1.40943	0.01476
7264.50339	1.40937	0.01482
7263.00328	1.40932	0.01491
7261.50317	1.4093	0.015
7260.00305	1.4093	0.01507
7258.50294	1.4093	0.01512
7257.00283	1.40933	0.01516
7255.50272	1.40938	0.01519
7254.00261	1.40945	0.01524
7252.5025	1.40952	0.01527
7251.00238	1.40959	0.0153
7249.50227	1.40964	0.01527
7248.00216	1.40967	0.01521
7246.50205	1.40971	0.01511
7245.00194	1.40974	0.01501
7243.50182	1.40975	0.01493
7242.00171	1.40973	0.01489
7240.5016	1.40972	0.0149
7239.00149	1.4097	0.01494
7237.50138	1.4097	0.01495
7236.00127	1.4097	0.01492
7234.50115	1.40969	0.01486
7233.00104	1.40968	0.0148
7231.50093	1.40967	0.01475
7230.00082	1.40966	0.01474
7228.50071	1.40965	0.01476
7227.00059	1.40965	0.01478
7225.50048	1.40964	0.01478
7224.00037	1.40964	0.01475
7222.50026	1.40962	0.01469
7221.00015	1.40959	0.01462
7219.50004	1.40955	0.01457
7217.99992	1.40952	0.01455
7216.49981	1.4095	0.01456
7214.9997	1.40948	0.01459
7213.49959	1.40946	0.01462
7211.99948	1.40942	0.01464
7210.49936	1.40938	0.01462
7208.99925	1.40935	0.01459
7207.49914	1.40933	0.01455
7205.99903	1.4093	0.01452
7204.49892	1.40925	0.01452
7202.99881	1.40921	0.01456
7201.49869	1.40917	0.01464
7199.99858	1.40916	0.01472
7198.49847	1.40918	0.01481
7196.99836	1.4092	0.01486
7195.49825	1.40923	0.01488
7193.99813	1.40926	0.01487
7192.49802	1.4093	0.01485
7190.99791	1.40933	0.01482
7189.4978	1.40936	0.0148
7187.99769	1.40938	0.01477
7186.49758	1.40937	0.01474
7184.99746	1.40935	0.01469
7183.49735	1.40932	0.01464
7181.99724	1.40929	0.01459
7180.49713	1.40926	0.01458
7178.99702	1.40924	0.01461
7177.4969	1.40921	0.01465
7175.99679	1.4092	0.0147
7174.49668	1.40921	0.01475
7172.99657	1.40922	0.01478
7171.49646	1.40924	0.01477
7169.99635	1.40924	0.01473
7168.49623	1.40924	0.01468
7166.99612	1.40923	0.01464
7165.49601	1.40921	0.01461
7163.9959	1.40919	0.01459
7162.49579	1.40916	0.01459
7160.99567	1.40912	0.01462
7159.49556	1.4091	0.01466
7157.99545	1.40909	0.01471
7156.49534	1.4091	0.01476
7154.99523	1.40913	0.01481
7153.49512	1.40916	0.01483
7151.995	1.40919	0.01482
7150.49489	1.40922	0.01478
7148.99478	1.40923	0.01473
7147.49467	1.40923	0.01466
7145.99456	1.40922	0.01459
7144.49444	1.40919	0.01454
7142.99433	1.40914	0.01451
7141.49422	1.40909	0.01451
7139.99411	1.40905	0.01453
7138.494	1.40901	0.01457
7136.99389	1.40898	0.01461
7135.49377	1.40895	0.01464
7133.99366	1.40893	0.01468
7132.49355	1.40893	0.01471
7130.99344	1.40894	0.01474
7129.49333	1.40895	0.01477
7127.99321	1.40897	0.0148
7126.4931	1.409	0.01482
7124.99299	1.40901	0.01483
7123.49288	1.40902	0.01483
7121.99277	1.40905	0.01481
7120.49266	1.40906	0.01479
7118.99254	1.40907	0.01476
7117.49243	1.40907	0.01474
7115.99232	1.40907	0.01474
7114.49221	1.40908	0.01476
7112.9921	1.40909	0.01479
7111.49198	1.4091	0.01479
7109.99187	1.40911	0.01477
7108.49176	1.40912	0.01474
7106.99165	1.40911	0.01468
7105.49154	1.40911	0.01463
7103.99143	1.40908	0.0146
7102.49131	1.40906	0.01458
7100.9912	1.40903	0.01458
7099.49109	1.409	0.01458
7097.99098	1.40897	0.01459
7096.49087	1.40894	0.01462
7094.99076	1.40893	0.01463
7093.49064	1.40891	0.01466
7091.99053	1.40891	0.01468
7090.49042	1.40892	0.01471
7088.99031	1.40893	0.01472
7087.4902	1.40894	0.01474
7085.99008	1.40894	0.01474
7084.48997	1.40896	0.01474
7082.98986	1.40897	0.01473
7081.48975	1.40898	0.01472
7079.98964	1.40898	0.0147
7078.48953	1.40897	0.01468
7076.98941	1.40897	0.01466
7075.4893	1.40896	0.01466
7073.98919	1.40896	0.01467
7072.48908	1.40895	0.01467
7070.98897	1.40895	0.01469
7069.48885	1.40895	0.0147
7067.98874	1.40895	0.01468
7066.48863	1.40895	0.01466
7064.98852	1.40894	0.01464
7063.48841	1.40892	0.01462
7061.9883	1.40891	0.01461
7060.48818	1.4089	0.01463
7058.98807	1.4089	0.01465
7057.48796	1.4089	0.01469
7055.98785	1.4089	0.01472
7054.48774	1.40891	0.01473
7052.98762	1.40893	0.01473
7051.48751	1.40894	0.01472
7049.9874	1.40896	0.01468
7048.48729	1.40897	0.01465
7046.98718	1.40896	0.01463
7045.48707	1.40896	0.01462
7043.98695	1.40896	0.01462
7042.48684	1.40897	0.01463
7040.98673	1.40898	0.01463
7039.48662	1.40898	0.01462
7037.98651	1.40898	0.0146
7036.48639	1.40897	0.01456
7034.98628	1.40897	0.01453
7033.48617	1.40896	0.01448
7031.98606	1.40894	0.01445
7030.48595	1.40891	0.01441
7028.98584	1.40886	0.0144
7027.48572	1.40883	0.01441
7025.98561	1.4088	0.01443
7024.4855	1.40878	0.01446
7022.98539	1.40875	0.01448
7021.48528	1.40874	0.01451
7019.98516	1.40873	0.01452
7018.48505	1.40873	0.01453
7016.98494	1.40875	0.01455
7015.48483	1.40876	0.01456
7013.98472	1.40877	0.01456
7012.48461	1.40878	0.01455
7010.98449	1.40878	0.01455
7009.48438	1.40879	0.01452
7007.98427	1.40879	0.01449
7006.48416	1.40878	0.01446
7004.98405	1.40878	0.01444
7003.48393	1.40876	0.01444
7001.98382	1.40874	0.01442
7000.48371	1.40872	0.01441
6998.9836	1.40869	0.0144
6997.48349	1.40865	0.01439
6995.98338	1.40862	0.01438
6994.48326	1.40859	0.01438
6992.98315	1.40857	0.01441
6991.48304	1.40855	0.01444
6989.98293	1.40854	0.01448
6988.48282	1.40854	0.01452
6986.9827	1.40854	0.01455
6985.48259	1.40856	0.01457
6983.98248	1.40856	0.01456
6982.48237	1.40857	0.01455
6980.98226	1.40857	0.01453
6979.48215	1.40857	0.01451
6977.98203	1.40856	0.01449
6976.48192	1.40854	0.01449
6974.98181	1.40852	0.01449
6973.4817	1.40851	0.01452
6971.98159	1.4085	0.01455
6970.48147	1.40851	0.0146
6968.98136	1.40852	0.01463
6967.48125	1.40854	0.01465
6965.98114	1.40856	0.01467
6964.48103	1.40859	0.01466
6962.98092	1.40862	0.01464
6961.4808	1.40864	0.01461
6959.98069	1.40865	0.01458
6958.48058	1.40866	0.01455
6956.98047	1.40866	0.01452
6955.48036	1.40866	0.01449
6953.98024	1.40865	0.01448
6952.48013	1.40864	0.01445
6950.98002	1.40861	0.01443
6949.47991	1.40859	0.0144
6947.9798	1.40856	0.01437
6946.47969	1.40853	0.01435
6944.97957	1.40849	0.01434
6943.47946	1.40844	0.01435
6941.97935	1.40841	0.01438
6940.47924	1.4084	0.01442
6938.97913	1.40839	0.01447
6937.47901	1.40839	0.01452
6935.9789	1.4084	0.01455
6934.47879	1.40842	0.01456
6932.97868	1.40843	0.01456
6931.47857	1.40845	0.01454
6929.97846	1.40846	0.0145
6928.47834	1.40846	0.01447
6926.97823	1.40845	0.01445
6925.47812	1.40843	0.01444
6923.97801	1.4084	0.01443
6922.4779	1.40839	0.01445
6920.97778	1.40839	0.01447
6919.47767	1.40838	0.01449
6917.97756	1.40838	0.01452
6916.47745	1.40838	0.01453
6914.97734	1.40839	0.01455
6913.47723	1.40841	0.01455
6911.97711	1.40843	0.01453
6910.477	1.40844	0.0145
6908.97689	1.40843	0.01446
6907.47678	1.40841	0.01443
6905.97667	1.40841	0.01441
6904.47656	1.40838	0.01439
6902.97644	1.40835	0.01438
6901.47633	1.40832	0.01437
6899.97622	1.40828	0.01437
6898.47611	1.40825	0.01438
6896.976	1.40822	0.01441
6895.47588	1.40822	0.01445
6893.97577	1.40821	0.01451
6892.47566	1.40821	0.01457
6890.97555	1.40823	0.01461
6889.47544	1.40825	0.01462
6887.97533	1.40828	0.01461
6886.47521	1.40829	0.0146
6884.9751	1.40831	0.01458
6883.47499	1.40833	0.01457
6881.97488	1.40835	0.01457
6880.47477	1.40837	0.01458
6878.97465	1.40837	0.01458
6877.47454	1.40839	0.01458
6875.97443	1.4084	0.01457
6874.47432	1.40842	0.01454
6872.97421	1.40843	0.01451
6871.4741	1.40844	0.01448
6869.97398	1.40844	0.01445
6868.47387	1.40844	0.01444
6866.97376	1.40845	0.01442
6865.47365	1.40845	0.01439
6863.97354	1.40844	0.01435
6862.47342	1.40843	0.01432
6860.97331	1.4084	0.01427
6859.4732	1.40837	0.01423
6857.97309	1.40833	0.01418
6856.47298	1.40827	0.01415
6854.97287	1.40823	0.01413
6853.47275	1.40816	0.01411
6851.97264	1.4081	0.01412
6850.47253	1.40805	0.01415
6848.97242	1.408	0.01421
6847.47231	1.40797	0.01427
6845.97219	1.40795	0.01432
6844.47208	1.40794	0.01437
6842.97197	1.40793	0.0144
6841.47186	1.40794	0.01443
6839.97175	1.40795	0.01446
6838.47164	1.40795	0.01447
6836.97152	1.40796	0.01449
6835.47141	1.40796	0.01449
6833.9713	1.40798	0.01451
6832.47119	1.40798	0.01451
6830.97108	1.40798	0.01453
6829.47096	1.40799	0.01454
6827.97085	1.40799	0.01457
6826.47074	1.40801	0.01459
6824.97063	1.40803	0.0146
6823.47052	1.40805	0.01462
6821.97041	1.40806	0.01463
6820.47029	1.40809	0.01463
6818.97018	1.40812	0.01463
6817.47007	1.40814	0.01463
6815.96996	1.40817	0.01462
6814.46985	1.40819	0.01459
6812.96973	1.4082	0.01456
6811.46962	1.4082	0.01453
6809.96951	1.4082	0.01449
6808.4694	1.4082	0.01445
6806.96929	1.40819	0.01442
6805.46918	1.40817	0.01441
6803.96906	1.40815	0.01441
6802.46895	1.40814	0.01442
6800.96884	1.40813	0.01442
6799.46873	1.40812	0.01443
6797.96862	1.40812	0.01443
6796.4685	1.40811	0.01441
6794.96839	1.4081	0.01439
6793.46828	1.40808	0.01437
6791.96817	1.40807	0.01436
6790.46806	1.40805	0.01436
6788.96795	1.40803	0.01437
6787.46783	1.40803	0.01439
6785.96772	1.40802	0.01441
6784.46761	1.40802	0.01443
6782.9675	1.40802	0.01444
6781.46739	1.40803	0.01445
6779.96727	1.40804	0.01445
6778.46716	1.40805	0.01444
6776.96705	1.40806	0.01442
6775.46694	1.40805	0.01439
6773.96683	1.40805	0.01438
6772.46672	1.40803	0.01436
6770.9666	1.40803	0.01435
6769.46649	1.40802	0.01435
6767.96638	1.40801	0.01436
6766.46627	1.408	0.01438
6764.96616	1.408	0.01439
6763.46604	1.408	0.01439
6761.96593	1.40801	0.01438
6760.46582	1.40801	0.01437
6758.96571	1.408	0.01434
6757.4656	1.40799	0.01432
6755.96549	1.40798	0.01429
6754.46537	1.40797	0.01429
6752.96526	1.40796	0.0143
6751.46515	1.40795	0.01431
6749.96504	1.40792	0.0143
6748.46493	1.4079	0.01429
6746.96481	1.40788	0.01429
6745.4647	1.40786	0.01428
6743.96459	1.40785	0.01428
6742.46448	1.40783	0.01431
6740.96437	1.40782	0.01434
6739.46426	1.40782	0.01439
6737.96414	1.40782	0.01442
6736.46403	1.40784	0.01444
6734.96392	1.40785	0.01443
6733.46381	1.40785	0.01442
6731.9637	1.40785	0.01439
6730.46358	1.40785	0.01436
6728.96347	1.40784	0.01434
6727.46336	1.40783	0.01434
6725.96325	1.40782	0.01437
6724.46314	1.40781	0.0144
6722.96303	1.40782	0.01445
6721.46291	1.40784	0.01448
6719.9628	1.40786	0.0145
6718.46269	1.40788	0.0145
6716.96258	1.40791	0.01448
6715.46247	1.40793	0.01444
6713.96236	1.40794	0.0144
6712.46224	1.40794	0.01436
6710.96213	1.40793	0.01432
6709.46202	1.4079	0.01428
6707.96191	1.40787	0.01426
6706.4618	1.40784	0.01426
6704.96168	1.4078	0.01428
6703.46157	1.40778	0.01432
6701.96146	1.40776	0.01437
6700.46135	1.40777	0.01443
6698.96124	1.40779	0.01449
6697.46113	1.40782	0.01452
6695.96101	1.40786	0.01454
6694.4609	1.40791	0.01454
6692.96079	1.40795	0.01451
6691.46068	1.40799	0.01447
6689.96057	1.40802	0.01442
6688.46045	1.40804	0.01437
6686.96034	1.40803	0.01431
6685.46023	1.40802	0.01426
6683.96012	1.408	0.01422
6682.46001	1.40797	0.01418
6680.9599	1.40794	0.01416
6679.45978	1.4079	0.01416
6677.95967	1.40787	0.01417
6676.45956	1.40786	0.01421
6674.95945	1.40785	0.01423
6673.45934	1.40785	0.01425
6671.95922	1.40784	0.01426
6670.45911	1.40784	0.01425
6668.959	1.40784	0.01423
6667.45889	1.40784	0.01421
6665.95878	1.40783	0.01419
6664.45867	1.40783	0.01421
6662.95855	1.40783	0.01422
6661.45844	1.40785	0.01427
6659.95833	1.40787	0.0143
6658.45822	1.40789	0.01431
6656.95811	1.40791	0.01429
6655.45799	1.40792	0.01424
6653.95788	1.40793	0.01417
6652.45777	1.40793	0.01409
6650.95766	1.40791	0.01405
6649.45755	1.40789	0.01402
6647.95744	1.40786	0.01404
6646.45732	1.40785	0.01407
6644.95721	1.40783	0.01411
6643.4571	1.40783	0.01413
6641.95699	1.40783	0.01412
6640.45688	1.40784	0.01409
6638.95676	1.40784	0.01406
6637.45665	1.40783	0.01401
6635.95654	1.40783	0.014
6634.45643	1.40782	0.01399
6632.95632	1.40781	0.01399
6631.45621	1.4078	0.014
6629.95609	1.4078	0.014
6628.45598	1.40778	0.01399
6626.95587	1.40777	0.01397
6625.45576	1.40777	0.01394
6623.95565	1.40775	0.0139
6622.45553	1.40773	0.01388
6620.95542	1.4077	0.01387
6619.45531	1.40769	0.01387
6617.9552	1.40767	0.01389
6616.45509	1.40766	0.01391
6614.95498	1.40765	0.01394
6613.45486	1.40766	0.01396
6611.95475	1.40766	0.01395
6610.45464	1.40766	0.01392
6608.95453	1.40765	0.01387
6607.45442	1.40761	0.01381
6605.9543	1.40757	0.01377
6604.45419	1.40753	0.01375
6602.95408	1.4075	0.01377
6601.45397	1.40747	0.01382
6599.95386	1.40745	0.0139
6598.45375	1.40745	0.01399
6596.95363	1.40747	0.01405
6595.45352	1.40751	0.01408
6593.95341	1.40755	0.01408
6592.4533	1.40759	0.01404
6590.95319	1.40761	0.01398
6589.45307	1.40761	0.01391
6587.95296	1.40761	0.01386
6586.45285	1.40759	0.01382
6584.95274	1.40757	0.0138
6583.45263	1.40753	0.01381
6581.95252	1.40752	0.01383
6580.4524	1.40752	0.01388
6578.95229	1.40752	0.01391
6577.45218	1.40754	0.01394
6575.95207	1.40757	0.01394
6574.45196	1.40758	0.01391
6572.95184	1.4076	0.01385
6571.45173	1.40759	0.01376
6569.95162	1.40757	0.01368
6568.45151	1.40752	0.01363
6566.9514	1.40748	0.01362
6565.45129	1.40745	0.01364
6563.95117	1.40743	0.01369
6562.45106	1.40741	0.01375
6560.95095	1.4074	0.0138
6559.45084	1.40742	0.01383
6557.95073	1.40744	0.01383
6556.45061	1.40746	0.01379
6554.9505	1.40747	0.01373
6553.45039	1.40747	0.01368
6551.95028	1.40747	0.01363
6550.45017	1.40745	0.0136
6548.95006	1.40743	0.01359
6547.44994	1.4074	0.01359
6545.94983	1.40737	0.01358
6544.44972	1.40734	0.01358
6542.94961	1.40732	0.01355
6541.4495	1.40728	0.01353
6539.94938	1.40725	0.01352
6538.44927	1.40722	0.01353
6536.94916	1.4072	0.01356
6535.44905	1.40719	0.0136
6533.94894	1.40719	0.01364
6532.44883	1.40719	0.01366
6530.94871	1.40719	0.01366
6529.4486	1.4072	0.01365
6527.94849	1.4072	0.01361
6526.44838	1.4072	0.01359
6524.94827	1.4072	0.01357
6523.44816	1.40718	0.01355
6521.94804	1.40717	0.01354
6520.44793	1.40714	0.01354
6518.94782	1.40712	0.01353
6517.44771	1.4071	0.01353
6515.9476	1.40707	0.01353
6514.44748	1.40706	0.01354
6512.94737	1.40705	0.01356
6511.44726	1.40705	0.01357
6509.94715	1.40704	0.01359
6508.44704	1.40703	0.0136
6506.94693	1.40703	0.01359
6505.44681	1.40702	0.01357
6503.9467	1.40702	0.01355
6502.44659	1.40699	0.01352
6500.94648	1.40697	0.01351
6499.44637	1.40694	0.01351
6497.94625	1.40693	0.01354
6496.44614	1.40691	0.01357
6494.94603	1.40691	0.01361
6493.44592	1.40691	0.01364
6491.94581	1.40692	0.01367
6490.4457	1.40693	0.01369
6488.94558	1.40697	0.01369
6487.44547	1.40699	0.01368
6485.94536	1.40701	0.01366
6484.44525	1.40701	0.01362
6482.94514	1.40702	0.01358
6481.44502	1.40701	0.01354
6479.94491	1.407	0.01351
6478.4448	1.40698	0.01348
6476.94469	1.40696	0.01347
6475.44458	1.40693	0.01348
6473.94447	1.40692	0.01349
6472.44435	1.4069	0.0135
6470.94424	1.4069	0.01351
6469.44413	1.40689	0.01353
6467.94402	1.4069	0.01353
6466.44391	1.40691	0.01352
6464.94379	1.40692	0.0135
6463.44368	1.40692	0.01348
6461.94357	1.40691	0.01344
6460.44346	1.40689	0.01341
6458.94335	1.40686	0.01336
6457.44324	1.40683	0.01333
6455.94312	1.4068	0.01331
6454.44301	1.40677	0.01331
6452.9429	1.40674	0.01332
6451.44279	1.40671	0.01336
6449.94268	1.40669	0.01341
6448.44256	1.40669	0.01343
6446.94245	1.40668	0.01344
6445.44234	1.40668	0.01342
6443.94223	1.40667	0.01339
6442.44212	1.40665	0.01336
6440.94201	1.40662	0.01334
6439.44189	1.40661	0.01334
6437.94178	1.40659	0.01336
6436.44167	1.40657	0.0134
6434.94156	1.40656	0.01344
6433.44145	1.40656	0.01348
6431.94133	1.40657	0.0135
6430.44122	1.40658	0.0135
6428.94111	1.40659	0.01347
6427.441	1.40658	0.01343
6425.94089	1.40658	0.0134
6424.44078	1.40656	0.01337
6422.94066	1.40654	0.01336
6421.44055	1.40651	0.01337
6419.94044	1.40649	0.01339
6418.44033	1.40648	0.01343
6416.94022	1.40647	0.01346
6415.4401	1.40648	0.01349
6413.93999	1.40649	0.01351
6412.43988	1.4065	0.01352
6410.93977	1.40652	0.01352
6409.43966	1.40654	0.0135
6407.93955	1.40656	0.01346
6406.43943	1.40656	0.01342
6404.93932	1.40654	0.01338
6403.43921	1.40652	0.01335
6401.9391	1.4065	0.01333
6400.43899	1.40647	0.01333
6398.93887	1.40645	0.01334
6397.43876	1.40642	0.01336
6395.93865	1.40641	0.01337
6394.43854	1.4064	0.01339
6392.93843	1.4064	0.01341
6391.43832	1.4064	0.01343
6389.9382	1.4064	0.01345
6388.43809	1.40642	0.01345
6386.93798	1.40643	0.01343
6385.43787	1.40643	0.01341
6383.93776	1.40643	0.01339
6382.43764	1.40643	0.01336
6380.93753	1.40642	0.01334
6379.43742	1.40642	0.01334
6377.93731	1.40641	0.01335
6376.4372	1.4064	0.01336
6374.93709	1.40639	0.01335
6373.43697	1.40639	0.01334
6371.93686	1.40638	0.01333
6370.43675	1.40638	0.0133
6368.93664	1.40637	0.01328
6367.43653	1.40634	0.01326
6365.93641	1.40633	0.01325
6364.4363	1.40631	0.01325
6362.93619	1.40628	0.01326
6361.43608	1.40627	0.01326
6359.93597	1.40625	0.01327
6358.43586	1.40623	0.01328
6356.93574	1.40623	0.01329
6355.43563	1.40623	0.01331
6353.93552	1.40624	0.01333
6352.43541	1.40624	0.01335
6350.9353	1.40626	0.01336
6349.43518	1.40627	0.01336
6347.93507	1.40629	0.01335
6346.43496	1.40632	0.01332
6344.93485	1.40632	0.01329
6343.43474	1.40632	0.01326
6341.93463	1.40632	0.01322
6340.43451	1.40632	0.01319
6338.9344	1.40631	0.01316
6337.43429	1.40629	0.01313
6335.93418	1.40626	0.0131
6334.43407	1.40624	0.01308
6332.93395	1.40621	0.01306
6331.43384	1.40619	0.01306
6329.93373	1.40616	0.01305
6328.43362	1.40613	0.01305
6326.93351	1.40611	0.01304
6325.4334	1.40608	0.01303
6323.93328	1.40605	0.01301
6322.43317	1.40601	0.013
6320.93306	1.40597	0.01298
6319.43295	1.40593	0.01299
6317.93284	1.4059	0.01301
6316.43273	1.40586	0.01304
6314.93261	1.40585	0.0131
6313.4325	1.40584	0.01315
6311.93239	1.40584	0.01321
6310.43228	1.40586	0.01325
6308.93217	1.40588	0.01328
6307.43205	1.40591	0.01328
6305.93194	1.40594	0.01327
6304.43183	1.40596	0.01324
6302.93172	1.40598	0.01321
6301.43161	1.40598	0.01317
6299.9315	1.40598	0.01314
6298.43138	1.40598	0.01313
6296.93127	1.40597	0.01311
6295.43116	1.40596	0.01311
6293.93105	1.40595	0.01311
6292.43094	1.40594	0.0131
6290.93082	1.40593	0.01309
6289.43071	1.40592	0.01306
6287.9306	1.40591	0.01305
6286.43049	1.4059	0.01303
6284.93038	1.4059	0.01303
6283.43027	1.40588	0.01303
6281.93015	1.40587	0.01304
6280.43004	1.40587	0.01304
6278.92993	1.40586	0.01302
6277.42982	1.40586	0.01297
6275.92971	1.40584	0.01293
6274.42959	1.4058	0.01289
6272.92948	1.40577	0.01287
6271.42937	1.40574	0.01286
6269.92926	1.40571	0.01287
6268.42915	1.40567	0.01288
6266.92904	1.40563	0.01289
6265.42892	1.4056	0.01291
6263.92881	1.40557	0.01291
6262.4287	1.40555	0.01294
6260.92859	1.40553	0.01296
6259.42848	1.40552	0.01299
6257.92836	1.40551	0.01302
6256.42825	1.40551	0.01304
6254.92814	1.40551	0.01306
6253.42803	1.40551	0.01306
6251.92792	1.40552	0.01307
6250.42781	1.40552	0.01308
6248.92769	1.40554	0.01309
6247.42758	1.40555	0.01309
6245.92747	1.40556	0.01309
6244.42736	1.40556	0.01309
6242.92725	1.40557	0.01308
6241.42713	1.40558	0.01307
6239.92702	1.40558	0.01304
6238.42691	1.40557	0.01301
6236.9268	1.40556	0.013
6235.42669	1.40554	0.01297
6233.92658	1.40554	0.01297
6232.42646	1.40552	0.01296
6230.92635	1.40549	0.01298
6229.42624	1.40549	0.013
6227.92613	1.40549	0.01303
6226.42602	1.40551	0.01304
6224.9259	1.40552	0.01305
6223.42579	1.40553	0.01304
6221.92568	1.40553	0.01301
6220.42557	1.40553	0.01296
6218.92546	1.40553	0.01292
6217.42535	1.40552	0.01289
6215.92523	1.40549	0.01286
6214.42512	1.40546	0.01285
6212.92501	1.40544	0.01286
6211.4249	1.40543	0.01288
6209.92479	1.40543	0.01291
6208.42467	1.40543	0.01294
6206.92456	1.40543	0.01295
6205.42445	1.40544	0.01295
6203.92434	1.40545	0.01292
6202.42423	1.40545	0.01287
6200.92412	1.40545	0.01281
6199.424	1.40543	0.01277
6197.92389	1.4054	0.01274
6196.42378	1.40538	0.01274
6194.92367	1.40535	0.01276
6193.42356	1.40534	0.01278
6191.92344	1.40532	0.0128
6190.42333	1.40532	0.01281
6188.92322	1.40531	0.0128
6187.42311	1.40531	0.01279
6185.923	1.40531	0.01276
6184.42289	1.40529	0.01273
6182.92277	1.40528	0.01271
6181.42266	1.40526	0.01269
6179.92255	1.40524	0.01268
6178.42244	1.40522	0.01267
6176.92233	1.40521	0.01268
6175.42221	1.40518	0.01268
6173.9221	1.40516	0.01269
6172.42199	1.40515	0.01269
6170.92188	1.40513	0.01268
6169.42177	1.40512	0.01267
6167.92166	1.4051	0.01264
6166.42154	1.40508	0.01263
6164.92143	1.40505	0.01263
6163.42132	1.40504	0.01264
6161.92121	1.40502	0.01266
6160.4211	1.405	0.01269
6158.92098	1.405	0.01271
6157.42087	1.40499	0.01272
6155.92076	1.40498	0.01272
6154.42065	1.40498	0.01271
6152.92054	1.40498	0.0127
6151.42043	1.40497	0.01269
6149.92031	1.40497	0.0127
6148.4202	1.40496	0.01271
6146.92009	1.40497	0.01273
6145.41998	1.40497	0.01274
6143.91987	1.40498	0.01274
6142.41975	1.40499	0.01274
6140.91964	1.40499	0.01271
6139.41953	1.405	0.01268
6137.91942	1.405	0.01265
6136.41931	1.405	0.01262
6134.9192	1.40498	0.0126
6133.41908	1.40496	0.01258
6131.91897	1.40495	0.01257
6130.41886	1.40493	0.01256
6128.91875	1.40491	0.01255
6127.41864	1.40488	0.01254
6125.91853	1.40487	0.01253
6124.41841	1.40485	0.01252
6122.9183	1.40484	0.01252
6121.41819	1.40482	0.01252
6119.91808	1.4048	0.01252
6118.41797	1.40479	0.01252
6116.91785	1.40477	0.01251
6115.41774	1.40476	0.0125
6113.91763	1.40473	0.01248
6112.41752	1.40471	0.01248
6110.91741	1.40469	0.01248
6109.4173	1.40468	0.01249
6107.91718	1.40466	0.01251
6106.41707	1.40466	0.01254
6104.91696	1.40465	0.01256
6103.41685	1.40465	0.01257
6101.91674	1.40465	0.01256
6100.41662	1.40466	0.01254
6098.91651	1.40466	0.01252
6097.4164	1.40466	0.0125
6095.91629	1.40465	0.01249
6094.41618	1.40464	0.01249
6092.91607	1.40462	0.01248
6091.41595	1.40462	0.01248
6089.91584	1.4046	0.01246
6088.41573	1.40459	0.01245
6086.91562	1.40457	0.01243
6085.41551	1.40455	0.01242
6083.91539	1.40453	0.01242
6082.41528	1.40452	0.01243
6080.91517	1.4045	0.01245
6079.41506	1.40449	0.01247
6077.91495	1.40449	0.01247
6076.41484	1.40449	0.01248
6074.91472	1.4045	0.0125
6073.41461	1.40452	0.01251
6071.9145	1.40453	0.01252
6070.41439	1.40456	0.01251
6068.91428	1.40458	0.01249
6067.41416	1.4046	0.01246
6065.91405	1.40462	0.01241
6064.41394	1.40462	0.01236
6062.91383	1.40461	0.0123
6061.41372	1.4046	0.01225
6059.91361	1.40456	0.01219
6058.41349	1.40453	0.01213
6056.91338	1.40447	0.01208
6055.41327	1.40442	0.01206
6053.91316	1.40436	0.01205
6052.41305	1.4043	0.01206
6050.91293	1.40426	0.01209
6049.41282	1.40422	0.01212
6047.91271	1.40418	0.01214
6046.4126	1.40416	0.01217
6044.91249	1.40414	0.01217
6043.41238	1.40412	0.01219
6041.91226	1.40412	0.01219
6040.41215	1.40411	0.01222
6038.91204	1.4041	0.01224
6037.41193	1.40411	0.01226
6035.91182	1.40412	0.01229
6034.4117	1.40414	0.0123
6032.91159	1.40416	0.0123
6031.41148	1.40417	0.01229
6029.91137	1.40418	0.01225
6028.41126	1.40418	0.01222
6026.91115	1.40419	0.01216
6025.41103	1.40417	0.01211
6023.91092	1.40416	0.01208
6022.41081	1.40413	0.01205
6020.9107	1.40409	0.01204
6019.41059	1.40406	0.01204
6017.91047	1.40404	0.01203
6016.41036	1.40402	0.01203
6014.91025	1.404	0.01203
6013.41014	1.40397	0.01202
6011.91003	1.40394	0.01201
6010.40992	1.40393	0.012
6008.9098	1.40391	0.01199
6007.40969	1.40389	0.01197
6005.90958	1.40385	0.01195
6004.40947	1.40381	0.01194
6002.90936	1.40377	0.01193
6001.40924	1.40373	0.01193
5999.90913	1.4037	0.01194
5998.40902	1.40367	0.01197
5996.90891	1.40366	0.012
5995.4088	1.40364	0.01203
5993.90869	1.40363	0.01206
5992.40857	1.40362	0.01209
5990.90846	1.40363	0.01209
5989.40835	1.40364	0.01208
5987.90824	1.40364	0.01207
5986.40813	1.40363	0.01204
5984.90801	1.4036	0.01202
5983.4079	1.40359	0.01201
5981.90779	1.40357	0.01201
5980.40768	1.40356	0.01202
5978.90757	1.40354	0.01203
5977.40746	1.40353	0.01204
5975.90734	1.40351	0.01206
5974.40723	1.40351	0.01207
5972.90712	1.40351	0.01208
5971.40701	1.40351	0.01208
5969.9069	1.40351	0.01207
5968.40678	1.40351	0.01207
5966.90667	1.40351	0.01206
5965.40656	1.40352	0.01205
5963.90645	1.40352	0.01204
5962.40634	1.40352	0.01202
5960.90623	1.40351	0.012
5959.40611	1.4035	0.01197
5957.906	1.40348	0.01193
5956.40589	1.40345	0.0119
5954.90578	1.40342	0.01186
5953.40567	1.40337	0.01185
5951.90555	1.40333	0.01185
5950.40544	1.4033	0.01186
5948.90533	1.40326	0.01189
5947.40522	1.40323	0.01192
5945.90511	1.40321	0.01195
5944.405	1.4032	0.01197
5942.90488	1.4032	0.012
5941.40477	1.40322	0.01203
5939.90466	1.40322	0.01205
5938.40455	1.40325	0.01207
5936.90444	1.40327	0.01207
5935.40433	1.4033	0.01205
5933.90421	1.40332	0.01202
5932.4041	1.40333	0.01197
5930.90399	1.40333	0.01191
5929.40388	1.40333	0.01188
5927.90377	1.40332	0.01184
5926.40365	1.4033	0.01181
5924.90354	1.40327	0.01178
5923.40343	1.40324	0.01175
5921.90332	1.4032	0.01171
5920.40321	1.40315	0.01166
5918.9031	1.40311	0.01162
5917.40298	1.40305	0.0116
5915.90287	1.40299	0.0116
5914.40276	1.40294	0.01162
5912.90265	1.40289	0.01166
5911.40254	1.40285	0.01171
5909.90242	1.40282	0.01174
5908.40231	1.4028	0.01177
5906.9022	1.40279	0.0118
5905.40209	1.40279	0.01183
5903.90198	1.4028	0.01186
5902.40187	1.40281	0.01187
5900.90175	1.40282	0.01188
5899.40164	1.40283	0.01186
5897.90153	1.40283	0.01183
5896.40142	1.40282	0.0118
5894.90131	1.40281	0.01177
5893.40119	1.40278	0.01175
5891.90108	1.40276	0.01175
5890.40097	1.40274	0.01176
5888.90086	1.40272	0.01177
5887.40075	1.4027	0.0118
5885.90064	1.40269	0.01181
5884.40052	1.40269	0.01182
5882.90041	1.40269	0.01182
5881.4003	1.40269	0.01182
5879.90019	1.40269	0.01182
5878.40008	1.40268	0.0118
5876.89996	1.40267	0.01178
5875.39985	1.40267	0.01176
5873.89974	1.40265	0.01174
5872.39963	1.40264	0.01173
5870.89952	1.40262	0.01172
5869.39941	1.40261	0.01173
5867.89929	1.40259	0.01175
5866.39918	1.40259	0.01176
5864.89907	1.40259	0.01175
5863.39896	1.40259	0.01174
5861.89885	1.40259	0.01173
5860.39873	1.40258	0.0117
5858.89862	1.40258	0.01168
5857.39851	1.40256	0.01165
5855.8984	1.40254	0.01162
5854.39829	1.40252	0.01159
5852.89818	1.40248	0.01157
5851.39806	1.40245	0.01155
5849.89795	1.40242	0.01155
5848.39784	1.40239	0.01155
5846.89773	1.40236	0.01157
5845.39762	1.40234	0.01158
5843.8975	1.40232	0.01159
5842.39739	1.4023	0.01159
5840.89728	1.40228	0.01158
5839.39717	1.40226	0.01156
5837.89706	1.40225	0.01155
5836.39695	1.40222	0.01155
5834.89683	1.40221	0.01156
5833.39672	1.40219	0.01159
5831.89661	1.40218	0.0116
5830.3965	1.40218	0.01163
5828.89639	1.40218	0.01163
5827.39627	1.40219	0.01163
5825.89616	1.40218	0.0116
5824.39605	1.40217	0.01156
5822.89594	1.40215	0.01151
5821.39583	1.40213	0.01146
5819.89572	1.4021	0.01144
5818.3956	1.40205	0.01144
5816.89549	1.40201	0.01145
5815.39538	1.40197	0.01148
5813.89527	1.40195	0.01151
5812.39516	1.40192	0.01153
5810.89504	1.4019	0.01153
5809.39493	1.40187	0.01153
5807.89482	1.40185	0.01153
5806.39471	1.40183	0.01153
5804.8946	1.40183	0.01155
5803.39449	1.40182	0.01159
5801.89437	1.40183	0.01163
5800.39426	1.40184	0.01168
5798.89415	1.40186	0.0117
5797.39404	1.40188	0.0117
5795.89393	1.40191	0.01167
5794.39381	1.40192	0.01162
5792.8937	1.40193	0.01156
5791.39359	1.40192	0.01151
5789.89348	1.40189	0.01146
5788.39337	1.40187	0.01143
5786.89326	1.40184	0.01143
5785.39314	1.40181	0.01143
5783.89303	1.40178	0.01143
5782.39292	1.40175	0.01143
5780.89281	1.40172	0.01143
5779.3927	1.4017	0.01142
5777.89258	1.40169	0.01141
5776.39247	1.40166	0.0114
5774.89236	1.40163	0.0114
5773.39225	1.40162	0.01141
5771.89214	1.4016	0.0114
5770.39203	1.40158	0.0114
5768.89191	1.40156	0.0114
5767.3918	1.40154	0.0114
5765.89169	1.40151	0.01139
5764.39158	1.40149	0.01139
5762.89147	1.40147	0.0114
5761.39135	1.40144	0.01142
5759.89124	1.40143	0.01142
5758.39113	1.40142	0.01144
5756.89102	1.40141	0.01144
5755.39091	1.40141	0.01146
5753.8908	1.40141	0.01147
5752.39068	1.40141	0.01149
5750.89057	1.40141	0.0115
5749.39046	1.40142	0.01149
5747.89035	1.40143	0.01148
5746.39024	1.40143	0.01145
5744.89013	1.40143	0.01142
5743.39001	1.40143	0.01139
5741.8899	1.40143	0.01138
5740.38979	1.40143	0.01138
5738.88968	1.40143	0.01138
5737.38957	1.40143	0.01137
5735.88945	1.40142	0.01133
5734.38934	1.4014	0.01127
5732.88923	1.40136	0.01119
5731.38912	1.40132	0.01111
5729.88901	1.40125	0.01106
5728.3889	1.40118	0.01103
5726.88878	1.40112	0.01105
5725.38867	1.40106	0.01109
5723.88856	1.40101	0.01116
5722.38845	1.40098	0.01123
5720.88834	1.40096	0.01128
5719.38822	1.40096	0.01133
5717.88811	1.40098	0.01135
5716.388	1.401	0.01135
5714.88789	1.40102	0.01133
5713.38778	1.40102	0.01131
5711.88767	1.40102	0.01128
5710.38755	1.40101	0.01124
5708.88744	1.40099	0.01121
5707.38733	1.40097	0.01118
5705.88722	1.40095	0.01117
5704.38711	1.40092	0.01118
5702.88699	1.40089	0.01119
5701.38688	1.40087	0.01121
5699.88677	1.40086	0.01122
5698.38666	1.40086	0.01122
5696.88655	1.40085	0.01122
5695.38644	1.40084	0.0112
5693.88632	1.40083	0.01118
5692.38621	1.40081	0.01115
5690.8861	1.40079	0.01113
5689.38599	1.40078	0.01111
5687.88588	1.40075	0.01109
5686.38576	1.4007	0.01108
5684.88565	1.40067	0.01108
5683.38554	1.40064	0.01108
5681.88543	1.40062	0.01109
5680.38532	1.4006	0.0111
5678.88521	1.40058	0.01112
5677.38509	1.40055	0.01113
5675.88498	1.40054	0.01113
5674.38487	1.40052	0.01113
5672.88476	1.40051	0.01112
5671.38465	1.40048	0.0111
5669.88453	1.40046	0.0111
5668.38442	1.40044	0.01111
5666.88431	1.40043	0.01113
5665.3842	1.40041	0.01117
5663.88409	1.40042	0.01121
5662.38398	1.40042	0.01124
5660.88386	1.40044	0.01125
5659.38375	1.40046	0.01124
5657.88364	1.40047	0.0112
5656.38353	1.40046	0.01114
5654.88342	1.40045	0.01109
5653.3833	1.40043	0.01105
5651.88319	1.40042	0.01103
5650.38308	1.4004	0.01103
5648.88297	1.40037	0.01103
5647.38286	1.40035	0.01106
5645.88275	1.40033	0.01106
5644.38263	1.40032	0.01104
5642.88252	1.4003	0.01101
5641.38241	1.40027	0.01096
5639.8823	1.40023	0.01092
5638.38219	1.4002	0.0109
5636.88207	1.40016	0.01091
5635.38196	1.40013	0.01092
5633.88185	1.40009	0.01096
5632.38174	1.40008	0.01101
5630.88163	1.40007	0.01104
5629.38152	1.40007	0.01106
5627.8814	1.40008	0.01106
5626.38129	1.40009	0.01106
5624.88118	1.40009	0.01103
5623.38107	1.40009	0.01101
5621.88096	1.40009	0.01096
5620.38084	1.40006	0.01093
5618.88073	1.40004	0.01089
5617.38062	1.40001	0.01087
5615.88051	1.39998	0.01086
5614.3804	1.39995	0.01087
5612.88029	1.39992	0.01089
5611.38017	1.3999	0.0109
5609.88006	1.39988	0.01091
5608.37995	1.39987	0.01091
5606.87984	1.39987	0.01091
5605.37973	1.39987	0.01091
5603.87961	1.39986	0.01089
5602.3795	1.39985	0.01087
5600.87939	1.39984	0.01085
5599.37928	1.39982	0.01082
5597.87917	1.3998	0.01078
5596.37906	1.39976	0.01075
5594.87894	1.39972	0.01073
5593.37883	1.39969	0.01072
5591.87872	1.39965	0.01073
5590.37861	1.39963	0.01075
5588.8785	1.3996	0.01078
5587.37838	1.39957	0.01078
5585.87827	1.39955	0.01078
5584.37816	1.39954	0.01077
5582.87805	1.39952	0.01075
5581.37794	1.3995	0.01074
5579.87783	1.39946	0.01073
5578.37771	1.39944	0.01073
5576.8776	1.39942	0.01075
5575.37749	1.39941	0.01075
5573.87738	1.39939	0.01077
5572.37727	1.39937	0.01078
5570.87715	1.39936	0.01079
5569.37704	1.39935	0.01078
5567.87693	1.39935	0.01078
5566.37682	1.39934	0.01076
5564.87671	1.39934	0.01075
5563.3766	1.39931	0.01073
5561.87648	1.3993	0.0107
5560.37637	1.39927	0.0107
5558.87626	1.39924	0.01069
5557.37615	1.39922	0.01069
5555.87604	1.3992	0.01068
5554.37592	1.39918	0.01068
5552.87581	1.39915	0.01069
5551.3757	1.39913	0.01069
5549.87559	1.39911	0.0107
5548.37548	1.39911	0.01071
5546.87537	1.39909	0.01071
5545.37525	1.39907	0.01069
5543.87514	1.39906	0.01068
5542.37503	1.39904	0.01067
5540.87492	1.39903	0.01067
5539.37481	1.39901	0.01067
5537.8747	1.399	0.01067
5536.37458	1.39898	0.01068
5534.87447	1.39897	0.01069
5533.37436	1.39896	0.01068
5531.87425	1.39895	0.01065
5530.37414	1.39894	0.01064
5528.87402	1.39892	0.01062
5527.37391	1.3989	0.01061
5525.8738	1.39888	0.01061
5524.37369	1.39887	0.01061
5522.87358	1.39884	0.01061
5521.37347	1.39882	0.0106
5519.87335	1.3988	0.01059
5518.37324	1.39877	0.01058
5516.87313	1.39876	0.01058
5515.37302	1.39875	0.01059
5513.87291	1.39874	0.01061
5512.37279	1.39874	0.01064
5510.87268	1.39875	0.01065
5509.37257	1.39876	0.01065
5507.87246	1.39877	0.01063
5506.37235	1.39879	0.01059
5504.87224	1.39879	0.01054
5503.37212	1.39878	0.01049
5501.87201	1.39876	0.01042
5500.3719	1.39872	0.01036
5498.87179	1.39868	0.01032
5497.37168	1.39863	0.01028
5495.87156	1.39856	0.01025
5494.37145	1.3985	0.01025
5492.87134	1.39845	0.01026
5491.37123	1.39839	0.01029
5489.87112	1.39835	0.01033
5488.37101	1.39833	0.01037
5486.87089	1.39833	0.01042
5485.37078	1.39834	0.01045
5483.87067	1.39834	0.01046
5482.37056	1.39834	0.01045
5480.87045	1.39835	0.01043
5479.37033	1.39836	0.01039
5477.87022	1.39837	0.01034
5476.37011	1.39835	0.01029
5474.87	1.39832	0.01025
5473.36989	1.3983	0.01023
5471.86978	1.39826	0.01022
5470.36966	1.39824	0.01021
5468.86955	1.3982	0.01018
5467.36944	1.39815	0.01015
5465.86933	1.39809	0.0101
5464.36922	1.39803	0.01006
5462.8691	1.39798	0.01004
5461.36899	1.39791	0.01004
5459.86888	1.39786	0.0101
5458.36877	1.39782	0.01017
5456.86866	1.39781	0.01023
5455.36855	1.39779	0.01029
5453.86843	1.39778	0.01031
5452.36832	1.39778	0.01029
5450.86821	1.39777	0.01026
5449.3681	1.39776	0.01022
5447.86799	1.39775	0.0102
5446.36787	1.39774	0.01021
5444.86776	1.39772	0.01025
5443.36765	1.39772	0.01029
5441.86754	1.39772	0.01031
5440.36743	1.39772	0.01032
5438.86732	1.39772	0.0103
5437.3672	1.39771	0.01025
5435.86709	1.3977	0.01018
5434.36698	1.39767	0.01013
5432.86687	1.39764	0.0101
5431.36676	1.3976	0.0101
5429.86664	1.39757	0.01011
5428.36653	1.39753	0.01014
5426.86642	1.39751	0.01018
5425.36631	1.39751	0.01023
5423.8662	1.39753	0.01025
5422.36609	1.39755	0.01025
5420.86597	1.39756	0.01022
5419.36586	1.39756	0.01017
5417.86575	1.39755	0.01009
5416.36564	1.39752	0.01
5414.86553	1.39748	0.00992
5413.36541	1.39742	0.00987
5411.8653	1.39735	0.00986
5410.36519	1.39729	0.00989
5408.86508	1.39725	0.00995
5407.36497	1.39722	0.01001
5405.86486	1.39722	0.01008
5404.36474	1.39722	0.01012
5402.86463	1.39723	0.01011
5401.36452	1.39724	0.01007
5399.86441	1.39725	0.01002
5398.3643	1.39726	0.00996
5396.86418	1.39726	0.0099
5395.36407	1.39723	0.00985
5393.86396	1.39718	0.00982
5392.36385	1.39712	0.0098
5390.86374	1.39708	0.00977
5389.36363	1.39704	0.00975
5387.86351	1.397	0.00973
5386.3634	1.39695	0.00972
5384.86329	1.39689	0.00973
5383.36318	1.39685	0.00975
5381.86307	1.39682	0.00976
5380.36295	1.3968	0.00977
5378.86284	1.39677	0.00976
5377.36273	1.39673	0.00972
5375.86262	1.39667	0.0097
5374.36251	1.39663	0.00969
5372.8624	1.3966	0.0097
5371.36228	1.39656	0.00973
5369.86217	1.39652	0.00976
5368.36206	1.39648	0.00979
5366.86195	1.39646	0.00981
5365.36184	1.39645	0.00983
5363.86172	1.39645	0.00985
5362.36161	1.39644	0.00987
5360.8615	1.39644	0.00989
5359.36139	1.39644	0.0099
5357.86128	1.39645	0.00989
5356.36117	1.39647	0.00987
5354.86105	1.39648	0.00985
5353.36094	1.39646	0.00982
5351.86083	1.39644	0.00978
5350.36072	1.39643	0.00975
5348.86061	1.39643	0.00973
5347.3605	1.39642	0.0097
5345.86038	1.39638	0.00966
5344.36027	1.39633	0.00963
5342.86016	1.39629	0.00961
5341.36005	1.39628	0.0096
5339.85994	1.39626	0.00958
5338.35982	1.39622	0.00957
5336.85971	1.39618	0.00955
5335.3596	1.39613	0.00954
5333.85949	1.39609	0.0095
5332.35938	1.39605	0.00947
5330.85927	1.39601	0.00945
5329.35915	1.39595	0.00944
5327.85904	1.3959	0.00945
5326.35893	1.39585	0.00947
5324.85882	1.39582	0.00952
5323.35871	1.3958	0.00956
5321.85859	1.39579	0.00957
5320.35848	1.39578	0.00959
5318.85837	1.39578	0.00958
5317.35826	1.39577	0.00956
5315.85815	1.39576	0.00953
5314.35804	1.39575	0.0095
5312.85792	1.39572	0.00945
5311.35781	1.39569	0.0094
5309.8577	1.39565	0.00936
5308.35759	1.39559	0.00934
5306.85748	1.39552	0.00932
5305.35736	1.39546	0.00932
5303.85725	1.39542	0.00934
5302.35714	1.39538	0.00936
5300.85703	1.39535	0.00939
5299.35692	1.39532	0.00943
5297.85681	1.39528	0.00944
5296.35669	1.39526	0.00945
5294.85658	1.39525	0.00944
5293.35647	1.39523	0.00942
5291.85636	1.39521	0.00939
5290.35625	1.39517	0.00936
5288.85613	1.39511	0.00934
5287.35602	1.39506	0.00934
5285.85591	1.39503	0.00936
5284.3558	1.39498	0.00937
5282.85569	1.39494	0.0094
5281.35558	1.39491	0.00943
5279.85546	1.39488	0.00946
5278.35535	1.39486	0.00949
5276.85524	1.39487	0.00952
5275.35513	1.39488	0.00954
5273.85502	1.39489	0.00955
5272.3549	1.39488	0.00954
5270.85479	1.39487	0.0095
5269.35468	1.39485	0.00944
5267.85457	1.39482	0.00938
5266.35446	1.3948	0.00933
5264.85435	1.39476	0.00931
5263.35423	1.3947	0.00932
5261.85412	1.39465	0.00936
5260.35401	1.39462	0.00941
5258.8539	1.3946	0.00944
5257.35379	1.39459	0.00945
5255.85367	1.39457	0.00942
5254.35356	1.39453	0.00939
5252.85345	1.3945	0.00937
5251.35334	1.39447	0.00935
5249.85323	1.39445	0.00935
5248.35312	1.39442	0.00936
5246.853	1.39438	0.00937
5245.35289	1.39434	0.0094
5243.85278	1.39432	0.00942
5242.35267	1.3943	0.00944
5240.85256	1.3943	0.00945
5239.35244	1.3943	0.00947
5237.85233	1.39429	0.00945
5236.35222	1.39429	0.00944
5234.85211	1.39427	0.00942
5233.352	1.39426	0.00939
5231.85189	1.39424	0.00935
5230.35177	1.3942	0.00934
5228.85166	1.39417	0.00932
5227.35155	1.39414	0.00931
5225.85144	1.3941	0.00931
5224.35133	1.39406	0.00931
5222.85121	1.39404	0.00934
5221.3511	1.39404	0.00937
5219.85099	1.39405	0.00941
5218.35088	1.39408	0.00945
5216.85077	1.3941	0.00946
5215.35066	1.39412	0.00943
5213.85054	1.39413	0.00936
5212.35043	1.39414	0.00925
5210.85032	1.39412	0.00912
5209.35021	1.39407	0.00899
5207.8501	1.39398	0.00889
5206.34998	1.39388	0.00882
5204.84987	1.39378	0.00881
5203.34976	1.39369	0.00884
5201.84965	1.39362	0.00889
5200.34954	1.39354	0.00893
5198.84943	1.39346	0.00898
5197.34931	1.3934	0.009
5195.8492	1.39337	0.009
5194.34909	1.39332	0.00898
5192.84898	1.39326	0.00896
5191.34887	1.39319	0.00894
5189.84875	1.39312	0.00897
5188.34864	1.39306	0.00902
5186.84853	1.39303	0.00911
5185.34842	1.39302	0.00921
5183.84831	1.39302	0.00931
5182.3482	1.39304	0.00939
5180.84808	1.39308	0.00943
5179.34797	1.39313	0.00941
5177.84786	1.39317	0.00935
5176.34775	1.39318	0.00927
5174.84764	1.39317	0.00918
5173.34752	1.39313	0.00907
5171.84741	1.39307	0.00899
5170.3473	1.39299	0.00893
5168.84719	1.39288	0.00891
5167.34708	1.39279	0.00892
5165.84697	1.3927	0.00897
5164.34685	1.39262	0.00905
5162.84674	1.39256	0.00914
5161.34663	1.39253	0.00923
5159.84652	1.39251	0.00932
5158.34641	1.39252	0.00937
5156.8463	1.39253	0.00941
5155.34618	1.39256	0.00944
5153.84607	1.39259	0.00946
5152.34596	1.39262	0.00946
5150.84585	1.39264	0.00944
5149.34574	1.39264	0.00942
5147.84562	1.39265	0.00938
5146.34551	1.39265	0.00934
5144.8454	1.39263	0.00929
5143.34529	1.3926	0.00926
5141.84518	1.39257	0.00925
5140.34507	1.39254	0.00927
5138.84495	1.39252	0.00929
5137.34484	1.39251	0.00932
5135.84473	1.39251	0.00933
5134.34462	1.39249	0.00932
5132.84451	1.39249	0.0093
5131.34439	1.39248	0.00928
5129.84428	1.39248	0.00925
5128.34417	1.39247	0.00922
5126.84406	1.39246	0.0092
5125.34395	1.39244	0.00919
5123.84384	1.39242	0.00918
5122.34372	1.39241	0.00917
5120.84361	1.3924	0.00915
5119.3435	1.39238	0.00912
5117.84339	1.39235	0.00908
5116.34328	1.39231	0.00902
5114.84316	1.39227	0.00898
5113.34305	1.39223	0.00894
5111.84294	1.39217	0.00892
5110.34283	1.39212	0.00892
5108.84272	1.39206	0.00895
5107.34261	1.39202	0.00898
5105.84249	1.39199	0.009
5104.34238	1.39198	0.00902
5102.84227	1.39196	0.00903
5101.34216	1.39194	0.00903
5099.84205	1.39193	0.00901
5098.34193	1.39192	0.00901
5096.84182	1.39191	0.00899
5095.34171	1.39189	0.00897
5093.8416	1.39187	0.00895
5092.34149	1.39184	0.00893
5090.84138	1.39183	0.00893
5089.34126	1.39182	0.00894
5087.84115	1.39182	0.00894
5086.34104	1.39182	0.00895
5084.84093	1.39182	0.00895
5083.34082	1.39182	0.00891
5081.8407	1.39182	0.00884
5080.34059	1.3918	0.00876
5078.84048	1.39176	0.00866
5077.34037	1.3917	0.00857
5075.84026	1.39163	0.00849
5074.34015	1.39155	0.00846
5072.84003	1.39146	0.00844
5071.33992	1.39137	0.00845
5069.83981	1.39129	0.00849
5068.3397	1.39124	0.00855
5066.83959	1.3912	0.0086
5065.33947	1.39119	0.00865
5063.83936	1.39117	0.00867
5062.33925	1.39116	0.00868
5060.83914	1.39116	0.00865
5059.33903	1.39114	0.0086
5057.83892	1.39112	0.00853
5056.3388	1.39107	0.00845
5054.83869	1.39099	0.00838
5053.33858	1.3909	0.00834
5051.83847	1.39082	0.00833
5050.33836	1.39073	0.00836
5048.83824	1.39065	0.00842
5047.33813	1.39057	0.0085
5045.83802	1.39054	0.00859
5044.33791	1.39051	0.00866
5042.8378	1.39051	0.00873
5041.33769	1.39052	0.00879
5039.83757	1.39055	0.00882
5038.33746	1.39059	0.00882
5036.83735	1.39062	0.00881
5035.33724	1.39065	0.00878
5033.83713	1.39067	0.00874
5032.33701	1.39067	0.00868
5030.8369	1.39067	0.00862
5029.33679	1.39064	0.00855
5027.83668	1.3906	0.00847
5026.33657	1.39054	0.00841
5024.83646	1.39048	0.00838
5023.33634	1.39041	0.00837
5021.83623	1.39035	0.00837
5020.33612	1.39028	0.00839
5018.83601	1.39025	0.00843
5017.3359	1.39022	0.00848
5015.83578	1.39021	0.00852
5014.33567	1.3902	0.00853
5012.83556	1.3902	0.00855
5011.33545	1.3902	0.00853
5009.83534	1.39021	0.00848
5008.33523	1.3902	0.00843
5006.83511	1.39019	0.00836
5005.335	1.39015	0.00832
5003.83489	1.39011	0.00829
5002.33478	1.39008	0.00827
5000.83467	1.39006	0.00827
4999.33455	1.39003	0.00826
4997.83444	1.39	0.00824
4996.33433	1.38996	0.00821
4994.83422	1.38993	0.00816
4993.33411	1.3899	0.0081
4991.834	1.38985	0.00804
4990.33388	1.38979	0.00799
4988.83377	1.38971	0.00795
4987.33366	1.38963	0.00791
4985.83355	1.38954	0.0079
4984.33344	1.38946	0.00789
4982.83332	1.38939	0.00792
4981.33321	1.38932	0.00796
4979.8331	1.38927	0.00801
4978.33299	1.38923	0.00805
4976.83288	1.38919	0.00809
4975.33277	1.38917	0.00811
4973.83265	1.38916	0.00811
4972.33254	1.38915	0.00811
4970.83243	1.38913	0.00809
4969.33232	1.38912	0.00809
4967.83221	1.38911	0.00808
4966.3321	1.3891	0.00807
4964.83198	1.38908	0.00805
4963.33187	1.38904	0.00801
4961.83176	1.38899	0.00796
4960.33165	1.38894	0.00792
4958.83154	1.38888	0.00786
4957.33142	1.38881	0.00783
4955.83131	1.38875	0.00782
4954.3312	1.38867	0.00785
4952.83109	1.38862	0.00791
4951.33098	1.38858	0.00798
4949.83087	1.38857	0.00805
4948.33075	1.38858	0.00812
4946.83064	1.38859	0.00813
4945.33053	1.3886	0.0081
4943.83042	1.3886	0.00805
4942.33031	1.3886	0.00797
4940.83019	1.38859	0.0079
4939.33008	1.38858	0.00785
4937.82997	1.38854	0.00781
4936.32986	1.3885	0.00781
4934.82975	1.38846	0.00781
4933.32964	1.38843	0.00779
4931.82952	1.38839	0.00775
4930.32941	1.38834	0.00769
4928.8293	1.3883	0.00764
4927.32919	1.38823	0.00757
4925.82908	1.38817	0.00753
4924.32896	1.3881	0.0075
4922.82885	1.38803	0.0075
4921.32874	1.38794	0.00749
4919.82863	1.38786	0.00748
4918.32852	1.38778	0.00749
4916.82841	1.38771	0.0075
4915.32829	1.38765	0.00753
4913.82818	1.38761	0.00758
4912.32807	1.38758	0.00763
4910.82796	1.38755	0.00768
4909.32785	1.38753	0.0077
4907.82773	1.38752	0.0077
4906.32762	1.38751	0.00767
4904.82751	1.38749	0.00763
4903.3274	1.38747	0.0076
4901.82729	1.38745	0.00757
4900.32718	1.38742	0.00757
4898.82706	1.38738	0.00757
4897.32695	1.38734	0.00756
4895.82684	1.38731	0.00753
4894.32673	1.38727	0.00749
4892.82662	1.38723	0.00745
4891.3265	1.38717	0.0074
4889.82639	1.38711	0.00736
4888.32628	1.38705	0.00735
4886.82617	1.38698	0.00734
4885.32606	1.38691	0.00735
4883.82595	1.38685	0.00736
4882.32583	1.38679	0.00738
4880.82572	1.38673	0.0074
4879.32561	1.3867	0.00742
4877.8255	1.38666	0.00744
4876.32539	1.38664	0.00746
4874.82527	1.38662	0.00747
4873.32516	1.3866	0.00746
4871.82505	1.38659	0.00745
4870.32494	1.38656	0.00743
4868.82483	1.38653	0.00741
4867.32472	1.3865	0.00737
4865.8246	1.38648	0.00734
4864.32449	1.38645	0.00731
4862.82438	1.3864	0.00728
4861.32427	1.38636	0.00725
4859.82416	1.38629	0.00722
4858.32404	1.38623	0.00719
4856.82393	1.38618	0.00716
4855.32382	1.3861	0.00711
4853.82371	1.38602	0.00707
4852.3236	1.38592	0.00706
4850.82349	1.38583	0.00705
4849.32337	1.38575	0.00707
4847.82326	1.38569	0.0071
4846.32315	1.38562	0.00717
4844.82304	1.38556	0.00724
4843.32293	1.38553	0.0073
4841.82281	1.38552	0.00735
4840.3227	1.38552	0.00738
4838.82259	1.38552	0.00738
4837.32248	1.38551	0.00735
4835.82237	1.38549	0.0073
4834.32226	1.38546	0.00725
4832.82214	1.38541	0.00719
4831.32203	1.38535	0.00714
4829.82192	1.38528	0.00712
4828.32181	1.38521	0.00714
4826.8217	1.38515	0.00717
4825.32158	1.3851	0.00722
4823.82147	1.38507	0.00729
4822.32136	1.38505	0.00735
4820.82125	1.38506	0.0074
4819.32114	1.38508	0.00741
4817.82103	1.38511	0.0074
4816.32091	1.38513	0.00735
4814.8208	1.38513	0.00728
4813.32069	1.38512	0.00719
4811.82058	1.3851	0.00709
4810.32047	1.38505	0.00699
4808.82035	1.38498	0.00691
4807.32024	1.38489	0.00685
4805.82013	1.38479	0.00681
4804.32002	1.3847	0.00679
4802.81991	1.38461	0.00679
4801.3198	1.38452	0.00679
4799.81968	1.38444	0.00681
4798.31957	1.38436	0.00682
4796.81946	1.3843	0.00685
4795.31935	1.38425	0.00687
4793.81924	1.38421	0.00688
4792.31912	1.38416	0.00689
4790.81901	1.38411	0.00689
4789.3189	1.38408	0.00687
4787.81879	1.38403	0.00684
4786.31868	1.38397	0.0068
4784.81857	1.38391	0.00677
4783.31845	1.38384	0.00675
4781.81834	1.38376	0.00673
4780.31823	1.38367	0.00672
4778.81812	1.38359	0.00673
4777.31801	1.38351	0.00673
4775.81789	1.38341	0.00675
4774.31778	1.38332	0.00677
4772.81767	1.38323	0.0068
4771.31756	1.38317	0.00685
4769.81745	1.38311	0.00691
4768.31734	1.38305	0.00698
4766.81722	1.38301	0.00705
4765.31711	1.38297	0.00711
4763.817	1.38295	0.00716
4762.31689	1.38293	0.00719
4760.81678	1.38292	0.00722
4759.31667	1.38291	0.00724
4757.81655	1.38289	0.00727
4756.31644	1.38289	0.0073
4754.81633	1.3829	0.00734
4753.31622	1.3829	0.00737
4751.81611	1.38292	0.0074
4750.31599	1.38293	0.00741
4748.81588	1.38296	0.00742
4747.31577	1.38298	0.00741
4745.81566	1.38301	0.00738
4744.31555	1.38302	0.00735
4742.81544	1.38304	0.0073
4741.31532	1.38307	0.00725
4739.81521	1.38307	0.00719
4738.3151	1.38306	0.00714
4736.81499	1.38306	0.00708
4735.31488	1.38303	0.00702
4733.81476	1.38301	0.00693
4732.31465	1.38296	0.00683
4730.81454	1.3829	0.00672
4729.31443	1.38282	0.00662
4727.81432	1.38272	0.00655
4726.31421	1.38263	0.00651
4724.81409	1.38255	0.00651
4723.31398	1.38247	0.00652
4721.81387	1.38239	0.00655
4720.31376	1.38233	0.00656
4718.81365	1.38226	0.00655
4717.31353	1.3822	0.00652
4715.81342	1.38214	0.00648
4714.31331	1.38207	0.00643
4712.8132	1.382	0.0064
4711.31309	1.38193	0.00639
4709.81298	1.38186	0.00639
4708.31286	1.38179	0.00643
4706.81275	1.38173	0.00647
4705.31264	1.38167	0.00651
4703.81253	1.38164	0.00653
4702.31242	1.38161	0.00652
4700.8123	1.38158	0.00651
4699.31219	1.38155	0.00649
4697.81208	1.38152	0.00647
4696.31197	1.3815	0.00647
4694.81186	1.38147	0.00646
4693.31175	1.38145	0.00646
4691.81163	1.38142	0.00644
4690.31152	1.3814	0.00641
4688.81141	1.38137	0.00637
4687.3113	1.38134	0.00632
4685.81119	1.3813	0.00624
4684.31107	1.38124	0.00618
4682.81096	1.38118	0.00611
4681.31085	1.3811	0.00606
4679.81074	1.38103	0.00602
4678.31063	1.38095	0.00599
4676.81052	1.38087	0.00599
4675.3104	1.38079	0.00599
4673.81029	1.38072	0.006
4672.31018	1.38065	0.00599
4670.81007	1.3806	0.00597
4669.30996	1.38055	0.00594
4667.80984	1.38049	0.00592
4666.30973	1.38042	0.00591
4664.80962	1.38037	0.00589
4663.30951	1.38031	0.00588
4661.8094	1.38027	0.00585
4660.30929	1.3802	0.00581
4658.80917	1.38012	0.00576
4657.30906	1.38004	0.00572
4655.80895	1.37996	0.00567
4654.30884	1.37988	0.00565
4652.80873	1.3798	0.00564
4651.30861	1.37971	0.00564
4649.8085	1.37962	0.00565
4648.30839	1.37955	0.00566
4646.80828	1.37948	0.00567
4645.30817	1.3794	0.00567
4643.80806	1.37935	0.00567
4642.30794	1.37929	0.00567
4640.80783	1.37924	0.00566
4639.30772	1.37918	0.00566
4637.80761	1.37912	0.00564
4636.3075	1.37906	0.00563
4634.80738	1.379	0.0056
4633.30727	1.37892	0.00557
4631.80716	1.37884	0.00553
4630.30705	1.37876	0.0055
4628.80694	1.37868	0.00547
4627.30683	1.37859	0.00547
4625.80671	1.3785	0.00548
4624.3066	1.37842	0.00551
4622.80649	1.37835	0.00554
4621.30638	1.37829	0.00556
4619.80627	1.37822	0.00557
4618.30615	1.37816	0.00556
4616.80604	1.3781	0.00554
4615.30593	1.37804	0.00553
4613.80582	1.37799	0.0055
4612.30571	1.37791	0.00549
4610.8056	1.37784	0.00549
4609.30548	1.37775	0.00549
4607.80537	1.37768	0.0055
4606.30526	1.37761	0.00551
4604.80515	1.37754	0.00551
4603.30504	1.37748	0.00552
4601.80492	1.37742	0.00553
4600.30481	1.37736	0.00556
4598.8047	1.37732	0.00557
4597.30459	1.37728	0.00558
4595.80448	1.37724	0.00558
4594.30437	1.3772	0.00557
4592.80425	1.37716	0.00554
4591.30414	1.3771	0.00549
4589.80403	1.37705	0.00544
4588.30392	1.37697	0.00538
4586.80381	1.3769	0.00533
4585.30369	1.37682	0.0053
4583.80358	1.37671	0.00527
4582.30347	1.37661	0.00525
4580.80336	1.3765	0.00525
4579.30325	1.3764	0.00524
4577.80314	1.37629	0.00524
4576.30302	1.37618	0.00525
4574.80291	1.37607	0.00526
4573.3028	1.37598	0.00529
4571.80269	1.37589	0.00533
4570.30258	1.37581	0.00539
4568.80247	1.37574	0.00545
4567.30235	1.37568	0.00549
4565.80224	1.37562	0.00553
4564.30213	1.37558	0.00555
4562.80202	1.37555	0.00556
4561.30191	1.3755	0.00556
4559.80179	1.37545	0.00555
4558.30168	1.3754	0.00555
4556.80157	1.37535	0.00555
4555.30146	1.37529	0.00554
4553.80135	1.37524	0.00554
4552.30124	1.37517	0.00554
4550.80112	1.37511	0.00554
4549.30101	1.37505	0.00555
4547.8009	1.375	0.00555
4546.30079	1.37494	0.00556
4544.80068	1.37489	0.00557
4543.30056	1.37484	0.00555
4541.80045	1.37478	0.00553
4540.30034	1.37472	0.00551
4538.80023	1.37464	0.00549
4537.30012	1.37457	0.00547
4535.80001	1.37449	0.00545
4534.29989	1.3744	0.00544
4532.79978	1.37432	0.00543
4531.29967	1.37422	0.00543
4529.79956	1.37414	0.00545
4528.29945	1.37406	0.00549
4526.79933	1.374	0.00553
4525.29922	1.37394	0.00558
4523.79911	1.37389	0.00563
4522.299	1.37386	0.00565
4520.79889	1.37381	0.00565
4519.29878	1.37376	0.00563
4517.79866	1.37372	0.0056
4516.29855	1.37367	0.00556
4514.79844	1.37361	0.00552
4513.29833	1.37354	0.0055
4511.79822	1.37346	0.0055
4510.2981	1.37339	0.00551
4508.79799	1.37331	0.00553
4507.29788	1.37324	0.00554
4505.79777	1.37317	0.00555
4504.29766	1.3731	0.00554
4502.79755	1.37302	0.00552
4501.29743	1.37294	0.00551
4499.79732	1.37286	0.00551
4498.29721	1.37279	0.00553
4496.7971	1.37272	0.00556
4495.29699	1.37265	0.0056
4493.79687	1.37259	0.00564
4492.29676	1.37254	0.00568
4490.79665	1.37251	0.00571
4489.29654	1.37249	0.00574
4487.79643	1.37247	0.00576
4486.29632	1.37246	0.00576
4484.7962	1.37244	0.00574
4483.29609	1.37242	0.00569
4481.79598	1.37238	0.00563
4480.29587	1.37233	0.00555
4478.79576	1.37226	0.00547
4477.29564	1.37218	0.00542
4475.79553	1.37209	0.00538
4474.29542	1.372	0.00537
4472.79531	1.3719	0.00537
4471.2952	1.37182	0.00537
4469.79509	1.37174	0.00537
4468.29497	1.37165	0.00538
4466.79486	1.37157	0.00537
4465.29475	1.3715	0.00537
4463.79464	1.37143	0.00536
4462.29453	1.37137	0.00534
4460.79441	1.37129	0.00532
4459.2943	1.37121	0.00531
4457.79419	1.37114	0.00529
4456.29408	1.37106	0.00527
4454.79397	1.37097	0.00525
4453.29386	1.37088	0.00523
4451.79374	1.37078	0.0052
4450.29363	1.37067	0.00519
4448.79352	1.37056	0.00517
4447.29341	1.37044	0.00517
4445.7933	1.37033	0.00519
4444.29318	1.37022	0.00523
4442.79307	1.37013	0.00528
4441.29296	1.37004	0.00533
4439.79285	1.36996	0.00539
4438.29274	1.36991	0.00545
4436.79263	1.36986	0.00549
4435.29251	1.36982	0.00553
4433.7924	1.36979	0.00555
4432.29229	1.36976	0.00555
4430.79218	1.36972	0.00553
4429.29207	1.36966	0.0055
4427.79195	1.3696	0.00546
4426.29184	1.36954	0.00544
4424.79173	1.36946	0.00542
4423.29162	1.3694	0.00542
4421.79151	1.36932	0.00542
4420.2914	1.36925	0.00544
4418.79128	1.36917	0.00544
4417.29117	1.3691	0.00544
4415.79106	1.36904	0.00544
4414.29095	1.36896	0.00542
4412.79084	1.36888	0.00541
4411.29072	1.3688	0.0054
4409.79061	1.36873	0.0054
4408.2905	1.36865	0.00542
4406.79039	1.36859	0.00545
4405.29028	1.36852	0.00548
4403.79017	1.36847	0.00551
4402.29005	1.36843	0.00554
4400.78994	1.36839	0.00556
4399.28983	1.36836	0.00554
4397.78972	1.36832	0.00551
4396.28961	1.36829	0.00546
4394.78949	1.36823	0.0054
4393.28938	1.36816	0.00534
4391.78927	1.36808	0.0053
4390.28916	1.368	0.00527
4388.78905	1.3679	0.00525
4387.28894	1.36781	0.00523
4385.78882	1.36772	0.00523
4384.28871	1.36763	0.00522
4382.7886	1.36755	0.00521
4381.28849	1.36747	0.00522
4379.78838	1.3674	0.00522
4378.28827	1.36733	0.00522
4376.78815	1.36727	0.00521
4375.28804	1.3672	0.0052
4373.78793	1.36713	0.00516
4372.28782	1.36704	0.00511
4370.78771	1.36695	0.00505
4369.28759	1.36685	0.00499
4367.78748	1.36675	0.00496
4366.28737	1.36663	0.00493
4364.78726	1.36651	0.00493
4363.28715	1.36639	0.00495
4361.78704	1.36628	0.00496
4360.28692	1.36617	0.00498
4358.78681	1.36608	0.00499
4357.2867	1.36597	0.00501
4355.78659	1.36588	0.00501
4354.28648	1.36579	0.00503
4352.78636	1.3657	0.00504
4351.28625	1.36562	0.00504
4349.78614	1.36554	0.00505
4348.28603	1.36544	0.00506
4346.78592	1.36536	0.00506
4345.28581	1.36527	0.00507
4343.78569	1.36518	0.00507
4342.28558	1.36509	0.00507
4340.78547	1.365	0.00507
4339.28536	1.3649	0.00507
4337.78525	1.36481	0.00508
4336.28513	1.36472	0.0051
4334.78502	1.36463	0.00513
4333.28491	1.36455	0.00517
4331.7848	1.36447	0.0052
4330.28469	1.3644	0.00522
4328.78458	1.36434	0.00523
4327.28446	1.36427	0.00523
4325.78435	1.3642	0.00524
4324.28424	1.36415	0.00524
4322.78413	1.3641	0.00526
4321.28402	1.36405	0.00527
4319.7839	1.364	0.00527
4318.28379	1.36393	0.00525
4316.78368	1.36387	0.00521
4315.28357	1.3638	0.00516
4313.78346	1.36372	0.0051
4312.28335	1.36362	0.00503
4310.78323	1.36351	0.005
4309.28312	1.36338	0.00497
4307.78301	1.36327	0.00498
4306.2829	1.36316	0.005
4304.78279	1.36305	0.00503
4303.28267	1.36294	0.00506
4301.78256	1.36284	0.00509
4300.28245	1.36276	0.0051
4298.78234	1.36268	0.00511
4297.28223	1.3626	0.00511
4295.78212	1.36252	0.00512
4294.282	1.36245	0.00513
4292.78189	1.36237	0.00515
4291.28178	1.3623	0.00516
4289.78167	1.36223	0.00517
4288.28156	1.36215	0.00516
4286.78144	1.36208	0.00513
4285.28133	1.36198	0.0051
4283.78122	1.36189	0.00508
4282.28111	1.36181	0.00508
4280.781	1.36172	0.00509
4279.28089	1.36166	0.00514
4277.78077	1.36158	0.00517
4276.28066	1.36152	0.00519
4274.78055	1.36146	0.0052
4273.28044	1.36142	0.00517
4271.78033	1.36137	0.00512
4270.28021	1.3613	0.00505
4268.7801	1.36122	0.00499
4267.27999	1.36112	0.00493
4265.77988	1.36101	0.00487
4264.27977	1.36089	0.00483
4262.77966	1.36077	0.00481
4261.27954	1.36066	0.0048
4259.77943	1.36054	0.0048
4258.27932	1.36044	0.00482
4256.77921	1.36033	0.00484
4255.2791	1.36023	0.00485
4253.77898	1.36014	0.00484
4252.27887	1.36004	0.0048
4250.77876	1.35994	0.00477
4249.27865	1.35982	0.00472
4247.77854	1.35971	0.0047
4246.27843	1.35959	0.0047
4244.77831	1.35948	0.00472
4243.2782	1.35939	0.00476
4241.77809	1.35929	0.0048
4240.27798	1.35919	0.0048
4238.77787	1.35911	0.0048
4237.27775	1.35901	0.00477
4235.77764	1.35893	0.00474
4234.27753	1.35884	0.00471
4232.77742	1.35875	0.0047
4231.27731	1.35864	0.00468
4229.7772	1.35855	0.00467
4228.27708	1.35843	0.00465
4226.77697	1.35832	0.00463
4225.27686	1.35821	0.0046
4223.77675	1.35809	0.00457
4222.27664	1.35796	0.00454
4220.77652	1.35783	0.00453
4219.27641	1.3577	0.00453
4217.7763	1.35758	0.00455
4216.27619	1.35746	0.00457
4214.77608	1.35734	0.0046
4213.27597	1.35723	0.00461
4211.77585	1.3571	0.00461
4210.27574	1.35699	0.00461
4208.77563	1.35688	0.0046
4207.27552	1.35677	0.0046
4205.77541	1.35666	0.00461
4204.27529	1.35654	0.00465
4202.77518	1.35645	0.00469
4201.27507	1.35635	0.00472
4199.77496	1.35627	0.00474
4198.27485	1.35619	0.00475
4196.77474	1.3561	0.00475
4195.27462	1.35602	0.00473
4193.77451	1.35594	0.00471
4192.2744	1.35585	0.0047
4190.77429	1.35576	0.00468
4189.27418	1.35567	0.00466
4187.77407	1.35556	0.00463
4186.27395	1.35546	0.00461
4184.77384	1.35535	0.00458
4183.27373	1.35523	0.00457
4181.77362	1.35512	0.00455
4180.27351	1.355	0.00453
4178.77339	1.35488	0.00453
4177.27328	1.35477	0.00453
4175.77317	1.35465	0.00452
4174.27306	1.35455	0.00452
4172.77295	1.35445	0.00452
4171.27284	1.35434	0.00451
4169.77272	1.35423	0.0045
4168.27261	1.35413	0.00448
4166.7725	1.35402	0.00444
4165.27239	1.35391	0.00441
4163.77228	1.35379	0.00438
4162.27216	1.35366	0.00435
4160.77205	1.35353	0.00431
4159.27194	1.3534	0.00429
4157.77183	1.35326	0.00427
4156.27172	1.35312	0.00426
4154.77161	1.35298	0.00424
4153.27149	1.35283	0.00423
4151.77138	1.3527	0.00423
4150.27127	1.35256	0.00423
4148.77116	1.35243	0.00423
4147.27105	1.35229	0.00423
4145.77093	1.35215	0.00422
4144.27082	1.35201	0.00421
4142.77071	1.35187	0.00421
4141.2706	1.35173	0.00419
4139.77049	1.35158	0.00419
4138.27038	1.35144	0.00419
4136.77026	1.35129	0.0042
4135.27015	1.35114	0.00421
4133.77004	1.351	0.00424
4132.26993	1.35087	0.00426
4130.76982	1.35074	0.00429
4129.2697	1.35062	0.00432
4127.76959	1.3505	0.00434
4126.26948	1.35039	0.00436
4124.76937	1.35028	0.00437
4123.26926	1.35017	0.00435
4121.76915	1.35005	0.00433
4120.26903	1.34993	0.00429
4118.76892	1.34979	0.00426
4117.26881	1.34965	0.00423
4115.7687	1.34949	0.00421
4114.26859	1.34934	0.00421
4112.76847	1.34918	0.0042
4111.26836	1.34902	0.0042
4109.76825	1.34885	0.00421
4108.26814	1.34868	0.00422
4106.76803	1.34853	0.00425
4105.26792	1.34837	0.00428
4103.7678	1.34822	0.00432
4102.26769	1.34808	0.00435
4100.76758	1.34794	0.00438
4099.26747	1.34779	0.00441
4097.76736	1.34766	0.00444
4096.26724	1.34753	0.00446
4094.76713	1.34741	0.00449
4093.26702	1.34729	0.00453
4091.76691	1.34716	0.00455
4090.2668	1.34704	0.00457
4088.76669	1.34692	0.00459
4087.26657	1.3468	0.00459
4085.76646	1.34666	0.00459
4084.26635	1.34653	0.00459
4082.76624	1.34639	0.00461
4081.26613	1.34627	0.00462
4079.76601	1.34614	0.00464
4078.2659	1.34601	0.00465
4076.76579	1.34588	0.00467
4075.26568	1.34575	0.00469
4073.76557	1.34563	0.00472
4072.26546	1.34551	0.00474
4070.76534	1.34539	0.00474
4069.26523	1.34526	0.00474
4067.76512	1.34514	0.00473
4066.26501	1.34503	0.00472
4064.7649	1.3449	0.00472
4063.26478	1.34477	0.00472
4061.76467	1.34464	0.00472
4060.26456	1.34451	0.00473
4058.76445	1.34438	0.00472
4057.26434	1.34424	0.00471
4055.76423	1.34409	0.00468
4054.26411	1.34393	0.00465
4052.764	1.34378	0.00462
4051.26389	1.34361	0.00461
4049.76378	1.34346	0.00462
4048.26367	1.34329	0.00464
4046.76355	1.34314	0.00468
4045.26344	1.34298	0.00473
4043.76333	1.34286	0.00477
4042.26322	1.34273	0.00481
4040.76311	1.34261	0.00481
4039.263	1.34248	0.0048
4037.76288	1.34235	0.00477
4036.26277	1.34222	0.00474
4034.76266	1.34207	0.00471
4033.26255	1.34192	0.00469
4031.76244	1.34175	0.00469
4030.26232	1.34159	0.00469
4028.76221	1.34143	0.00471
4027.2621	1.34127	0.00471
4025.76199	1.34112	0.00472
4024.26188	1.34096	0.00473
4022.76177	1.34082	0.00474
4021.26165	1.34067	0.00475
4019.76154	1.34052	0.00476
4018.26143	1.34037	0.00476
4016.76132	1.34021	0.00476
4015.26121	1.34007	0.00475
4013.76109	1.33991	0.00474
4012.26098	1.33976	0.00473
4010.76087	1.3396	0.00473
4009.26076	1.33944	0.00473
4007.76065	1.33928	0.00473
4006.26054	1.33912	0.00473
4004.76042	1.33896	0.00473
4003.26031	1.33879	0.00473
4001.7602	1.33863	0.00473
4000.26009	1.33847	0.00473
3998.75998	1.33832	0.00474
3997.25986	1.33816	0.00475
3995.75975	1.33801	0.00475
3994.25964	1.33785	0.00474
3992.75953	1.33768	0.00473
3991.25942	1.33753	0.00472
3989.75931	1.33737	0.0047
3988.25919	1.3372	0.00468
3986.75908	1.33703	0.00464
3985.25897	1.33684	0.00461
3983.75886	1.33664	0.00458
3982.25875	1.33644	0.00455
3980.75864	1.33623	0.00454
3979.25852	1.33601	0.00454
3977.75841	1.33581	0.00455
3976.2583	1.33561	0.0046
3974.75819	1.33542	0.00466
3973.25808	1.33525	0.00472
3971.75796	1.33509	0.00478
3970.25785	1.33493	0.00482
3968.75774	1.33479	0.00482
3967.25763	1.33465	0.0048
3965.75752	1.3345	0.00476
3964.25741	1.33434	0.00469
3962.75729	1.33416	0.00464
3961.25718	1.33396	0.0046
3959.75707	1.33375	0.00457
3958.25696	1.33353	0.00453
3956.75685	1.33331	0.00451
3955.25673	1.33307	0.00449
3953.75662	1.33282	0.00448
3952.25651	1.33257	0.00449
3950.7564	1.33232	0.00452
3949.25629	1.33209	0.00459
3947.75618	1.33189	0.00467
3946.25606	1.33171	0.00477
3944.75595	1.33154	0.00484
3943.25584	1.33136	0.00489
3941.75573	1.33119	0.00492
3940.25562	1.33103	0.0049
3938.7555	1.33086	0.00484
3937.25539	1.33068	0.00478
3935.75528	1.33046	0.00474
3934.25517	1.33023	0.00472
3932.75506	1.32999	0.00474
3931.25495	1.32978	0.00479
3929.75483	1.32957	0.00485
3928.25472	1.32935	0.0049
3926.75461	1.32913	0.00492
3925.2545	1.32891	0.00493
3923.75439	1.32872	0.00496
3922.25427	1.32856	0.00499
3920.75416	1.32841	0.00504
3919.25405	1.32827	0.00511
3917.75394	1.32814	0.00517
3916.25383	1.32801	0.00519
3914.75372	1.32787	0.0051
3913.2536	1.32767	0.00491
3911.75349	1.3274	0.00464
3910.25338	1.32705	0.00435
3908.75327	1.32664	0.00408
3907.25316	1.32619	0.00394
3905.75304	1.32574	0.00399
3904.25293	1.32531	0.00425
3902.75282	1.32494	0.00465
3901.25271	1.32465	0.00508
3899.7526	1.32445	0.00547
3898.25249	1.32435	0.00573
3896.75237	1.32428	0.00585
3895.25226	1.32422	0.00581
3893.75215	1.32413	0.00567
3892.25204	1.324	0.00553
3890.75193	1.32382	0.00542
3889.25181	1.32361	0.00533
3887.7517	1.32337	0.00528
3886.25159	1.32309	0.0053
3884.75148	1.32281	0.00537
3883.25137	1.32257	0.00544
3881.75126	1.32232	0.0055
3880.25114	1.32206	0.00553
3878.75103	1.32181	0.00554
3877.25092	1.32155	0.00548
3875.75081	1.32126	0.0054
3874.2507	1.32095	0.00537
3872.75058	1.32064	0.00539
3871.25047	1.32032	0.00549
3869.75036	1.32005	0.00565
3868.25025	1.31983	0.00587
3866.75014	1.31964	0.00606
3865.25003	1.31944	0.0062
3863.74991	1.31923	0.00626
3862.2498	1.31899	0.00621
3860.74969	1.31876	0.00607
3859.24958	1.3185	0.00592
3857.74947	1.31823	0.00585
3856.24935	1.31793	0.0059
3854.74924	1.31763	0.00608
3853.24913	1.31736	0.00639
3851.74902	1.31718	0.00671
3850.24891	1.31704	0.00692
3848.7488	1.3169	0.00695
3847.24868	1.31672	0.00682
3845.74857	1.31649	0.00659
3844.24846	1.31623	0.00636
3842.74835	1.31593	0.00621
3841.24824	1.31561	0.00621
3839.74812	1.31527	0.00634
3838.24801	1.31493	0.00658
3836.7479	1.31464	0.00684
3835.24779	1.31442	0.00706
3833.74768	1.31425	0.00721
3832.24757	1.31408	0.00727
3830.74745	1.31391	0.00725
3829.24734	1.31371	0.00713
3827.74723	1.31347	0.00699
3826.24712	1.31318	0.00686
3824.74701	1.31286	0.00678
3823.24689	1.31251	0.00677
3821.74678	1.31216	0.00687
3820.24667	1.31187	0.0071
3818.74656	1.31164	0.00736
3817.24645	1.31143	0.00759
3815.74634	1.31126	0.00774
3814.24622	1.31111	0.00778
3812.74611	1.31095	0.00768
3811.246	1.31075	0.00747
3809.74589	1.31048	0.00723
3808.24578	1.31013	0.00702
3806.74566	1.30975	0.00691
3805.24555	1.30935	0.00692
3803.74544	1.30895	0.00702
3802.24533	1.30857	0.00722
3800.74522	1.30823	0.00749
3799.24511	1.30799	0.00775
3797.74499	1.30779	0.00795
3796.24488	1.30765	0.00808
3794.74477	1.30752	0.00812
3793.24466	1.30739	0.00805
3791.74455	1.30722	0.00788
3790.24444	1.30701	0.00767
3788.74432	1.30674	0.00745
3787.24421	1.30641	0.00724
3785.7441	1.30604	0.00709
3784.24399	1.30566	0.00703
3782.74388	1.30527	0.00703
3781.24376	1.30489	0.00706
3779.74365	1.30449	0.00709
3778.24354	1.30412	0.00711
3776.74343	1.30375	0.00706
3775.24332	1.30337	0.00696
3773.74321	1.30299	0.00685
3772.24309	1.30258	0.00674
3770.74298	1.30215	0.00668
3769.24287	1.30171	0.00668
3767.74276	1.30128	0.00669
3766.24265	1.30084	0.00672
3764.74253	1.30042	0.00673
3763.24242	1.29998	0.00669
3761.74231	1.29949	0.0066
3760.2422	1.29895	0.00648
3758.74209	1.29839	0.00636
3757.24198	1.29781	0.00628
3755.74186	1.29721	0.00625
3754.24175	1.29657	0.00629
3752.74164	1.2959	0.00643
3751.24153	1.29526	0.00667
3749.74142	1.29469	0.00698
3748.2413	1.2942	0.00732
3746.74119	1.29373	0.00762
3745.24108	1.29325	0.00788
3743.74097	1.29278	0.00808
3742.24086	1.29237	0.00823
3740.74075	1.292	0.00834
3739.24063	1.29163	0.00846
3737.74052	1.29124	0.00865
3736.24041	1.29082	0.00891
3734.7403	1.29045	0.00917
3733.24019	1.29013	0.00942
3731.74007	1.28984	0.00957
3730.23996	1.28952	0.00964
3728.73985	1.28919	0.00962
3727.23974	1.28883	0.00959
3725.73963	1.28847	0.00955
3724.23952	1.28811	0.00956
3722.7394	1.2877	0.00957
3721.23929	1.28723	0.00958
3719.73918	1.28671	0.00952
3718.23907	1.28616	0.00941
3716.73896	1.2856	0.00929
3715.23884	1.28502	0.00923
3713.73873	1.28441	0.00925
3712.23862	1.28377	0.0094
3710.73851	1.28317	0.00961
3709.2384	1.28261	0.00986
3707.73829	1.28208	0.01006
3706.23817	1.28158	0.01018
3704.73806	1.28106	0.01022
3703.23795	1.28053	0.01019
3701.73784	1.27996	0.01014
3700.23773	1.27937	0.01008
3698.73761	1.27871	0.01001
3697.2375	1.27798	0.00995
3695.73739	1.27721	0.00992
3694.23728	1.27641	0.00995
3692.73717	1.27559	0.01005
3691.23706	1.27478	0.01025
3689.73694	1.27398	0.01052
3688.23683	1.27321	0.01082
3686.73672	1.27243	0.01108
3685.23661	1.27163	0.01125
3683.7365	1.2708	0.01135
3682.23638	1.26994	0.01142
3680.73627	1.26903	0.01151
3679.23616	1.26809	0.0117
3677.73605	1.26711	0.012
3676.23594	1.26615	0.01246
3674.73583	1.26524	0.01307
3673.23571	1.26441	0.01374
3671.7356	1.26364	0.0144
3670.23549	1.26294	0.01503
3668.73538	1.26228	0.0156
3667.23527	1.26168	0.01605
3665.73515	1.26108	0.01638
3664.23504	1.26044	0.0166
3662.73493	1.25972	0.01677
3661.23482	1.25891	0.01694
3659.73471	1.25799	0.0171
3658.2346	1.25698	0.01731
3656.73448	1.25589	0.01762
3655.23437	1.25477	0.01805
3653.73426	1.25366	0.01863
3652.23415	1.25257	0.01937
3650.73404	1.25154	0.02027
3649.23392	1.25059	0.02132
3647.73381	1.24977	0.02242
3646.2337	1.24908	0.02347
3644.73359	1.24846	0.02441
3643.23348	1.24787	0.02518
3641.73337	1.24727	0.02582
3640.23325	1.24664	0.02634
3638.73314	1.24596	0.02681
3637.23303	1.24521	0.02729
3635.73292	1.24438	0.02785
3634.23281	1.24352	0.02852
3632.73269	1.24265	0.02932
3631.23258	1.24177	0.03022
3629.73247	1.24092	0.03122
3628.23236	1.24011	0.03228
3626.73225	1.23937	0.03332
3625.23214	1.23868	0.0343
3623.73202	1.238	0.03523
3622.23191	1.23732	0.03614
3620.7318	1.23663	0.03705
3619.23169	1.23595	0.038
3617.73158	1.2353	0.03901
3616.23146	1.23467	0.04009
3614.73135	1.23405	0.04121
3613.23124	1.23345	0.04235
3611.73113	1.23291	0.04352
3610.23102	1.2324	0.04468
3608.73091	1.23195	0.04583
3607.23079	1.23153	0.04697
3605.73068	1.23114	0.04808
3604.23057	1.23076	0.04915
3602.73046	1.23038	0.05017
3601.23035	1.22999	0.05119
3599.73024	1.22961	0.05222
3598.23012	1.22921	0.05324
3596.73001	1.22879	0.05428
3595.2299	1.22836	0.05533
3593.72979	1.22794	0.05641
3592.22968	1.22754	0.05754
3590.72956	1.22716	0.0587
3589.22945	1.2268	0.05992
3587.72934	1.22649	0.06122
3586.22923	1.22625	0.06255
3584.72912	1.22609	0.06386
3583.22901	1.22597	0.06513
3581.72889	1.22588	0.06632
3580.22878	1.2258	0.06745
3578.72867	1.22572	0.0685
3577.22856	1.22562	0.06948
3575.72845	1.22548	0.07042
3574.22833	1.22529	0.07135
3572.72822	1.22507	0.0723
3571.22811	1.22482	0.07332
3569.728	1.22457	0.07444
3568.22789	1.22435	0.07568
3566.72778	1.22418	0.07704
3565.22766	1.2241	0.07845
3563.72755	1.2241	0.07987
3562.22744	1.22415	0.0812
3560.72733	1.22424	0.08244
3559.22722	1.22435	0.08357
3557.7271	1.22448	0.0846
3556.22699	1.22458	0.08557
3554.72688	1.22466	0.08653
3553.22677	1.22468	0.0875
3551.72666	1.22469	0.08854
3550.22655	1.22469	0.08964
3548.72643	1.22471	0.0908
3547.22632	1.22475	0.09201
3545.72621	1.22482	0.09324
3544.2261	1.22495	0.09446
3542.72599	1.22512	0.09567
3541.22587	1.22532	0.09683
3539.72576	1.22552	0.09794
3538.22565	1.22573	0.09901
3536.72554	1.22593	0.10004
3535.22543	1.22614	0.10105
3533.72532	1.22633	0.10206
3532.2252	1.22651	0.10309
3530.72509	1.22668	0.10415
3529.22498	1.22686	0.10524
3527.72487	1.22706	0.10637
3526.22476	1.22728	0.10752
3524.72464	1.22754	0.10868
3523.22453	1.22782	0.10983
3521.72442	1.22813	0.11095
3520.22431	1.22845	0.11203
3518.7242	1.22879	0.11309
3517.22409	1.22913	0.11413
3515.72397	1.22949	0.11515
3514.22386	1.22983	0.11616
3512.72375	1.23017	0.11718
3511.22364	1.2305	0.1182
3509.72353	1.23084	0.11923
3508.22341	1.23119	0.12027
3506.7233	1.23155	0.12131
3505.22319	1.23194	0.12238
3503.72308	1.23233	0.12346
3502.22297	1.23275	0.12457
3500.72286	1.23322	0.12567
3499.22274	1.23371	0.12674
3497.72263	1.23422	0.12781
3496.22252	1.23475	0.12884
3494.72241	1.23529	0.12983
3493.2223	1.23584	0.13079
3491.72218	1.23639	0.13171
3490.22207	1.23694	0.13263
3488.72196	1.23748	0.13353
3487.22185	1.23801	0.13444
3485.72174	1.23855	0.13536
3484.22163	1.2391	0.13629
3482.72151	1.23965	0.13723
3481.2214	1.24022	0.13817
3479.72129	1.2408	0.1391
3478.22118	1.2414	0.14002
3476.72107	1.24201	0.14092
3475.22095	1.24262	0.14179
3473.72084	1.24323	0.14267
3472.22073	1.24386	0.14354
3470.72062	1.24449	0.1444
3469.22051	1.24513	0.14527
3467.7204	1.24579	0.14613
3466.22028	1.24645	0.14699
3464.72017	1.24712	0.14783
3463.22006	1.24781	0.14867
3461.71995	1.24851	0.1495
3460.21984	1.24922	0.15032
3458.71972	1.24995	0.15113
3457.21961	1.25068	0.15192
3455.7195	1.2514	0.15268
3454.21939	1.25212	0.15342
3452.71928	1.25286	0.15415
3451.21917	1.2536	0.15487
3449.71905	1.25433	0.15558
3448.21894	1.25505	0.1563
3446.71883	1.25579	0.15705
3445.21872	1.25655	0.15779
3443.71861	1.25733	0.15855
3442.21849	1.25812	0.15928
3440.71838	1.25893	0.16001
3439.21827	1.25974	0.16071
3437.71816	1.26057	0.16137
3436.21805	1.26142	0.162
3434.71794	1.26225	0.16261
3433.21782	1.26308	0.1632
3431.71771	1.26392	0.16379
3430.2176	1.26474	0.16437
3428.71749	1.26558	0.16495
3427.21738	1.26641	0.16554
3425.71726	1.26726	0.16612
3424.21715	1.26812	0.1667
3422.71704	1.26897	0.16726
3421.21693	1.26985	0.1678
3419.71682	1.27073	0.16832
3418.21671	1.27162	0.16882
3416.71659	1.27251	0.16929
3415.21648	1.27339	0.16975
3413.71637	1.27427	0.1702
3412.21626	1.27516	0.17063
3410.71615	1.27604	0.17106
3409.21604	1.27693	0.17148
3407.71592	1.27782	0.17188
3406.21581	1.27871	0.17227
3404.7157	1.27959	0.17266
3403.21559	1.28048	0.17303
3401.71548	1.28138	0.17338
3400.21536	1.28227	0.17373
3398.71525	1.28316	0.17405
3397.21514	1.28406	0.17436
3395.71503	1.28494	0.17466
3394.21492	1.28583	0.17494
3392.71481	1.28673	0.17522
3391.21469	1.28762	0.17549
3389.71458	1.2885	0.17574
3388.21447	1.28939	0.17597
3386.71436	1.29028	0.17619
3385.21425	1.29116	0.17639
3383.71413	1.29204	0.17658
3382.21402	1.29291	0.17675
3380.71391	1.29378	0.17691
3379.2138	1.29464	0.17705
3377.71369	1.2955	0.17718
3376.21358	1.29634	0.1773
3374.71346	1.29718	0.1774
3373.21335	1.298	0.17749
3371.71324	1.29882	0.17759
3370.21313	1.29964	0.17767
3368.71302	1.30045	0.17775
3367.2129	1.30125	0.17784
3365.71279	1.30205	0.17791
3364.21268	1.30285	0.17796
3362.71257	1.30363	0.17801
3361.21246	1.30442	0.17804
3359.71235	1.30521	0.17806
3358.21223	1.30599	0.17808
3356.71212	1.30677	0.17809
3355.21201	1.30753	0.1781
3353.7119	1.3083	0.1781
3352.21179	1.30906	0.17808
3350.71167	1.30982	0.17805
3349.21156	1.31056	0.17799
3347.71145	1.31129	0.17791
3346.21134	1.312	0.17782
3344.71123	1.31269	0.17773
3343.21112	1.31338	0.17765
3341.711	1.31406	0.17756
3340.21089	1.31472	0.17747
3338.71078	1.31537	0.17738
3337.21067	1.31603	0.17731
3335.71056	1.31667	0.17723
3334.21044	1.31731	0.17714
3332.71033	1.31795	0.17706
3331.21022	1.31859	0.17696
3329.71011	1.31922	0.17684
3328.21	1.31984	0.17672
3326.70989	1.32044	0.17659
3325.20977	1.32104	0.17646
3323.70966	1.32164	0.17632
3322.20955	1.32221	0.17618
3320.70944	1.32279	0.17604
3319.20933	1.32334	0.1759
3317.70921	1.32388	0.17575
3316.2091	1.32442	0.17559
3314.70899	1.32496	0.17545
3313.20888	1.32548	0.17531
3311.70877	1.326	0.17518
3310.20866	1.32651	0.17505
3308.70854	1.32703	0.17493
3307.20843	1.32753	0.17479
3305.70832	1.32804	0.17465
3304.20821	1.32853	0.17449
3302.7081	1.32902	0.17432
3301.20798	1.3295	0.17417
3299.70787	1.32997	0.174
3298.20776	1.33043	0.17385
3296.70765	1.33088	0.17369
3295.20754	1.33133	0.17354
3293.70743	1.33176	0.17338
3292.20731	1.33218	0.17322
3290.7072	1.3326	0.17308
3289.20709	1.33302	0.17293
3287.70698	1.33343	0.1728
3286.20687	1.33383	0.17266
3284.70675	1.33424	0.17254
3283.20664	1.33465	0.17242
3281.70653	1.33506	0.17231
3280.20642	1.33546	0.1722
3278.70631	1.33586	0.17207
3277.2062	1.33627	0.17195
3275.70608	1.33666	0.17181
3274.20597	1.33705	0.17167
3272.70586	1.33744	0.17153
3271.20575	1.33782	0.1714
3269.70564	1.33819	0.17126
3268.20552	1.33856	0.17114
3266.70541	1.33894	0.17104
3265.2053	1.3393	0.17093
3263.70519	1.33967	0.17083
3262.20508	1.34005	0.17073
3260.70497	1.34042	0.17062
3259.20485	1.3408	0.17051
3257.70474	1.34118	0.1704
3256.20463	1.34156	0.17029
3254.70452	1.34194	0.17018
3253.20441	1.34231	0.17006
3251.70429	1.34269	0.16994
3250.20418	1.34307	0.16981
3248.70407	1.34344	0.16968
3247.20396	1.3438	0.16955
3245.70385	1.34417	0.16942
3244.20374	1.34453	0.1693
3242.70362	1.3449	0.16917
3241.20351	1.34527	0.16904
3239.7034	1.34563	0.1689
3238.20329	1.34599	0.16877
3236.70318	1.34635	0.16862
3235.20306	1.34671	0.16847
3233.70295	1.34707	0.16832
3232.20284	1.34742	0.16816
3230.70273	1.34776	0.168
3229.20262	1.3481	0.16783
3227.70251	1.34844	0.16766
3226.20239	1.34876	0.16749
3224.70228	1.34909	0.16731
3223.20217	1.3494	0.16713
3221.70206	1.34972	0.16696
3220.20195	1.35003	0.16679
3218.70183	1.35033	0.16662
3217.20172	1.35063	0.16645
3215.70161	1.35093	0.16629
3214.2015	1.35124	0.16611
3212.70139	1.35152	0.16594
3211.20128	1.35182	0.16576
3209.70116	1.3521	0.16558
3208.20105	1.35238	0.16539
3206.70094	1.35265	0.1652
3205.20083	1.35291	0.16501
3203.70072	1.35317	0.16481
3202.20061	1.35342	0.16462
3200.70049	1.35365	0.16442
3199.20038	1.35388	0.16425
3197.70027	1.35412	0.16407
3196.20016	1.35435	0.16391
3194.70005	1.35458	0.16375
3193.19993	1.35481	0.1636
3191.69982	1.35504	0.16345
3190.19971	1.35527	0.16328
3188.6996	1.35551	0.16312
3187.19949	1.35573	0.16294
3185.69938	1.35595	0.16274
3184.19926	1.35615	0.16255
3182.69915	1.35635	0.16236
3181.19904	1.35654	0.16218
3179.69893	1.35672	0.16201
3178.19882	1.35691	0.16186
3176.6987	1.35709	0.16171
3175.19859	1.35726	0.16157
3173.69848	1.35744	0.16141
3172.19837	1.35762	0.16126
3170.69826	1.35779	0.1611
3169.19815	1.35796	0.16095
3167.69803	1.35812	0.1608
3166.19792	1.35829	0.16066
3164.69781	1.35846	0.16054
3163.1977	1.35863	0.16043
3161.69759	1.35881	0.16031
3160.19747	1.35899	0.16019
3158.69736	1.35917	0.16006
3157.19725	1.35935	0.15991
3155.69714	1.35952	0.15975
3154.19703	1.35969	0.15958
3152.69692	1.35985	0.15941
3151.1968	1.35999	0.15925
3149.69669	1.36013	0.1591
3148.19658	1.36027	0.15895
3146.69647	1.3604	0.15881
3145.19636	1.36053	0.15867
3143.69624	1.36064	0.15853
3142.19613	1.36075	0.15839
3140.69602	1.36086	0.15824
3139.19591	1.36097	0.1581
3137.6958	1.36106	0.15796
3136.19569	1.36116	0.15785
3134.69557	1.36126	0.15774
3133.19546	1.36135	0.15766
3131.69535	1.36144	0.15757
3130.19524	1.36154	0.15748
3128.69513	1.36164	0.15739
3127.19501	1.36173	0.1573
3125.6949	1.36184	0.15721
3124.19479	1.36194	0.15712
3122.69468	1.36204	0.15705
3121.19457	1.36214	0.15697
3119.69446	1.36225	0.15691
3118.19434	1.36236	0.15685
3116.69423	1.36247	0.15679
3115.19412	1.36259	0.15672
3113.69401	1.3627	0.15664
3112.1939	1.36281	0.15656
3110.69378	1.36292	0.15647
3109.19367	1.36302	0.15637
3107.69356	1.36311	0.15626
3106.19345	1.36319	0.15616
3104.69334	1.36326	0.15608
3103.19323	1.36333	0.15601
3101.69311	1.3634	0.15595
3100.193	1.36349	0.15592
3098.69289	1.36356	0.15589
3097.19278	1.36365	0.15588
3095.69267	1.36374	0.15585
3094.19255	1.36384	0.15582
3092.69244	1.36395	0.15577
3091.19233	1.36405	0.15572
3089.69222	1.36415	0.15566
3088.19211	1.36424	0.1556
3086.692	1.36434	0.15554
3085.19188	1.36441	0.15549
3083.69177	1.3645	0.15544
3082.19166	1.36458	0.1554
3080.69155	1.36466	0.15537
3079.19144	1.36472	0.15533
3077.69132	1.3648	0.1553
3076.19121	1.36488	0.15528
3074.6911	1.36496	0.15526
3073.19099	1.36504	0.15524
3071.69088	1.36511	0.15522
3070.19077	1.36518	0.1552
3068.69065	1.36526	0.15518
3067.19054	1.36533	0.15516
3065.69043	1.3654	0.15515
3064.19032	1.36546	0.15515
3062.69021	1.36554	0.15518
3061.19009	1.36562	0.1552
3059.68998	1.36572	0.15524
3058.18987	1.36581	0.15527
3056.68976	1.36592	0.15531
3055.18965	1.36603	0.15533
3053.68954	1.36614	0.15535
3052.18942	1.36627	0.15536
3050.68931	1.36639	0.15536
3049.1892	1.3665	0.15535
3047.68909	1.36661	0.15535
3046.18898	1.36672	0.15534
3044.68886	1.36683	0.15534
3043.18875	1.36694	0.15535
3041.68864	1.36705	0.15537
3040.18853	1.36715	0.15538
3038.68842	1.36727	0.15539
3037.18831	1.36738	0.1554
3035.68819	1.36749	0.15541
3034.18808	1.3676	0.15541
3032.68797	1.36771	0.15541
3031.18786	1.36781	0.15541
3029.68775	1.3679	0.15541
3028.18763	1.36801	0.15543
3026.68752	1.3681	0.15544
3025.18741	1.36821	0.15548
3023.6873	1.36832	0.15553
3022.18719	1.36844	0.15558
3020.68708	1.36855	0.15562
3019.18696	1.36869	0.15566
3017.68685	1.36881	0.15569
3016.18674	1.36893	0.1557
3014.68663	1.36906	0.1557
3013.18652	1.36917	0.1557
3011.68641	1.36928	0.15571
3010.18629	1.36939	0.15572
3008.68618	1.3695	0.15576
3007.18607	1.36961	0.1558
3005.68596	1.36973	0.15588
3004.18585	1.36985	0.15595
3002.68573	1.37001	0.15604
3001.18562	1.37017	0.15612
2999.68551	1.37034	0.1562
2998.1854	1.37052	0.15623
2996.68529	1.3707	0.15626
2995.18518	1.37088	0.15626
2993.68506	1.37105	0.15624
2992.18495	1.37122	0.15622
2990.68484	1.37137	0.15619
2989.18473	1.37151	0.15618
2987.68462	1.37164	0.15617
2986.1845	1.37176	0.15617
2984.68439	1.37188	0.15619
2983.18428	1.372	0.1562
2981.68417	1.37213	0.15623
2980.18406	1.37225	0.15625
2978.68395	1.37238	0.15629
2977.18383	1.37251	0.15632
2975.68372	1.37265	0.15637
2974.18361	1.37279	0.15642
2972.6835	1.37293	0.15647
2971.18339	1.37308	0.1565
2969.68327	1.37323	0.15655
2968.18316	1.37339	0.1566
2966.68305	1.37355	0.15663
2965.18294	1.37372	0.15667
2963.68283	1.37388	0.1567
2962.18272	1.37404	0.15673
2960.6826	1.3742	0.15676
2959.18249	1.37436	0.15679
2957.68238	1.37452	0.15682
2956.18227	1.37468	0.15687
2954.68216	1.37486	0.15692
2953.18204	1.37504	0.15698
2951.68193	1.37523	0.15704
2950.18182	1.37542	0.1571
2948.68171	1.37562	0.15715
2947.1816	1.37583	0.15719
2945.68149	1.37605	0.15721
2944.18137	1.37625	0.15722
2942.68126	1.37645	0.15721
2941.18115	1.37664	0.15721
2939.68104	1.37683	0.15721
2938.18093	1.37704	0.15724
2936.68081	1.37724	0.15727
2935.1807	1.37746	0.15733
2933.68059	1.37769	0.15739
2932.18048	1.37792	0.15745
2930.68037	1.37819	0.15749
2929.18026	1.37846	0.1575
2927.68014	1.37874	0.15749
2926.18003	1.37903	0.15746
2924.67992	1.37932	0.15741
2923.17981	1.3796	0.15734
2921.6797	1.37987	0.15725
2920.17958	1.38012	0.15716
2918.67947	1.38036	0.15702
2917.17936	1.38057	0.15686
2915.67925	1.38076	0.15668
2914.17914	1.38092	0.15649
2912.67903	1.38104	0.15632
2911.17891	1.38115	0.15619
2909.6788	1.38124	0.15609
2908.17869	1.38133	0.15603
2906.67858	1.38142	0.156
2905.17847	1.38152	0.15599
2903.67835	1.38163	0.15599
2902.17824	1.38176	0.15599
2900.67813	1.3819	0.156
2899.17802	1.38205	0.15601
2897.67791	1.38222	0.156
2896.1778	1.38238	0.15599
2894.67768	1.38254	0.15595
2893.17757	1.38271	0.15591
2891.67746	1.38286	0.15588
2890.17735	1.38303	0.15584
2888.67724	1.38319	0.15583
2887.17712	1.38335	0.15582
2885.67701	1.38352	0.15583
2884.1769	1.3837	0.15584
2882.67679	1.38389	0.15585
2881.17668	1.38409	0.15585
2879.67657	1.38431	0.15584
2878.17645	1.38453	0.15583
2876.67634	1.38475	0.1558
2875.17623	1.38498	0.15575
2873.67612	1.38519	0.15568
2872.17601	1.3854	0.15559
2870.67589	1.38559	0.1555
2869.17578	1.38579	0.15541
2867.67567	1.38596	0.15533
2866.17556	1.38614	0.15526
2864.67545	1.38633	0.15521
2863.17534	1.38652	0.15519
2861.67522	1.38673	0.15518
2860.17511	1.38695	0.15515
2858.675	1.3872	0.15513
2857.17489	1.38746	0.15508
2855.67478	1.38773	0.15501
2854.17466	1.38798	0.1549
2852.67455	1.38822	0.15473
2851.17444	1.38844	0.15452
2849.67433	1.38862	0.15427
2848.17422	1.38877	0.15402
2846.67411	1.38888	0.15379
2845.17399	1.38897	0.1536
2843.67388	1.38905	0.15348
2842.17377	1.38913	0.15341
2840.67366	1.38921	0.15336
2839.17355	1.3893	0.15333
2837.67343	1.38941	0.15329
2836.17332	1.38952	0.15325
2834.67321	1.38966	0.1532
2833.1731	1.38981	0.15314
2831.67299	1.38998	0.1531
2830.17288	1.39015	0.15306
2828.67276	1.39033	0.15303
2827.17265	1.39051	0.15299
2825.67254	1.39071	0.15292
2824.17243	1.3909	0.15285
2822.67232	1.39109	0.15275
2821.17221	1.3913	0.15265
2819.67209	1.39149	0.15253
2818.17198	1.39168	0.15242
2816.67187	1.39186	0.15231
2815.17176	1.39205	0.15221
2813.67165	1.39224	0.15211
2812.17153	1.39243	0.15201
2810.67142	1.39263	0.1519
2809.17131	1.39283	0.15179
2807.6712	1.39303	0.15166
2806.17109	1.39323	0.15152
2804.67098	1.39343	0.15136
2803.17086	1.39362	0.15119
2801.67075	1.3938	0.15101
2800.17064	1.39399	0.15083
2798.67053	1.39416	0.15065
2797.17042	1.39433	0.15047
2795.6703	1.39448	0.15029
2794.17019	1.39464	0.15012
2792.67008	1.39479	0.14993
2791.16997	1.39493	0.14974
2789.66986	1.39507	0.14954
2788.16975	1.3952	0.14932
2786.66963	1.39531	0.1491
2785.16952	1.39543	0.14889
2783.66941	1.39553	0.1487
2782.1693	1.39564	0.14852
2780.66919	1.39574	0.14835
2779.16907	1.39583	0.14818
2777.66896	1.39594	0.14801
2776.16885	1.39604	0.14783
2774.66874	1.39615	0.14762
2773.16863	1.39625	0.14742
2771.66852	1.39634	0.14721
2770.1684	1.39642	0.14699
2768.66829	1.39649	0.14678
2767.16818	1.39657	0.14658
2765.66807	1.39663	0.14638
2764.16796	1.39669	0.14619
2762.66784	1.39674	0.146
2761.16773	1.3968	0.14582
2759.66762	1.39685	0.14563
2758.16751	1.39691	0.14545
2756.6674	1.39697	0.14526
2755.16729	1.39702	0.14507
2753.66717	1.39707	0.14488
2752.16706	1.39712	0.14468
2750.66695	1.39715	0.14447
2749.16684	1.39719	0.14425
2747.66673	1.39721	0.14404
2746.16661	1.39721	0.14382
2744.6665	1.39721	0.14361
2743.16639	1.3972	0.14341
2741.66628	1.39719	0.14322
2740.16617	1.39718	0.14306
2738.66606	1.39717	0.1429
2737.16594	1.39715	0.14275
2735.66583	1.39715	0.1426
2734.16572	1.39714	0.14243
2732.66561	1.39714	0.14226
2731.1655	1.39712	0.14209
2729.66538	1.39711	0.14191
2728.16527	1.39709	0.14173
2726.66516	1.39706	0.14156
2725.16505	1.39702	0.14139
2723.66494	1.39698	0.14122
2722.16483	1.39693	0.14108
2720.66471	1.39688	0.14093
2719.1646	1.39684	0.14081
2717.66449	1.3968	0.14068
2716.16438	1.39675	0.14057
2714.66427	1.3967	0.14044
2713.16415	1.39667	0.14032
2711.66404	1.39663	0.14019
2710.16393	1.39659	0.14007
2708.66382	1.39655	0.13995
2707.16371	1.3965	0.13983
2705.6636	1.39646	0.13972
2704.16348	1.39642	0.13962
2702.66337	1.39637	0.13951
2701.16326	1.39634	0.1394
2699.66315	1.39629	0.1393
2698.16304	1.39624	0.13919
2696.66292	1.39619	0.13907
2695.16281	1.39615	0.13898
2693.6627	1.3961	0.13887
2692.16259	1.39605	0.13878
2690.66248	1.39601	0.1387
2689.16237	1.39596	0.13864
2687.66225	1.39593	0.13857
2686.16214	1.39591	0.1385
2684.66203	1.39588	0.13842
2683.16192	1.39586	0.13835
2681.66181	1.39585	0.13826
2680.16169	1.39583	0.13815
2678.66158	1.39582	0.13805
2677.16147	1.39579	0.13793
2675.66136	1.39576	0.13781
2674.16125	1.39571	0.13769
2672.66114	1.39567	0.13758
2671.16102	1.39562	0.13746
2669.66091	1.39556	0.13736
2668.1608	1.39551	0.13726
2666.66069	1.39544	0.13716
2665.16058	1.39538	0.13708
2663.66046	1.39533	0.13699
2662.16035	1.39527	0.1369
2660.66024	1.39521	0.13682
2659.16013	1.39514	0.13673
2657.66002	1.39507	0.13663
2656.15991	1.39499	0.13653
2654.65979	1.39492	0.13644
2653.15968	1.39483	0.13636
2651.65957	1.39475	0.13628
2650.15946	1.39467	0.13623
2648.65935	1.39459	0.13618
2647.15923	1.39453	0.13614
2645.65912	1.39445	0.13611
2644.15901	1.39439	0.13606
2642.6589	1.39433	0.13601
2641.15879	1.39427	0.13595
2639.65868	1.39421	0.13587
2638.15856	1.39413	0.13578
2636.65845	1.39405	0.1357
2635.15834	1.39396	0.13563
2633.65823	1.39387	0.13557
2632.15812	1.39378	0.13552
2630.658	1.39367	0.13548
2629.15789	1.39358	0.13546
2627.65778	1.39349	0.13544
2626.15767	1.39339	0.13543
2624.65756	1.39331	0.13542
2623.15745	1.39322	0.1354
2621.65733	1.39314	0.1354
2620.15722	1.39308	0.13539
2618.65711	1.393	0.13538
2617.157	1.39292	0.13536
2615.65689	1.39285	0.13535
2614.15678	1.39279	0.13535
2612.65666	1.39272	0.13536
2611.15655	1.39265	0.13536
2609.65644	1.39259	0.13538
2608.15633	1.39253	0.13538
2606.65622	1.39247	0.13539
2605.1561	1.39241	0.13539
2603.65599	1.39236	0.13539
2602.15588	1.3923	0.13539
2600.65577	1.39225	0.13541
2599.15566	1.3922	0.13543
2597.65555	1.39216	0.13546
2596.15543	1.39212	0.1355
2594.65532	1.39209	0.13553
2593.15521	1.39206	0.13555
2591.6551	1.39205	0.13556
2590.15499	1.39203	0.13558
2588.65487	1.39201	0.13559
2587.15476	1.392	0.1356
2585.65465	1.39198	0.1356
2584.15454	1.39197	0.13561
2582.65443	1.39196	0.13562
2581.15432	1.39196	0.13562
2579.6542	1.39195	0.13562
2578.15409	1.39195	0.13563
2576.65398	1.39195	0.13562
2575.15387	1.39195	0.13561
2573.65376	1.39195	0.13559
2572.15364	1.39195	0.13557
2570.65353	1.39194	0.13555
2569.15342	1.39194	0.13552
2567.65331	1.39194	0.1355
2566.1532	1.39193	0.13547
2564.65309	1.39193	0.13545
2563.15297	1.39193	0.13542
2561.65286	1.39192	0.13539
2560.15275	1.39191	0.13535
2558.65264	1.39189	0.1353
2557.15253	1.39188	0.13524
2555.65241	1.39185	0.13518
2554.1523	1.39182	0.13512
2552.65219	1.39178	0.13506
2551.15208	1.39174	0.13502
2549.65197	1.3917	0.13498
2548.15186	1.39165	0.13495
2546.65174	1.39162	0.13492
2545.15163	1.39157	0.13489
2543.65152	1.39152	0.13486
2542.15141	1.39148	0.13482
2540.6513	1.39143	0.13478
2539.15118	1.39139	0.13474
2537.65107	1.39135	0.1347
2536.15096	1.3913	0.13467
2534.65085	1.39124	0.13463
2533.15074	1.39119	0.13459
2531.65063	1.39112	0.13454
2530.15051	1.39106	0.1345
2528.6504	1.39099	0.13446
2527.15029	1.39091	0.13441
2525.65018	1.39083	0.13436
2524.15007	1.39074	0.13433
2522.64995	1.39065	0.13432
2521.14984	1.39056	0.13431
2519.64973	1.39047	0.13431
2518.14962	1.39038	0.13433
2516.64951	1.3903	0.13433
2515.1494	1.39022	0.13435
2513.64928	1.39014	0.13435
2512.14917	1.39006	0.13435
2510.64906	1.38998	0.13436
2509.14895	1.3899	0.13437
2507.64884	1.38982	0.1344
2506.14872	1.38974	0.13442
2504.64861	1.38967	0.13447
2503.1485	1.38961	0.13452
2501.64839	1.38955	0.13456
2500.14828	1.3895	0.1346
2498.64817	1.38944	0.13465
2497.14805	1.3894	0.13468
2495.64794	1.38936	0.13472
2494.14783	1.38932	0.13475
2492.64772	1.38929	0.13478
2491.14761	1.38926	0.13482
2489.64749	1.38924	0.13487
2488.14738	1.38921	0.1349
2486.64727	1.3892	0.13494
2485.14716	1.38917	0.13496
2483.64705	1.38916	0.13498
2482.14694	1.38914	0.13498
2480.64682	1.38912	0.13498
2479.14671	1.3891	0.13499
2477.6466	1.38908	0.135
2476.14649	1.38906	0.13501
2474.64638	1.38903	0.13503
2473.14626	1.38902	0.13504
2471.64615	1.389	0.13506
2470.14604	1.38899	0.13507
2468.64593	1.38897	0.13506
2467.14582	1.38895	0.13505
2465.64571	1.38894	0.13505
2464.14559	1.38891	0.13503
2462.64548	1.3889	0.13503
2461.14537	1.38888	0.13502
2459.64526	1.38886	0.13502
2458.14515	1.38884	0.13501
2456.64503	1.38883	0.135
2455.14492	1.38881	0.13498
2453.64481	1.38879	0.13495
2452.1447	1.38877	0.13491
2450.64459	1.38874	0.13487
2449.14448	1.38869	0.13482
2447.64436	1.38866	0.13478
2446.14425	1.38861	0.13474
2444.64414	1.38857	0.13472
2443.14403	1.38852	0.13469
2441.64392	1.38847	0.13466
2440.1438	1.38842	0.13462
2438.64369	1.38837	0.13459
2437.14358	1.38831	0.13454
2435.64347	1.38825	0.13449
2434.14336	1.38818	0.13444
2432.64325	1.38811	0.13439
2431.14313	1.38803	0.13434
2429.64302	1.38796	0.1343
2428.14291	1.38787	0.13426
2426.6428	1.38777	0.13422
2425.14269	1.38768	0.13418
2423.64258	1.38757	0.13413
2422.14246	1.38746	0.13408
2420.64235	1.38734	0.13404
2419.14224	1.38722	0.13399
2417.64213	1.38708	0.13396
2416.14202	1.38694	0.13394
2414.6419	1.3868	0.13394
2413.14179	1.38666	0.13395
2411.64168	1.38652	0.13396
2410.14157	1.38638	0.13398
2408.64146	1.38625	0.134
2407.14135	1.38611	0.13403
2405.64123	1.38598	0.13405
2404.14112	1.38584	0.13407
2402.64101	1.38571	0.13409
2401.1409	1.38556	0.13412
2399.64079	1.38542	0.13415
2398.14067	1.38527	0.13419
2396.64056	1.38513	0.13423
2395.14045	1.38497	0.13428
2393.64034	1.38481	0.13433
2392.14023	1.38464	0.13438
2390.64012	1.38446	0.13444
2389.14	1.38427	0.1345
2387.63989	1.38406	0.13457
2386.13978	1.38386	0.13468
2384.63967	1.38366	0.13483
2383.13956	1.38347	0.13502
2381.63944	1.3833	0.13526
2380.13933	1.38317	0.13556
2378.63922	1.3831	0.13588
2377.13911	1.38308	0.13623
2375.639	1.38312	0.13657
2374.13889	1.3832	0.13689
2372.63877	1.38335	0.13718
2371.13866	1.38353	0.1374
2369.63855	1.38377	0.13758
2368.13844	1.38401	0.13767
2366.63833	1.38425	0.1377
2365.13821	1.38446	0.13765
2363.6381	1.38465	0.13752
2362.13799	1.38476	0.13731
2360.63788	1.3848	0.13703
2359.13777	1.38473	0.13671
2357.63766	1.38458	0.1364
2356.13754	1.38438	0.13615
2354.63743	1.38414	0.13603
2353.13732	1.3839	0.13606
2351.63721	1.38369	0.13624
2350.1371	1.38353	0.13657
2348.63698	1.38347	0.13695
2347.13687	1.38351	0.13731
2345.63676	1.38365	0.13757
2344.13665	1.38382	0.13772
2342.63654	1.38401	0.13771
2341.13643	1.38419	0.13758
2339.63631	1.38435	0.13735
2338.1362	1.38444	0.13706
2336.63609	1.38446	0.13676
2335.13598	1.38441	0.13645
2333.63587	1.38428	0.13618
2332.13575	1.38409	0.13594
2330.63564	1.38386	0.13574
2329.13553	1.3836	0.13558
2327.63542	1.3833	0.13546
2326.13531	1.383	0.13538
2324.6352	1.38268	0.13533
2323.13508	1.38236	0.13532
2321.63497	1.38203	0.13536
2320.13486	1.38171	0.13543
2318.63475	1.38141	0.13555
2317.13464	1.38112	0.13569
2315.63452	1.38084	0.13584
2314.13441	1.38058	0.13601
2312.6343	1.38034	0.13621
2311.13419	1.38013	0.13642
2309.63408	1.37993	0.13665
2308.13397	1.37977	0.1369
2306.63385	1.37962	0.13716
2305.13374	1.37951	0.13742
2303.63363	1.37942	0.13766
2302.13352	1.37935	0.13789
2300.63341	1.37929	0.13811
2299.13329	1.37925	0.13831
2297.63318	1.37923	0.13851
2296.13307	1.3792	0.13869
2294.63296	1.37919	0.13885
2293.13285	1.37916	0.13901
2291.63274	1.37914	0.13916
2290.13262	1.37913	0.1393
2288.63251	1.3791	0.13944
2287.1324	1.37909	0.13958
2285.63229	1.37907	0.13972
2284.13218	1.37906	0.13986
2282.63206	1.37906	0.14001
2281.13195	1.37906	0.14016
2279.63184	1.37906	0.14029
2278.13173	1.37907	0.14041
2276.63162	1.37907	0.14052
2275.13151	1.37908	0.14062
2273.63139	1.37908	0.1407
2272.13128	1.37907	0.14077
2270.63117	1.37906	0.14085
2269.13106	1.37904	0.14093
2267.63095	1.37901	0.14103
2266.13083	1.37899	0.14113
2264.63072	1.37897	0.14124
2263.13061	1.37895	0.14135
2261.6305	1.37892	0.14147
2260.13039	1.37891	0.14158
2258.63028	1.3789	0.14168
2257.13016	1.3789	0.14179
2255.63005	1.37889	0.14191
2254.12994	1.37889	0.14203
2252.62983	1.37891	0.14216
2251.12972	1.37893	0.1423
2249.6296	1.37898	0.14244
2248.12949	1.37902	0.14257
2246.62938	1.37908	0.14268
2245.12927	1.37914	0.14277
2243.62916	1.37922	0.14285
2242.12905	1.3793	0.14291
2240.62893	1.37937	0.14296
2239.12882	1.37943	0.14299
2237.62871	1.3795	0.14302
2236.1286	1.37956	0.14305
2234.62849	1.37961	0.14307
2233.12838	1.37966	0.14307
2231.62826	1.37971	0.14307
2230.12815	1.37975	0.14307
2228.62804	1.37978	0.14307
2227.12793	1.37981	0.14306
2225.62782	1.37984	0.14305
2224.1277	1.37987	0.14303
2222.62759	1.37988	0.14302
2221.12748	1.3799	0.143
2219.62737	1.3799	0.14295
2218.12726	1.3799	0.14291
2216.62715	1.3799	0.14288
2215.12703	1.37989	0.14284
2213.62692	1.37988	0.14281
2212.12681	1.37987	0.14279
2210.6267	1.37985	0.14276
2209.12659	1.37983	0.14274
2207.62647	1.37981	0.14271
2206.12636	1.3798	0.14266
2204.62625	1.37977	0.14259
2203.12614	1.37974	0.14253
2201.62603	1.37969	0.14245
2200.12592	1.37963	0.14238
2198.6258	1.37957	0.1423
2197.12569	1.3795	0.14224
2195.62558	1.37942	0.14219
2194.12547	1.37932	0.14214
2192.62536	1.37923	0.14209
2191.12524	1.37914	0.14204
2189.62513	1.37903	0.14201
2188.12502	1.37894	0.14196
2186.62491	1.37883	0.14192
2185.1248	1.37871	0.14188
2183.62469	1.3786	0.14185
2182.12457	1.37848	0.14182
2180.62446	1.37836	0.14179
2179.12435	1.37823	0.14177
2177.62424	1.37811	0.14175
2176.12413	1.37797	0.14175
2174.62401	1.37785	0.14174
2173.1239	1.37773	0.14175
2171.62379	1.37761	0.14175
2170.12368	1.3775	0.14176
2168.62357	1.37738	0.14176
2167.12346	1.37726	0.14176
2165.62334	1.37714	0.14175
2164.12323	1.37703	0.14174
2162.62312	1.3769	0.14173
2161.12301	1.37678	0.14172
2159.6229	1.37665	0.14172
2158.12278	1.37652	0.14172
2156.62267	1.37639	0.14172
2155.12256	1.37626	0.14172
2153.62245	1.37612	0.14172
2152.12234	1.37599	0.14172
2150.62223	1.37585	0.14172
2149.12211	1.37571	0.14173
2147.622	1.37558	0.14175
2146.12189	1.37544	0.14177
2144.62178	1.37532	0.1418
2143.12167	1.3752	0.14183
2141.62155	1.37508	0.14184
2140.12144	1.37497	0.14186
2138.62133	1.37486	0.14186
2137.12122	1.37474	0.14184
2135.62111	1.37462	0.14183
2134.121	1.3745	0.14181
2132.62088	1.37437	0.14178
2131.12077	1.37424	0.14176
2129.62066	1.3741	0.14173
2128.12055	1.37396	0.14169
2126.62044	1.37381	0.14166
2125.12032	1.37365	0.14162
2123.62021	1.37349	0.14159
2122.1201	1.37333	0.14156
2120.61999	1.37316	0.14153
2119.11988	1.37298	0.14149
2117.61977	1.37279	0.14146
2116.11965	1.37262	0.14143
2114.61954	1.37243	0.14139
2113.11943	1.37223	0.14136
2111.61932	1.37203	0.14133
2110.11921	1.37182	0.14129
2108.61909	1.37161	0.14125
2107.11898	1.37139	0.14122
2105.61887	1.37117	0.14119
2104.11876	1.37095	0.14117
2102.61865	1.37071	0.14114
2101.11854	1.37048	0.14113
2099.61842	1.37024	0.1411
2098.11831	1.36999	0.14107
2096.6182	1.36974	0.14104
2095.11809	1.36948	0.14101
2093.61798	1.3692	0.14097
2092.11786	1.36892	0.14094
2090.61775	1.36862	0.14092
2089.11764	1.36832	0.14091
2087.61753	1.36802	0.14091
2086.11742	1.36771	0.14093
2084.61731	1.36739	0.14095
2083.11719	1.36706	0.14098
2081.61708	1.36675	0.14101
2080.11697	1.36642	0.14104
2078.61686	1.3661	0.14107
2077.11675	1.36578	0.14111
2075.61663	1.36544	0.14116
2074.11652	1.3651	0.14121
2072.61641	1.36475	0.14127
2071.1163	1.36441	0.14134
2069.61619	1.36406	0.14142
2068.11608	1.36371	0.14149
2066.61596	1.36335	0.14157
2065.11585	1.36299	0.14167
2063.61574	1.36262	0.14178
2062.11563	1.36226	0.1419
2060.61552	1.36192	0.14203
2059.1154	1.36156	0.14217
2057.61529	1.36121	0.14232
2056.11518	1.36087	0.14247
2054.61507	1.36053	0.14262
2053.11496	1.3602	0.14279
2051.61485	1.35987	0.14295
2050.11473	1.35953	0.1431
2048.61462	1.35921	0.14325
2047.11451	1.35888	0.14341
2045.6144	1.35855	0.14356
2044.11429	1.35822	0.14372
2042.61418	1.35789	0.14388
2041.11406	1.35756	0.14405
2039.61395	1.35724	0.14424
2038.11384	1.35691	0.1444
2036.61373	1.35658	0.14457
2035.11362	1.35626	0.14473
2033.6135	1.35592	0.1449
2032.11339	1.35558	0.14506
2030.61328	1.35525	0.14523
2029.11317	1.35491	0.1454
2027.61306	1.35456	0.14558
2026.11295	1.35422	0.14574
2024.61283	1.35385	0.14591
2023.11272	1.35349	0.14608
2021.61261	1.35313	0.14627
2020.1125	1.35276	0.14648
2018.61239	1.35241	0.14671
2017.11227	1.35205	0.14693
2015.61216	1.35169	0.14716
2014.11205	1.35134	0.14737
2012.61194	1.35098	0.14757
2011.11183	1.35063	0.14777
2009.61172	1.35026	0.14796
2008.1116	1.34989	0.14817
2006.61149	1.34952	0.14837
2005.11138	1.34914	0.14859
2003.61127	1.34876	0.14881
2002.11116	1.34835	0.14902
2000.61104	1.34794	0.14924
1999.11093	1.34752	0.14945
1997.61082	1.3471	0.14967
1996.11071	1.34667	0.14989
1994.6106	1.34622	0.15014
1993.11049	1.34576	0.15041
1991.61037	1.34531	0.1507
1990.11026	1.34488	0.15103
1988.61015	1.34444	0.15136
1987.11004	1.34401	0.15169
1985.60993	1.34359	0.15203
1984.10981	1.34317	0.15235
1982.6097	1.34276	0.15268
1981.10959	1.34235	0.153
1979.60948	1.34193	0.15332
1978.10937	1.3415	0.15363
1976.60926	1.34105	0.15395
1975.10914	1.34058	0.15425
1973.60903	1.34011	0.15456
1972.10892	1.33962	0.1549
1970.60881	1.33913	0.15525
1969.1087	1.33862	0.15564
1967.60858	1.33812	0.15607
1966.10847	1.33763	0.15654
1964.60836	1.33716	0.15704
1963.10825	1.3367	0.15753
1961.60814	1.33626	0.15803
1960.10803	1.33581	0.15852
1958.60791	1.33539	0.15899
1957.1078	1.33496	0.15945
1955.60769	1.33452	0.1599
1954.10758	1.33408	0.16037
1952.60747	1.33361	0.16084
1951.10735	1.33313	0.16131
1949.60724	1.33265	0.16179
1948.10713	1.33216	0.16231
1946.60702	1.33167	0.16286
1945.10691	1.3312	0.16346
1943.6068	1.33073	0.16409
1942.10668	1.33028	0.16477
1940.60657	1.32987	0.16546
1939.10646	1.32948	0.16615
1937.60635	1.32912	0.16681
1936.10624	1.32877	0.16745
1934.60612	1.32841	0.16807
1933.10601	1.32807	0.16869
1931.6059	1.32771	0.16929
1930.10579	1.32734	0.16988
1928.60568	1.32696	0.17047
1927.10557	1.32654	0.17107
1925.60545	1.32612	0.17168
1924.10534	1.32569	0.17233
1922.60523	1.32528	0.17303
1921.10512	1.32488	0.17379
1919.60501	1.32449	0.17459
1918.10489	1.32413	0.17542
1916.60478	1.32379	0.17626
1915.10467	1.32349	0.1771
1913.60456	1.32321	0.1779
1912.10445	1.32294	0.17868
1910.60434	1.32269	0.17947
1909.10422	1.32244	0.18025
1907.60411	1.32221	0.18104
1906.104	1.32199	0.18183
1904.60389	1.32176	0.18261
1903.10378	1.32153	0.1834
1901.60366	1.32131	0.18418
1900.10355	1.32107	0.18494
1898.60344	1.32084	0.1857
1897.10333	1.32059	0.18647
1895.60322	1.32033	0.18725
1894.10311	1.32008	0.18807
1892.60299	1.31985	0.18891
1891.10288	1.31962	0.18979
1889.60277	1.31941	0.19072
1888.10266	1.31923	0.19169
1886.60255	1.3191	0.19265
1885.10243	1.31899	0.19359
1883.60232	1.31891	0.19451
1882.10221	1.31883	0.19539
1880.6021	1.31874	0.19623
1879.10199	1.31864	0.19703
1877.60188	1.3185	0.19781
1876.10176	1.31833	0.19856
1874.60165	1.31813	0.19932
1873.10154	1.31793	0.20014
1871.60143	1.3177	0.20103
1870.10132	1.31747	0.20203
1868.6012	1.3173	0.20315
1867.10109	1.31718	0.20436
1865.60098	1.31715	0.20559
1864.10087	1.31717	0.20679
1862.60076	1.31723	0.20793
1861.10065	1.31733	0.20901
1859.60053	1.31747	0.21001
1858.10042	1.31762	0.21097
1856.60031	1.31777	0.2119
1855.1002	1.31788	0.2128
1853.60009	1.31793	0.21368
1852.09997	1.31795	0.21452
1850.59986	1.31794	0.21537
1849.09975	1.31793	0.21627
1847.59964	1.31792	0.21727
1846.09953	1.31791	0.21837
1844.59942	1.31795	0.2196
1843.0993	1.31807	0.22093
1841.59919	1.31827	0.22226
1840.09908	1.31851	0.22354
1838.59897	1.31877	0.22471
1837.09886	1.31904	0.22576
1835.59875	1.31931	0.22673
1834.09863	1.31958	0.22765
1832.59852	1.31982	0.22858
1831.09841	1.32004	0.2296
1829.5983	1.32026	0.23076
1828.09819	1.32053	0.23203
1826.59807	1.32084	0.23336
1825.09796	1.32124	0.23472
1823.59785	1.3217	0.23607
1822.09774	1.32222	0.23737
1820.59763	1.32279	0.23856
1819.09752	1.32338	0.23965
1817.5974	1.32399	0.24067
1816.09729	1.32461	0.24166
1814.59718	1.32521	0.24263
1813.09707	1.32581	0.24362
1811.59696	1.32639	0.24464
1810.09684	1.32696	0.24567
1808.59673	1.32754	0.24669
1807.09662	1.32814	0.24769
1805.59651	1.32874	0.24866
1804.0964	1.32934	0.24962
1802.59629	1.3299	0.25059
1801.09617	1.33046	0.25158
1799.59606	1.33103	0.25259
1798.09595	1.33165	0.25364
1796.59584	1.33229	0.25471
1795.09573	1.33296	0.25585
1793.59561	1.33365	0.25701
1792.0955	1.33439	0.25824
1790.59539	1.33524	0.2595
1789.09528	1.33617	0.26074
1787.59517	1.33715	0.26188
1786.09506	1.33816	0.26294
1784.59494	1.3392	0.26393
1783.09483	1.34023	0.26484
1781.59472	1.34125	0.26566
1780.09461	1.34224	0.26644
1778.5945	1.34319	0.26719
1777.09438	1.34412	0.26793
1775.59427	1.34502	0.26868
1774.09416	1.34592	0.2695
1772.59405	1.34683	0.27047
1771.09394	1.34781	0.27156
1769.59383	1.34887	0.27272
1768.09371	1.35002	0.27391
1766.5936	1.35127	0.27504
1765.09349	1.35258	0.27605
1763.59338	1.35393	0.27692
1762.09327	1.35534	0.27769
1760.59315	1.35674	0.27841
1759.09304	1.35813	0.27904
1757.59293	1.35947	0.27958
1756.09282	1.36078	0.28008
1754.59271	1.36208	0.28056
1753.0926	1.36334	0.28103
1751.59248	1.36458	0.28157
1750.09237	1.36585	0.28224
1748.59226	1.36718	0.28304
1747.09215	1.36862	0.28388
1745.59204	1.37014	0.28469
1744.09192	1.37167	0.28543
1742.59181	1.3732	0.28601
1741.0917	1.37475	0.28639
1739.59159	1.37632	0.28665
1738.09148	1.37792	0.28689
1736.59137	1.37953	0.28718
1735.09125	1.38114	0.28756
1733.59114	1.3828	0.28813
1732.09103	1.38461	0.28883
1730.59092	1.38657	0.28948
1729.09081	1.38861	0.28997
1727.59069	1.39065	0.2902
1726.09058	1.39263	0.29004
1724.59047	1.39453	0.2895
1723.09036	1.39636	0.28874
1721.59025	1.39809	0.28794
1720.09014	1.39971	0.28724
1718.59002	1.40124	0.28679
1717.08991	1.40275	0.28667
1715.5898	1.40436	0.28676
1714.08969	1.40608	0.28687
1712.58958	1.40789	0.28679
1711.08946	1.40972	0.28642
1709.58935	1.41147	0.28567
1708.08924	1.41312	0.28456
1706.58913	1.41463	0.28324
1705.08902	1.416	0.28193
1703.58891	1.41725	0.28074
1702.08879	1.41841	0.27977
1700.58868	1.41951	0.27913
1699.08857	1.42067	0.27881
1697.58846	1.42198	0.27864
1696.08835	1.42342	0.27841
1694.58823	1.42491	0.27803
1693.08812	1.4264	0.27729
1691.58801	1.42782	0.27607
1690.0879	1.42916	0.27453
1688.58779	1.43041	0.27291
1687.08768	1.43151	0.27137
1685.58756	1.43246	0.27004
1684.08745	1.43332	0.26904
1682.58734	1.43419	0.26834
1681.08723	1.43514	0.26769
1679.58712	1.43609	0.26691
1678.087	1.43702	0.26591
1676.58689	1.43794	0.26472
1675.08678	1.43886	0.26342
1673.58667	1.43979	0.26215
1672.08656	1.44072	0.26095
1670.58645	1.44157	0.25986
1669.08633	1.44242	0.2589
1667.58622	1.44335	0.25798
1666.08611	1.44434	0.25696
1664.586	1.44527	0.25573
1663.08589	1.44606	0.2543
1661.58577	1.44672	0.25265
1660.08566	1.4473	0.25076
1658.58555	1.44774	0.2488
1657.08544	1.44798	0.24692
1655.58533	1.44797	0.24521
1654.08522	1.44784	0.24381
1652.5851	1.44779	0.24287
1651.08499	1.44795	0.24228
1649.58488	1.44827	0.24181
1648.08477	1.44866	0.24136
1646.58466	1.44912	0.24087
1645.08455	1.4497	0.24015
1643.58443	1.4504	0.23902
1642.08432	1.45115	0.23757
1640.58421	1.45183	0.236
1639.0841	1.45236	0.2344
1637.58399	1.45277	0.23284
1636.08387	1.45315	0.23143
1634.58376	1.45354	0.2302
1633.08365	1.45394	0.22901
1631.58354	1.45431	0.22767
1630.08343	1.45462	0.22612
1628.58332	1.45485	0.22444
1627.0832	1.45503	0.22264
1625.58309	1.45512	0.22076
1624.08298	1.45512	0.2189
1622.58287	1.45503	0.21715
1621.08276	1.45485	0.21551
1619.58264	1.45461	0.2139
1618.08253	1.45431	0.2123
1616.58242	1.45397	0.21076
1615.08231	1.45363	0.20928
1613.5822	1.45331	0.20776
1612.08209	1.45295	0.20617
1610.58197	1.45251	0.20453
1609.08186	1.452	0.20287
1607.58175	1.45143	0.2012
1606.08164	1.45081	0.1995
1604.58153	1.45012	0.19786
1603.08141	1.44934	0.19626
1601.5813	1.44847	0.1947
1600.08119	1.44755	0.19317
1598.58108	1.44657	0.19167
1597.08097	1.44556	0.19023
1595.58086	1.4445	0.18885
1594.08074	1.44341	0.18754
1592.58063	1.44232	0.18629
1591.08052	1.44121	0.18508
1589.58041	1.44008	0.1839
1588.0803	1.43891	0.18272
1586.58018	1.43768	0.18151
1585.08007	1.43637	0.18025
1583.57996	1.43502	0.17898
1582.07985	1.43361	0.17774
1580.57974	1.43212	0.1766
1579.07963	1.43056	0.17558
1577.57951	1.42895	0.17468
1576.0794	1.42735	0.17398
1574.57929	1.42582	0.17342
1573.07918	1.42437	0.17293
1571.57907	1.42295	0.17243
1570.07895	1.42146	0.17192
1568.57884	1.4199	0.17136
1567.07873	1.4183	0.17063
1565.57862	1.41666	0.16976
1564.07851	1.41496	0.16896
1562.5784	1.41319	0.16836
1561.07828	1.41134	0.16799
1559.57817	1.4095	0.16801
1558.07806	1.40786	0.16848
1556.57795	1.40647	0.16915
1555.07784	1.40525	0.16977
1553.57772	1.40411	0.17018
1552.07761	1.40299	0.17029
1550.5775	1.40183	0.17003
1549.07739	1.40063	0.16947
1547.57728	1.39938	0.16882
1546.07717	1.398	0.16826
1544.57705	1.39646	0.16799
1543.07694	1.39485	0.16806
1541.57683	1.39325	0.16843
1540.07672	1.3918	0.16905
1538.57661	1.39052	0.16983
1537.07649	1.3894	0.17055
1535.57638	1.38837	0.17106
1534.07627	1.38737	0.17135
1532.57616	1.38639	0.17148
1531.07605	1.38542	0.17145
1529.57594	1.38438	0.17129
1528.07582	1.38322	0.17112
1526.57571	1.38194	0.17107
1525.0756	1.38059	0.17116
1523.57549	1.37925	0.17138
1522.07538	1.37795	0.1718
1520.57526	1.37672	0.17243
1519.07515	1.37554	0.17313
1517.57504	1.37437	0.17376
1516.07493	1.37322	0.17426
1514.57482	1.37209	0.17459
1513.07471	1.37099	0.17481
1511.57459	1.36989	0.17505
1510.07448	1.36879	0.17546
1508.57437	1.36768	0.1761
1507.07426	1.36662	0.17702
1505.57415	1.36575	0.1781
1504.07403	1.36505	0.17915
1502.57392	1.36444	0.17998
1501.07381	1.36383	0.18058
1499.5737	1.3632	0.18094
1498.07359	1.36252	0.18106
1496.57348	1.36183	0.1811
1495.07336	1.3611	0.18117
1493.57325	1.36028	0.18134
1492.07314	1.35937	0.18164
1490.57303	1.35841	0.1821
1489.07292	1.35753	0.18274
1487.5728	1.35675	0.18343
1486.07269	1.35605	0.18408
1484.57258	1.35536	0.18459
1483.07247	1.35461	0.18491
1481.57236	1.3538	0.18504
1480.07225	1.35294	0.18503
1478.57213	1.35205	0.18503
1477.07202	1.35111	0.18516
1475.57191	1.35009	0.1855
1474.0718	1.34905	0.18605
1472.57169	1.34807	0.18674
1471.07157	1.3472	0.18752
1469.57146	1.34641	0.18825
1468.07135	1.34561	0.18881
1466.57124	1.34475	0.18916
1465.07113	1.34382	0.18932
1463.57102	1.34287	0.18941
1462.0709	1.34189	0.18952
1460.57079	1.34084	0.18976
1459.07068	1.3397	0.19024
1457.57057	1.33853	0.19098
1456.07046	1.33747	0.19194
1454.57035	1.33656	0.19297
1453.07023	1.33578	0.19395
1451.57012	1.33506	0.19482
1450.07001	1.33438	0.19554
1448.5699	1.33374	0.1961
1447.06979	1.3331	0.19655
1445.56967	1.33245	0.19693
1444.06956	1.33171	0.19722
1442.56945	1.33088	0.19748
1441.06934	1.32998	0.19776
1439.56923	1.32901	0.19806
1438.06912	1.32798	0.19843
1436.569	1.32695	0.19895
1435.06889	1.32595	0.19961
1433.56878	1.32498	0.20032
1432.06867	1.32401	0.20102
1430.56856	1.32305	0.20167
1429.06844	1.32207	0.20228
1427.56833	1.32106	0.20278
1426.06822	1.32004	0.20321
1424.56811	1.31898	0.20364
1423.068	1.31789	0.20418
1421.56789	1.31679	0.20484
1420.06777	1.31567	0.20561
1418.56766	1.3146	0.20656
1417.06755	1.31362	0.20762
1415.56744	1.31273	0.20867
1414.06733	1.31189	0.20963
1412.56721	1.31107	0.21045
1411.0671	1.31026	0.21114
1409.56699	1.30944	0.21172
1408.06688	1.30859	0.21221
1406.56677	1.30765	0.21268
1405.06666	1.30661	0.21316
1403.56654	1.30549	0.21369
1402.06643	1.30433	0.21426
1400.56632	1.30313	0.2149
1399.06621	1.3019	0.21564
1397.5661	1.30067	0.21651
1396.06598	1.29943	0.21746
1394.56587	1.29823	0.21846
1393.06576	1.2971	0.21951
1391.56565	1.29599	0.22054
1390.06554	1.29489	0.22153
1388.56543	1.2938	0.22249
1387.06531	1.29273	0.22347
1385.5652	1.29166	0.22445
1384.06509	1.29058	0.22542
1382.56498	1.28947	0.22635
1381.06487	1.28832	0.22727
1379.56475	1.28714	0.22821
1378.06464	1.28593	0.22916
1376.56453	1.28471	0.23014
1375.06442	1.28348	0.23123
1373.56431	1.28224	0.23239
1372.0642	1.28097	0.23362
1370.56408	1.27971	0.23485
1369.06397	1.27844	0.23607
1367.56386	1.27718	0.23731
1366.06375	1.27593	0.23859
1364.56364	1.27469	0.23992
1363.06352	1.27345	0.24135
1361.56341	1.27226	0.2429
1360.0633	1.27112	0.24453
1358.56319	1.27003	0.24617
1357.06308	1.26898	0.2478
1355.56297	1.26797	0.24941
1354.06285	1.267	0.25098
1352.56274	1.26606	0.25254
1351.06263	1.26514	0.25408
1349.56252	1.26421	0.2556
1348.06241	1.26325	0.25713
1346.56229	1.26227	0.25862
1345.06218	1.26128	0.26012
1343.56207	1.2603	0.26166
1342.06196	1.25932	0.26326
1340.56185	1.25836	0.26496
1339.06174	1.25743	0.26679
1337.56162	1.25657	0.2687
1336.06151	1.25579	0.27067
1334.5614	1.25509	0.27261
1333.06129	1.25445	0.27451
1331.56118	1.25387	0.27634
1330.06106	1.25334	0.27809
1328.56095	1.25284	0.27975
1327.06084	1.25235	0.28137
1325.56073	1.25187	0.28294
1324.06062	1.25137	0.28448
1322.56051	1.25086	0.28599
1321.06039	1.25034	0.28749
1319.56028	1.24982	0.28897
1318.06017	1.24931	0.29044
1316.56006	1.24879	0.29191
1315.05995	1.24827	0.29334
1313.55983	1.24774	0.29473
1312.05972	1.24721	0.29608
1310.55961	1.24665	0.29737
1309.0595	1.24607	0.29857
1307.55939	1.24544	0.29971
1306.05928	1.24474	0.30078
1304.55916	1.24398	0.3018
1303.05905	1.24314	0.30277
1301.55894	1.24222	0.30372
1300.05883	1.24119	0.30464
1298.55872	1.24007	0.30555
1297.0586	1.23882	0.30646
1295.55849	1.23748	0.30737
1294.05838	1.23602	0.3083
1292.55827	1.23445	0.30925
1291.05816	1.23276	0.31023
1289.55805	1.23094	0.31125
1288.05793	1.229	0.31234
1286.55782	1.22693	0.31349
1285.05771	1.22474	0.31472
1283.5576	1.22243	0.31605
1282.05749	1.21999	0.3175
1280.55737	1.21745	0.31905
1279.05726	1.21478	0.32075
1277.55715	1.21201	0.32259
1276.05704	1.20913	0.3246
1274.55693	1.20616	0.32679
1273.05682	1.20312	0.32916
1271.5567	1.19999	0.33175
1270.05659	1.19681	0.33456
1268.55648	1.19358	0.33761
1267.05637	1.19034	0.34091
1265.55626	1.18708	0.34447
1264.05615	1.18383	0.34828
1262.55603	1.18062	0.35238
1261.05592	1.17745	0.35675
1259.55581	1.17435	0.3614
1258.0557	1.17134	0.36632
1256.55559	1.16845	0.37151
1255.05547	1.16568	0.37699
1253.55536	1.16308	0.38272
1252.05525	1.16065	0.38873
1250.55514	1.15842	0.395
1249.05503	1.15641	0.40151
1247.55492	1.15465	0.40826
1246.0548	1.15315	0.41521
1244.55469	1.15192	0.42234
1243.05458	1.15099	0.42964
1241.55447	1.15036	0.43707
1240.05436	1.15005	0.4446
1238.55424	1.15006	0.45223
1237.05413	1.15038	0.45991
1235.55402	1.15105	0.46763
1234.05391	1.15203	0.47535
1232.5538	1.15334	0.48305
1231.05369	1.15496	0.49072
1229.55357	1.1569	0.49831
1228.05346	1.15914	0.5058
1226.55335	1.16167	0.51319
1225.05324	1.16446	0.52043
1223.55313	1.1675	0.5275
1222.05301	1.17078	0.5344
1220.5529	1.17427	0.54109
1219.05279	1.17794	0.5476
1217.55268	1.18176	0.5539
1216.05257	1.18573	0.56001
1214.55246	1.18981	0.56594
1213.05234	1.194	0.5717
1211.55223	1.19827	0.57731
1210.05212	1.20263	0.58276
1208.55201	1.20704	0.58808
1207.0519	1.21152	0.59326
1205.55178	1.21605	0.59831
1204.05167	1.22062	0.60326
1202.55156	1.22522	0.60811
1201.05145	1.22988	0.61289
1199.55134	1.23459	0.61761
1198.05123	1.23934	0.62231
1196.55111	1.24416	0.62699
1195.051	1.24907	0.63165
1193.55089	1.25407	0.63631
1192.05078	1.25919	0.64097
1190.55067	1.26444	0.64562
1189.05055	1.26984	0.65027
1187.55044	1.27542	0.6549
1186.05033	1.28118	0.6595
1184.55022	1.28716	0.66407
1183.05011	1.29336	0.66858
1181.55	1.29981	0.673
1180.04988	1.3065	0.67732
1178.54977	1.31346	0.68148
1177.04966	1.32066	0.68546
1175.54955	1.32814	0.68922
1174.04944	1.33586	0.69273
1172.54932	1.34381	0.69593
1171.04921	1.35198	0.69879
1169.5491	1.36034	0.70129
1168.04899	1.36885	0.70339
1166.54888	1.3775	0.70507
1165.04877	1.38624	0.70634
1163.54865	1.39504	0.70714
1162.04854	1.40386	0.70749
1160.54843	1.41267	0.70737
1159.04832	1.4214	0.70677
1157.54821	1.43002	0.70568
1156.04809	1.4385	0.70413
1154.54798	1.44678	0.70213
1153.04787	1.45483	0.69971
1151.54776	1.46261	0.69689
1150.04765	1.47009	0.69369
1148.54754	1.47724	0.69016
1147.04742	1.48403	0.68633
1145.54731	1.49044	0.68222
1144.0472	1.49645	0.6779
1142.54709	1.50206	0.6734
1141.04698	1.50726	0.66876
1139.54686	1.51204	0.66404
1138.04675	1.51642	0.65928
1136.54664	1.52041	0.65452
1135.04653	1.52402	0.64977
1133.54642	1.52725	0.64509
1132.04631	1.53012	0.64048
1130.54619	1.53268	0.63598
1129.04608	1.53491	0.63161
1127.54597	1.53686	0.62739
1126.04586	1.53855	0.62333
1124.54575	1.53998	0.61946
1123.04563	1.54121	0.61577
1121.54552	1.54223	0.6123
1120.04541	1.54309	0.60901
1118.5453	1.5438	0.60592
1117.04519	1.54436	0.60303
1115.54508	1.54483	0.60032
1114.04496	1.54518	0.59779
1112.54485	1.54545	0.59544
1111.04474	1.54565	0.59325
1109.54463	1.54577	0.59122
1108.04452	1.54583	0.58935
1106.5444	1.54583	0.58761
1105.04429	1.54577	0.58601
1103.54418	1.54566	0.58454
1102.04407	1.54547	0.58318
1100.54396	1.54522	0.58196
1099.04385	1.54491	0.58086
1097.54373	1.54452	0.57987
1096.04362	1.54405	0.57902
1094.54351	1.54347	0.57829
1093.0434	1.54281	0.5777
1091.54329	1.54203	0.57728
1090.04317	1.54113	0.57702
1088.54306	1.54012	0.57698
1087.04295	1.53899	0.57716
1085.54284	1.53774	0.57762
1084.04273	1.5364	0.57838
1082.54262	1.53497	0.5795
1081.0425	1.53349	0.58104
1079.54239	1.53201	0.58306
1078.04228	1.53058	0.58558
1076.54217	1.52927	0.58868
1075.04206	1.52817	0.59239
1073.54194	1.52735	0.59671
1072.04183	1.52692	0.60169
1070.54172	1.52698	0.6073
1069.04161	1.52766	0.61353
1067.5415	1.52904	0.62029
1066.04139	1.53122	0.62751
1064.54127	1.53428	0.63507
1063.04116	1.53829	0.64285
1061.54105	1.54328	0.65066
1060.04094	1.54928	0.65835
1058.54083	1.55627	0.66576
1057.04072	1.56421	0.67272
1055.5406	1.57306	0.67907
1054.04049	1.58271	0.68468
1052.54038	1.59308	0.68942
1051.04027	1.60404	0.6932
1049.54016	1.61547	0.69595
1048.04004	1.62724	0.69763
1046.53993	1.63921	0.69819
1045.03982	1.65125	0.69765
1043.53971	1.66322	0.69604
1042.0396	1.67502	0.6934
1040.53949	1.68654	0.68979
1039.03937	1.69768	0.68528
1037.53926	1.70836	0.67995
1036.03915	1.7185	0.67389
1034.53904	1.72807	0.66718
1033.03893	1.73701	0.65994
1031.53881	1.74532	0.65222
1030.0387	1.75296	0.64414
1028.53859	1.75995	0.63578
1027.03848	1.76626	0.62719
1025.53837	1.77193	0.61847
1024.03826	1.77698	0.60966
1022.53814	1.78143	0.60083
1021.03803	1.78531	0.59201
1019.53792	1.78866	0.58326
1018.03781	1.79149	0.57461
1016.5377	1.79387	0.56609
1015.03758	1.79581	0.55772
1013.53747	1.79733	0.54949
1012.03736	1.79846	0.54141
1010.53725	1.7992	0.53346
1009.03714	1.79957	0.52563
1007.53703	1.79957	0.51795
1006.03691	1.79921	0.51041
1004.5368	1.79847	0.50308
1003.03669	1.79738	0.49597
1001.53658	1.79596	0.48914
1000.03647	1.79422	0.48265
998.53635	1.79223	0.47653
997.03624	1.79003	0.47082
995.53613	1.7877	0.4656
994.03602	1.78529	0.46084
992.53591	1.7829	0.45656
991.0358	1.7806	0.45275
989.53568	1.77844	0.44933
988.03557	1.77646	0.44622
986.53546	1.77471	0.44334
985.03535	1.77317	0.44056
983.53524	1.77184	0.43778
982.03512	1.77067	0.43495
980.53501	1.76963	0.43201
979.0349	1.76866	0.42892
977.53479	1.7677	0.4257
976.03468	1.76672	0.42235
974.53457	1.76566	0.4189
973.03445	1.7645	0.41537
971.53434	1.76321	0.4118
970.03423	1.76177	0.40819
968.53412	1.76017	0.40459
967.03401	1.75839	0.401
965.53389	1.75644	0.39745
964.03378	1.75431	0.39398
962.53367	1.75201	0.39059
961.03356	1.74953	0.38732
959.53345	1.74689	0.38418
958.03334	1.74408	0.38119
956.53322	1.74113	0.37835
955.03311	1.73804	0.37569
953.533	1.73482	0.37321
952.03289	1.73148	0.37094
950.53278	1.72802	0.36886
949.03266	1.72447	0.36702
947.53255	1.72083	0.36541
946.03244	1.71712	0.36403
944.53233	1.71335	0.3629
943.03222	1.70953	0.36203
941.53211	1.70566	0.36141
940.03199	1.70178	0.36108
938.53188	1.69788	0.36103
937.03177	1.69401	0.36128
935.53166	1.69015	0.36183
934.03155	1.68635	0.36272
932.53143	1.68262	0.36393
931.03132	1.67902	0.36551
929.53121	1.67555	0.36744
928.0311	1.67227	0.36975
926.53099	1.66921	0.37241
925.03088	1.66642	0.37544
923.53076	1.66392	0.37882
922.03065	1.66179	0.38254
920.53054	1.66005	0.38657
919.03043	1.65876	0.39087
917.53032	1.65795	0.39543
916.0302	1.65766	0.40019
914.53009	1.65793	0.40511
913.02998	1.65878	0.41013
911.52987	1.66025	0.41519
910.02976	1.66234	0.42021
908.52965	1.66507	0.42509
907.02953	1.6684	0.42977
905.52942	1.67235	0.43414
904.02931	1.67686	0.43812
902.5292	1.68188	0.44161
901.02909	1.68736	0.44455
899.52897	1.69323	0.44687
898.02886	1.69939	0.4485
896.52875	1.70577	0.44941
895.02864	1.71227	0.44957
893.52853	1.7188	0.44898
892.02842	1.72525	0.44765
890.5283	1.73156	0.44559
889.02819	1.73763	0.44286
887.52808	1.74339	0.43948
886.02797	1.74876	0.43556
884.52786	1.7537	0.43113
883.02774	1.75818	0.42628
881.52763	1.76216	0.4211
880.02752	1.76563	0.41566
878.52741	1.7686	0.41004
877.0273	1.77106	0.40432
875.52719	1.77302	0.39855
874.02707	1.77452	0.39279
872.52696	1.7756	0.38707
871.02685	1.77626	0.38143
869.52674	1.77654	0.37589
868.02663	1.77646	0.3705
866.52652	1.77606	0.36523
865.0264	1.77537	0.36013
863.52629	1.7744	0.35519
862.02618	1.77318	0.35043
860.52607	1.77173	0.34587
859.02596	1.77009	0.34153
857.52584	1.76827	0.3374
856.02573	1.7663	0.33348
854.52562	1.76421	0.32977
853.02551	1.762	0.32628
851.5254	1.75973	0.323
850.02529	1.7574	0.31991
848.52517	1.75501	0.31701
847.02506	1.7526	0.31428
845.52495	1.75018	0.31172
844.02484	1.74774	0.3093
842.52473	1.74529	0.307
841.02461	1.74283	0.3048
839.5245	1.74035	0.3027
838.02439	1.73784	0.30067
836.52428	1.73528	0.29871
835.02417	1.73267	0.29683
833.52406	1.72999	0.29505
832.02394	1.72726	0.29337
830.52383	1.7245	0.29186
829.02372	1.72172	0.29055
827.52361	1.71895	0.28947
826.0235	1.71624	0.28865
824.52338	1.71362	0.28805
823.02327	1.71112	0.28764
821.52316	1.70876	0.28733
820.02305	1.70651	0.28704
818.52294	1.70437	0.28673
817.02283	1.70231	0.28634
815.52271	1.70029	0.28589
814.0226	1.6983	0.28539
812.52249	1.69631	0.28487
811.02238	1.6943	0.28437
809.52227	1.69226	0.28394
808.02215	1.6902	0.28358
806.52204	1.68813	0.2833
805.02193	1.68607	0.28311
803.52182	1.68403	0.28298
802.02171	1.68201	0.28292
800.5216	1.68	0.28291
799.02148	1.67803	0.28294
797.52137	1.67609	0.28301
796.02126	1.67418	0.28312
794.52115	1.6723	0.28329
793.02104	1.67043	0.2835
791.52092	1.6686	0.28377
790.02081	1.6668	0.2841
788.5207	1.66504	0.28446
787.02059	1.66332	0.28484
785.52048	1.66161	0.28525
784.02037	1.65995	0.28569
782.52025	1.65831	0.28615
781.02014	1.65671	0.28667
779.52003	1.65514	0.28722
778.01992	1.65361	0.28781
776.51981	1.65211	0.28843
775.01969	1.65064	0.28908
773.51958	1.64922	0.28973
772.01947	1.64784	0.29041
770.51936	1.64649	0.29111
769.01925	1.64518	0.29185
767.51914	1.64391	0.29262
766.01902	1.6427	0.29341
764.51891	1.64154	0.29424
763.0188	1.64045	0.29506
761.51869	1.6394	0.29589
760.01858	1.6384	0.29671
758.51846	1.63746	0.29749
757.01835	1.63655	0.29826
755.51824	1.63568	0.29898
754.01813	1.63483	0.29967
752.51802	1.634	0.30032
751.01791	1.63318	0.30093
749.51779	1.63235	0.3015
748.01768	1.63152	0.30204
746.51757	1.63068	0.30256
745.01746	1.62982	0.30306
743.51735	1.62895	0.30356
742.01723	1.62808	0.30406
740.51712	1.62719	0.30455
739.01701	1.62629	0.30505
737.5169	1.62538	0.30555
736.01679	1.62446	0.30604
734.51668	1.62353	0.30651
733.01656	1.62258	0.30696
731.51645	1.62159	0.30739
730.01634	1.62057	0.30778
728.51623	1.61951	0.30818
727.01612	1.61841	0.30858
725.516	1.61727	0.30901
724.01589	1.61611	0.30948
722.51578	1.61491	0.31001
721.01567	1.61368	0.31058
719.51556	1.61245	0.31118
718.01545	1.6112	0.3118
716.51533	1.60993	0.31241
715.01522	1.60863	0.31305
713.51511	1.60732	0.31369
712.015	1.60599	0.31436
710.51489	1.60463	0.31507
709.01477	1.60323	0.31581
707.51466	1.6018	0.3166
706.01455	1.60036	0.31742
704.51444	1.5989	0.31827
703.01433	1.59742	0.31916
701.51422	1.59591	0.32009
700.0141	1.59439	0.32109
698.51399	1.59285	0.32212
697.01388	1.59129	0.32321
695.51377	1.58971	0.32433
694.01366	1.58811	0.32548
692.51354	1.58649	0.32665
691.01343	1.58486	0.32788
689.51332	1.58321	0.32918
688.01321	1.58156	0.33057
686.5131	1.5799	0.33205
685.01299	1.57825	0.3336
683.51287	1.57663	0.33519
682.01276	1.57501	0.33682
680.51265	1.57338	0.33845
679.01254	1.57172	0.34006
677.51243	1.57001	0.34167
676.01232	1.56823	0.34325
674.5122	1.56638	0.34484
673.01209	1.56446	0.34649
671.51198	1.56245	0.34823
670.01187	1.56034	0.35012
668.51176	1.55816	0.35218
667.01164	1.55597	0.35447
665.51153	1.55377	0.35693
664.01142	1.55157	0.35953
662.51131	1.54934	0.36225
661.0112	1.54712	0.36509
659.51109	1.5449	0.36805
658.01097	1.5427	0.37114
656.51086	1.54053	0.37438
655.01075	1.53837	0.3778
653.51064	1.53621	0.38141
652.01053	1.53412	0.38522
650.51041	1.53207	0.38923
649.0103	1.53008	0.39342
647.51019	1.52817	0.39778
646.01008	1.52631	0.40231
644.50997	1.52453	0.40698
643.00986	1.52282	0.4118
641.50974	1.52118	0.41678
640.00963	1.51961	0.42196
638.50952	1.51812	0.42737
637.00941	1.51675	0.43305
635.5093	1.5155	0.43903
634.00918	1.5144	0.44529
632.50907	1.51348	0.45182
631.00896	1.51277	0.45863
629.50885	1.51228	0.4657
628.00874	1.51205	0.47305
626.50863	1.51211	0.48067
625.00851	1.5125	0.4886
623.5084	1.51324	0.49684
622.00829	1.5144	0.50537
620.50818	1.51601	0.51417
619.00807	1.5181	0.52326
617.50795	1.52072	0.53257
616.00784	1.52391	0.54207
614.50773	1.5277	0.55168
613.00762	1.53213	0.56137
611.50751	1.53721	0.57108
610.0074	1.54296	0.58078
608.50728	1.5494	0.59041
607.00717	1.55653	0.59992
605.50706	1.56438	0.60929
604.00695	1.57295	0.61842
602.50684	1.58222	0.62723
601.00672	1.59217	0.63565
599.50661	1.60282	0.64362
598.0065	1.61417	0.65112
596.50639	1.62624	0.65812
595.00628	1.63904	0.66462
593.50617	1.65258	0.67061
592.00605	1.66689	0.676
590.50594	1.682	0.68068
589.00583	1.69791	0.68444
587.50572	1.71453	0.68705
586.00561	1.7318	0.68829
584.50549	1.74951	0.68791
583.00538	1.76749	0.68566
581.50527	1.78543	0.68132
580.00516	1.80301	0.6748
578.50505	1.81985	0.66599
577.00494	1.83554	0.65492
575.50482	1.84976	0.64176
574.00471	1.86221	0.62687
572.5046	1.87265	0.61066
571.00449	1.88094	0.59368
569.50438	1.88707	0.57649
568.00426	1.89112	0.55962
566.50415	1.89326	0.54349
565.00404	1.89373	0.52839
563.50393	1.89278	0.51451
562.00382	1.89068	0.5019
560.50371	1.8877	0.49055
559.00359	1.88408	0.48039
557.50348	1.88002	0.47133
556.00337	1.87568	0.46329
554.50326	1.8712	0.4562
553.00315	1.86666	0.44997
551.50303	1.86216	0.44453
550.00292	1.85777	0.43982
548.50281	1.85354	0.43575
547.0027	1.84953	0.43223
545.50259	1.84573	0.42917
544.00248	1.84218	0.42649
542.50236	1.83886	0.42412
541.00225	1.83579	0.42199
539.50214	1.83297	0.42005
538.00203	1.83032	0.41823
536.50192	1.82781	0.41652
535.0018	1.82542	0.41486
533.50169	1.82314	0.41324
532.00158	1.82097	0.41168
530.50147	1.81887	0.41021
529.00136	1.81678	0.40883
527.50125	1.81468	0.40755
526.00113	1.81261	0.40639
524.50102	1.81061	0.40533
523.00091	1.80869	0.40438
521.5008	1.80681	0.40351
520.00069	1.80495	0.40278
518.50057	1.80315	0.4022
517.00046	1.80146	0.40174
515.50035	1.79989	0.40136
514.00024	1.79838	0.401
512.50013	1.79687	0.40058
511.00002	1.79533	0.40007
509.4999	1.79376	0.39948
507.99979	1.79218	0.39888
506.49968	1.79057	0.39836
504.99957	1.7889	0.39798
503.49946	1.78717	0.39778
501.99934	1.78542	0.39782
500.49923	1.78367	0.39802
498.99912	1.78199	0.39832
497.49901	1.78035	0.39869
495.9989	1.77873	0.39915
494.49879	1.77713	0.39965
492.99867	1.77555	0.40022
491.49856	1.77404	0.40093
489.99845	1.7726	0.4018
488.49834	1.77123	0.40282
486.99823	1.76992	0.40396
485.49812	1.76868	0.40521
483.998	1.76751	0.40655
482.49789	1.76639	0.4079
480.99778	1.76533	0.40921
479.49767	1.76428	0.41048
477.99756	1.76323	0.41181
476.49744	1.76218	0.41326
474.99733	1.76119	0.41487
473.49722	1.76027	0.41678
471.99711	1.75949	0.41903
470.497	1.75888	0.42156
468.99689	1.75842	0.42422
467.49677	1.7581	0.42693
465.99666	1.75795	0.42961
464.49655	1.75801	0.43222
462.99644	1.75829	0.43486
461.49633	1.75878	0.43767
459.99621	1.75951	0.44073
458.4961	1.76056	0.44413
456.99599	1.76205	0.44786
455.49588	1.76403	0.45174
453.99577	1.76649	0.45548
452.49566	1.76937	0.45891
450.99554	1.77268	0.46193
449.49543	1.7764	0.46447
447.99532	1.78042	0.46647
446.49521	1.78462	0.46798
444.9951	1.78887	0.469
443.49498	1.7931	0.4695
441.99487	1.7973	0.46949
440.49476	1.8014	0.46896
438.99465	1.8053	0.46796
437.49454	1.80891	0.46658
435.99443	1.81224	0.46497
434.49431	1.81531	0.46318
432.9942	1.81813	0.4612
431.49409	1.82062	0.45904
429.99398	1.82275	0.45675
428.49387	1.82453	0.45435
426.99375	1.82603	0.45188
425.49364	1.82731	0.44948
423.99353	1.82839	0.44724
422.49342	1.82925	0.44517
420.99331	1.82989	0.44325
419.4932	1.83039	0.44148
417.99308	1.83081	0.43976
416.49297	1.83114	0.438
414.99286	1.83131	0.43617
413.49275	1.83129	0.43431
411.99264	1.83111	0.43251
410.49252	1.83079	0.43079
408.99241	1.83037	0.42921
407.4923	1.8298	0.42784
405.99219	1.82912	0.42669
404.49208	1.82833	0.42572
402.99197	1.82752	0.42489
401.49185	1.82666	0.42417
399.99174	1.82577	0.42353
