#SUBSTANCE=Sulphuric acid
#DESCRIPTION=Refractive indices of 58 wt% sulphuric acid from 400 to 7500 cm-1 at 298 K
#TEMPERATURE=298 K
#CONCENTRATION=58 wt%
#DOI=10.1021/jp026576n
#REFERENCE=Spectroscopic Study of Aqueous H2SO4 at Different Temperatures and Compositions:  Variations in Dissociation and Optical Properties
##Cathrine E. Lund Myhre,†, Daniel H. Christensen,‡, Flemming M. Nicolaisen,‡ and, and Claus J. Nielsen*,†
##The Journal of Physical Chemistry A 2003 107 (12), 1979-1991 
#FORMAT=WAVN N K
7498.52083	1.39607	0.01133
7497.02072	1.39601	0.01133
7495.52061	1.39595	0.01134
7494.0205	1.3959	0.01135
7492.52039	1.39586	0.01136
7491.02027	1.39582	0.01135
7489.52016	1.39577	0.01134
7488.02005	1.39574	0.01133
7486.51994	1.39571	0.01132
7485.01983	1.39566	0.01132
7483.51971	1.39562	0.01135
7482.0196	1.39558	0.01141
7480.51949	1.39555	0.01147
7479.01938	1.39553	0.01152
7477.51927	1.39554	0.01157
7476.01916	1.39554	0.01162
7474.51904	1.39555	0.01166
7473.01893	1.39557	0.0117
7471.51882	1.3956	0.01174
7470.01871	1.39564	0.01177
7468.5186	1.39569	0.01178
7467.01848	1.39572	0.01178
7465.51837	1.39575	0.01175
7464.01826	1.39577	0.01173
7462.51815	1.3958	0.01171
7461.01804	1.39583	0.01169
7459.51793	1.39585	0.01167
7458.01781	1.39586	0.01166
7456.5177	1.39586	0.01163
7455.01759	1.39586	0.01161
7453.51748	1.39586	0.01157
7452.01737	1.39585	0.01152
7450.51725	1.39583	0.01148
7449.01714	1.3958	0.01144
7447.51703	1.39576	0.01143
7446.01692	1.39572	0.01142
7444.51681	1.39569	0.01144
7443.0167	1.39567	0.01148
7441.51658	1.39566	0.01153
7440.01647	1.39566	0.01157
7438.51636	1.39568	0.01161
7437.01625	1.3957	0.01163
7435.51614	1.39573	0.01165
7434.01602	1.39577	0.01163
7432.51591	1.3958	0.0116
7431.0158	1.39581	0.01154
7429.51569	1.39581	0.01147
7428.01558	1.39579	0.0114
7426.51547	1.39575	0.01134
7425.01535	1.39571	0.01131
7423.51524	1.39566	0.01131
7422.01513	1.39561	0.01133
7420.51502	1.39557	0.01136
7419.01491	1.39554	0.0114
7417.51479	1.39551	0.01144
7416.01468	1.3955	0.01148
7414.51457	1.39549	0.01151
7413.01446	1.39549	0.01154
7411.51435	1.3955	0.01156
7410.01424	1.39551	0.01158
7408.51412	1.39553	0.01159
7407.01401	1.39554	0.0116
7405.5139	1.39556	0.01163
7404.01379	1.39559	0.01166
7402.51368	1.39563	0.01168
7401.01356	1.39567	0.01168
7399.51345	1.3957	0.01167
7398.01334	1.39572	0.01163
7396.51323	1.39573	0.01156
7395.01312	1.39573	0.01148
7393.51301	1.39573	0.01142
7392.01289	1.3957	0.01138
7390.51278	1.39567	0.01138
7389.01267	1.39565	0.01141
7387.51256	1.39563	0.01145
7386.01245	1.39564	0.0115
7384.51233	1.39565	0.01152
7383.01222	1.39566	0.01151
7381.51211	1.39567	0.01147
7380.012	1.39567	0.01142
7378.51189	1.39566	0.01137
7377.01178	1.39564	0.01132
7375.51166	1.39563	0.01129
7374.01155	1.39559	0.01129
7372.51144	1.39556	0.0113
7371.01133	1.39554	0.01134
7369.51122	1.39553	0.01138
7368.0111	1.39554	0.01141
7366.51099	1.39555	0.01143
7365.01088	1.39556	0.01142
7363.51077	1.39556	0.01138
7362.01066	1.39555	0.01133
7360.51055	1.39553	0.01126
7359.01043	1.3955	0.01121
7357.51032	1.39546	0.0112
7356.01021	1.39543	0.01122
7354.5101	1.3954	0.01129
7353.00999	1.39539	0.01135
7351.50987	1.3954	0.01142
7350.00976	1.39542	0.01145
7348.50965	1.39543	0.01145
7347.00954	1.39544	0.01139
7345.50943	1.39544	0.01133
7344.00932	1.39542	0.01127
7342.5092	1.39541	0.01122
7341.00909	1.39538	0.01121
7339.50898	1.39536	0.01124
7338.00887	1.39533	0.0113
7336.50876	1.39531	0.01135
7335.00864	1.3953	0.01138
7333.50853	1.3953	0.01137
7332.00842	1.39529	0.01133
7330.50831	1.39526	0.01127
7329.0082	1.39521	0.01122
7327.50809	1.39517	0.01121
7326.00797	1.39513	0.01126
7324.50786	1.3951	0.01134
7323.00775	1.39508	0.01144
7321.50764	1.39508	0.01155
7320.00753	1.3951	0.01163
7318.50741	1.39514	0.01167
7317.0073	1.39519	0.01169
7315.50719	1.39524	0.01168
7314.00708	1.39527	0.01165
7312.50697	1.39529	0.01163
7311.00686	1.39532	0.0116
7309.50674	1.39535	0.01158
7308.00663	1.39536	0.01158
7306.50652	1.39538	0.0116
7305.00641	1.39539	0.01164
7303.5063	1.39543	0.01166
7302.00619	1.39547	0.01165
7300.50607	1.3955	0.01161
7299.00596	1.39552	0.01154
7297.50585	1.39551	0.01145
7296.00574	1.39549	0.01134
7294.50563	1.39545	0.01128
7293.00551	1.3954	0.01124
7291.5054	1.39535	0.01126
7290.00529	1.39531	0.0113
7288.50518	1.39526	0.01136
7287.00507	1.39523	0.01142
7285.50496	1.39522	0.01148
7284.00484	1.39524	0.01151
7282.50473	1.39527	0.01155
7281.00462	1.3953	0.01157
7279.50451	1.39534	0.01159
7278.0044	1.3954	0.0116
7276.50428	1.39544	0.01158
7275.00417	1.39547	0.01153
7273.50406	1.39547	0.01145
7272.00395	1.39546	0.01136
7270.50384	1.39543	0.01127
7269.00373	1.39538	0.0112
7267.50361	1.39533	0.01118
7266.0035	1.39526	0.0112
7264.50339	1.3952	0.01126
7263.00328	1.39516	0.01135
7261.50317	1.39514	0.01143
7260.00305	1.39514	0.0115
7258.50294	1.39514	0.01154
7257.00283	1.39517	0.01158
7255.50272	1.39522	0.01161
7254.00261	1.39529	0.01165
7252.5025	1.39536	0.01168
7251.00238	1.39542	0.01171
7249.50227	1.39547	0.01169
7248.00216	1.3955	0.01162
7246.50205	1.39554	0.01153
7245.00194	1.39557	0.01143
7243.50182	1.39557	0.01135
7242.00171	1.39555	0.01132
7240.5016	1.39554	0.01133
7239.00149	1.39552	0.01135
7237.50138	1.39552	0.01137
7236.00127	1.39552	0.01134
7234.50115	1.39552	0.01128
7233.00104	1.3955	0.01122
7231.50093	1.3955	0.01118
7230.00082	1.39549	0.01117
7228.50071	1.39548	0.01119
7227.00059	1.39547	0.01121
7225.50048	1.39546	0.01121
7224.00037	1.39546	0.01118
7222.50026	1.39544	0.01112
7221.00015	1.39541	0.01104
7219.50004	1.39538	0.01099
7217.99992	1.39535	0.01098
7216.49981	1.39533	0.01099
7214.9997	1.39531	0.01102
7213.49959	1.39529	0.01105
7211.99948	1.39525	0.01106
7210.49936	1.39521	0.01105
7208.99925	1.39518	0.01102
7207.49914	1.39516	0.01098
7205.99903	1.39513	0.01095
7204.49892	1.3951	0.01095
7202.99881	1.39505	0.01099
7201.49869	1.39502	0.01106
7199.99858	1.39501	0.01115
7198.49847	1.39502	0.01122
7196.99836	1.39504	0.01128
7195.49825	1.39507	0.01129
7193.99813	1.3951	0.01128
7192.49802	1.39514	0.01126
7190.99791	1.39517	0.01124
7189.4978	1.3952	0.01121
7187.99769	1.39521	0.01119
7186.49758	1.39521	0.01116
7184.99746	1.39519	0.01111
7183.49735	1.39517	0.01105
7181.99724	1.39513	0.01101
7180.49713	1.3951	0.011
7178.99702	1.39508	0.01103
7177.4969	1.39505	0.01106
7175.99679	1.39505	0.01112
7174.49668	1.39505	0.01116
7172.99657	1.39506	0.01119
7171.49646	1.39508	0.01118
7169.99635	1.39509	0.01114
7168.49623	1.39508	0.01109
7166.99612	1.39507	0.01105
7165.49601	1.39505	0.01102
7163.9959	1.39503	0.011
7162.49579	1.395	0.01101
7160.99567	1.39497	0.01103
7159.49556	1.39495	0.01108
7157.99545	1.39494	0.01112
7156.49534	1.39495	0.01117
7154.99523	1.39498	0.01121
7153.49512	1.39501	0.01123
7151.995	1.39503	0.01122
7150.49489	1.39506	0.01119
7148.99478	1.39507	0.01113
7147.49467	1.39507	0.01106
7145.99456	1.39506	0.01099
7144.49444	1.39503	0.01095
7142.99433	1.39498	0.01092
7141.49422	1.39493	0.01092
7139.99411	1.3949	0.01094
7138.494	1.39486	0.01097
7136.99389	1.39483	0.01102
7135.49377	1.3948	0.01105
7133.99366	1.39478	0.01108
7132.49355	1.39478	0.01111
7130.99344	1.3948	0.01114
7129.49333	1.39481	0.01116
7127.99321	1.39483	0.01119
7126.4931	1.39484	0.01121
7124.99299	1.39486	0.01123
7123.49288	1.39488	0.01122
7121.99277	1.3949	0.0112
7120.49266	1.39491	0.01118
7118.99254	1.39492	0.01115
7117.49243	1.39492	0.01113
7115.99232	1.39492	0.01113
7114.49221	1.39493	0.01116
7112.9921	1.39493	0.01117
7111.49198	1.39495	0.01118
7109.99187	1.39496	0.01116
7108.49176	1.39496	0.01113
7106.99165	1.39496	0.01107
7105.49154	1.39495	0.01103
7103.99143	1.39493	0.01099
7102.49131	1.39491	0.01098
7100.9912	1.39488	0.01097
7099.49109	1.39485	0.01097
7097.99098	1.39482	0.01099
7096.49087	1.3948	0.011
7094.99076	1.39478	0.01103
7093.49064	1.39477	0.01105
7091.99053	1.39476	0.01107
7090.49042	1.39477	0.0111
7088.99031	1.39478	0.01111
7087.4902	1.39479	0.01112
7085.99008	1.3948	0.01112
7084.48997	1.39481	0.01112
7082.98986	1.39482	0.01112
7081.48975	1.39483	0.0111
7079.98964	1.39483	0.01108
7078.48953	1.39483	0.01106
7076.98941	1.39482	0.01105
7075.4893	1.39482	0.01104
7073.98919	1.39481	0.01105
7072.48908	1.39481	0.01106
7070.98897	1.39481	0.01107
7069.48885	1.39481	0.01108
7067.98874	1.39481	0.01106
7066.48863	1.3948	0.01104
7064.98852	1.39479	0.01102
7063.48841	1.39477	0.011
7061.9883	1.39476	0.01099
7060.48818	1.39476	0.01101
7058.98807	1.39476	0.01103
7057.48796	1.39475	0.01107
7055.98785	1.39476	0.0111
7054.48774	1.39476	0.01111
7052.98762	1.39478	0.0111
7051.48751	1.3948	0.01109
7049.9874	1.39482	0.01105
7048.48729	1.39482	0.01102
7046.98718	1.39481	0.011
7045.48707	1.39481	0.011
7043.98695	1.39482	0.011
7042.48684	1.39482	0.011
7040.98673	1.39483	0.011
7039.48662	1.39483	0.01099
7037.98651	1.39483	0.01097
7036.48639	1.39482	0.01093
7034.98628	1.39482	0.0109
7033.48617	1.39481	0.01086
7031.98606	1.39479	0.01082
7030.48595	1.39476	0.01079
7028.98584	1.39472	0.01078
7027.48572	1.39468	0.01078
7025.98561	1.39465	0.0108
7024.4855	1.39464	0.01082
7022.98539	1.39461	0.01086
7021.48528	1.3946	0.01088
7019.98516	1.39459	0.0109
7018.48505	1.3946	0.0109
7016.98494	1.39461	0.01092
7015.48483	1.39462	0.01093
7013.98472	1.39463	0.01093
7012.48461	1.39464	0.01092
7010.98449	1.39464	0.01091
7009.48438	1.39465	0.01089
7007.98427	1.39465	0.01086
7006.48416	1.39464	0.01083
7004.98405	1.39463	0.01082
7003.48393	1.39462	0.01081
7001.98382	1.39459	0.01079
7000.48371	1.39458	0.01078
6998.9836	1.39455	0.01077
6997.48349	1.39452	0.01076
6995.98338	1.39448	0.01075
6994.48326	1.39446	0.01075
6992.98315	1.39444	0.01078
6991.48304	1.39441	0.01081
6989.98293	1.39441	0.01085
6988.48282	1.39441	0.01089
6986.9827	1.39441	0.01091
6985.48259	1.39443	0.01093
6983.98248	1.39443	0.01092
6982.48237	1.39444	0.0109
6980.98226	1.39444	0.01089
6979.48215	1.39443	0.01087
6977.98203	1.39443	0.01086
6976.48192	1.39441	0.01085
6974.98181	1.39439	0.01085
6973.4817	1.39438	0.01088
6971.98159	1.39437	0.01091
6970.48147	1.39438	0.01094
6968.98136	1.39439	0.01098
6967.48125	1.39441	0.011
6965.98114	1.39443	0.01102
6964.48103	1.39446	0.01101
6962.98092	1.39448	0.01099
6961.4808	1.39451	0.01096
6959.98069	1.39452	0.01093
6958.48058	1.39453	0.0109
6956.98047	1.39453	0.01087
6955.48036	1.39452	0.01085
6953.98024	1.39452	0.01083
6952.48013	1.3945	0.0108
6950.98002	1.39449	0.01078
6949.47991	1.39446	0.01075
6947.9798	1.39443	0.01072
6946.47969	1.39439	0.0107
6944.97957	1.39436	0.01069
6943.47946	1.39433	0.0107
6941.97935	1.39429	0.01074
6940.47924	1.39427	0.01077
6938.97913	1.39426	0.01082
6937.47901	1.39426	0.01086
6935.9789	1.39428	0.01089
6934.47879	1.39429	0.01091
6932.97868	1.3943	0.0109
6931.47857	1.39432	0.01088
6929.97846	1.39433	0.01086
6928.47834	1.39433	0.01082
6926.97823	1.39433	0.0108
6925.47812	1.3943	0.01078
6923.97801	1.39428	0.01078
6922.4779	1.39427	0.01079
6920.97778	1.39426	0.0108
6919.47767	1.39426	0.01083
6917.97756	1.39425	0.01086
6916.47745	1.39426	0.01087
6914.97734	1.39427	0.01089
6913.47723	1.39428	0.01088
6911.97711	1.39431	0.01086
6910.477	1.39431	0.01083
6908.97689	1.39431	0.0108
6907.47678	1.39429	0.01077
6905.97667	1.39428	0.01075
6904.47656	1.39426	0.01073
6902.97644	1.39424	0.01072
6901.47633	1.3942	0.01071
6899.97622	1.39416	0.01071
6898.47611	1.39413	0.01072
6896.976	1.39412	0.01075
6895.47588	1.3941	0.01079
6893.97577	1.39409	0.01084
6892.47566	1.3941	0.01089
6890.97555	1.39411	0.01093
6889.47544	1.39413	0.01094
6887.97533	1.39416	0.01094
6886.47521	1.39417	0.01093
6884.9751	1.39419	0.01091
6883.47499	1.39421	0.0109
6881.97488	1.39423	0.0109
6880.47477	1.39425	0.01091
6878.97465	1.39425	0.01091
6877.47454	1.39426	0.0109
6875.97443	1.39427	0.01089
6874.47432	1.3943	0.01086
6872.97421	1.39431	0.01083
6871.4741	1.39431	0.0108
6869.97398	1.39431	0.01078
6868.47387	1.39432	0.01076
6866.97376	1.39432	0.01074
6865.47365	1.39432	0.01072
6863.97354	1.39431	0.01069
6862.47342	1.3943	0.01064
6860.97331	1.39427	0.01061
6859.4732	1.39424	0.01056
6857.97309	1.3942	0.01051
6856.47298	1.39416	0.01048
6854.97287	1.39411	0.01046
6853.47275	1.39405	0.01045
6851.97264	1.39399	0.01046
6850.47253	1.39393	0.01049
6848.97242	1.3939	0.01054
6847.47231	1.39386	0.01059
6845.97219	1.39385	0.01064
6844.47208	1.39383	0.01069
6842.97197	1.39383	0.01073
6841.47186	1.39383	0.01075
6839.97175	1.39384	0.01078
6838.47164	1.39385	0.01079
6836.97152	1.39385	0.0108
6835.47141	1.39386	0.01081
6833.9713	1.39387	0.01083
6832.47119	1.39387	0.01083
6830.97108	1.39388	0.01084
6829.47096	1.39388	0.01086
6827.97085	1.39389	0.01088
6826.47074	1.39391	0.0109
6824.97063	1.39392	0.01091
6823.47052	1.39394	0.01093
6821.97041	1.39395	0.01093
6820.47029	1.39398	0.01094
6818.97018	1.39401	0.01094
6817.47007	1.39404	0.01093
6815.96996	1.39405	0.01092
6814.46985	1.39407	0.01089
6812.96973	1.39409	0.01087
6811.46962	1.39409	0.01083
6809.96951	1.39409	0.0108
6808.4694	1.39408	0.01076
6806.96929	1.39407	0.01073
6805.46918	1.39406	0.01072
6803.96906	1.39404	0.01072
6802.46895	1.39402	0.01072
6800.96884	1.39402	0.01073
6799.46873	1.39401	0.01073
6797.96862	1.39401	0.01073
6796.4685	1.394	0.01071
6794.96839	1.39399	0.0107
6793.46828	1.39397	0.01067
6791.96817	1.39396	0.01067
6790.46806	1.39394	0.01067
6788.96795	1.39392	0.01067
6787.46783	1.39392	0.01069
6785.96772	1.39391	0.01072
6784.46761	1.39391	0.01073
6782.9675	1.39392	0.01074
6781.46739	1.39392	0.01075
6779.96727	1.39393	0.01075
6778.46716	1.39394	0.01074
6776.96705	1.39395	0.01072
6775.46694	1.39395	0.0107
6773.96683	1.39394	0.01067
6772.46672	1.39392	0.01065
6770.9666	1.39392	0.01065
6769.46649	1.39391	0.01065
6767.96638	1.3939	0.01065
6766.46627	1.3939	0.01067
6764.96616	1.39389	0.01068
6763.46604	1.39389	0.01069
6761.96593	1.3939	0.01068
6760.46582	1.3939	0.01066
6758.96571	1.39389	0.01064
6757.4656	1.39389	0.01061
6755.96549	1.39387	0.01059
6754.46537	1.39386	0.01059
6752.96526	1.39385	0.0106
6751.46515	1.39384	0.0106
6749.96504	1.39382	0.0106
6748.46493	1.39379	0.01059
6746.96481	1.39378	0.01058
6745.4647	1.39376	0.01057
6743.96459	1.39375	0.01057
6742.46448	1.39372	0.01059
6740.96437	1.39372	0.01063
6739.46426	1.39372	0.01068
6737.96414	1.39372	0.0107
6736.46403	1.39374	0.01072
6734.96392	1.39375	0.01072
6733.46381	1.39375	0.0107
6731.9637	1.39375	0.01067
6730.46358	1.39375	0.01064
6728.96347	1.39374	0.01063
6727.46336	1.39373	0.01063
6725.96325	1.39372	0.01066
6724.46314	1.39372	0.01069
6722.96303	1.39372	0.01073
6721.46291	1.39373	0.01076
6719.9628	1.39376	0.01078
6718.46269	1.39378	0.01077
6716.96258	1.39381	0.01076
6715.46247	1.39383	0.01073
6713.96236	1.39384	0.01068
6712.46224	1.39383	0.01064
6710.96213	1.39382	0.0106
6709.46202	1.3938	0.01056
6707.96191	1.39377	0.01054
6706.4618	1.39373	0.01054
6704.96168	1.3937	0.01056
6703.46157	1.39368	0.01059
6701.96146	1.39367	0.01065
6700.46135	1.39367	0.01071
6698.96124	1.3937	0.01076
6697.46113	1.39373	0.01079
6695.96101	1.39376	0.01081
6694.4609	1.39381	0.01079
6692.96079	1.39385	0.01078
6691.46068	1.39389	0.01073
6689.96057	1.39391	0.01068
6688.46045	1.39393	0.01063
6686.96034	1.39392	0.01058
6685.46023	1.39391	0.01053
6683.96012	1.39389	0.01049
6682.46001	1.39386	0.01046
6680.9599	1.39383	0.01044
6679.45978	1.3938	0.01043
6677.95967	1.39377	0.01045
6676.45956	1.39376	0.01047
6674.95945	1.39375	0.01051
6673.45934	1.39375	0.01052
6671.95922	1.39374	0.01053
6670.45911	1.39374	0.01052
6668.959	1.39374	0.0105
6667.45889	1.39373	0.01047
6665.95878	1.39373	0.01046
6664.45867	1.39373	0.01048
6662.95855	1.39373	0.01049
6661.45844	1.39375	0.01053
6659.95833	1.39377	0.01056
6658.45822	1.39379	0.01057
6656.95811	1.3938	0.01055
6655.45799	1.39382	0.0105
6653.95788	1.39382	0.01043
6652.45777	1.39382	0.01037
6650.95766	1.3938	0.01032
6649.45755	1.39379	0.01029
6647.95744	1.39376	0.01031
6646.45732	1.39375	0.01035
6644.95721	1.39373	0.01038
6643.4571	1.39373	0.0104
6641.95699	1.39373	0.01039
6640.45688	1.39374	0.01036
6638.95676	1.39374	0.01032
6637.45665	1.39373	0.01029
6635.95654	1.39372	0.01026
6634.45643	1.39371	0.01026
6632.95632	1.39371	0.01026
6631.45621	1.3937	0.01027
6629.95609	1.39369	0.01027
6628.45598	1.39368	0.01025
6626.95587	1.39367	0.01024
6625.45576	1.39367	0.01021
6623.95565	1.39365	0.01018
6622.45553	1.39363	0.01015
6620.95542	1.3936	0.01014
6619.45531	1.39359	0.01014
6617.9552	1.39357	0.01016
6616.45509	1.39356	0.01018
6614.95498	1.39356	0.01021
6613.45486	1.39356	0.01022
6611.95475	1.39356	0.01021
6610.45464	1.39356	0.01018
6608.95453	1.39355	0.01013
6607.45442	1.39351	0.01008
6605.9543	1.39348	0.01004
6604.45419	1.39344	0.01002
6602.95408	1.39341	0.01004
6601.45397	1.39338	0.01009
6599.95386	1.39336	0.01017
6598.45375	1.39336	0.01024
6596.95363	1.39338	0.01031
6595.45352	1.39342	0.01033
6593.95341	1.39346	0.01033
6592.4533	1.3935	0.01029
6590.95319	1.39352	0.01024
6589.45307	1.39352	0.01017
6587.95296	1.39351	0.01011
6586.45285	1.3935	0.01008
6584.95274	1.39347	0.01006
6583.45263	1.39345	0.01007
6581.95252	1.39343	0.01009
6580.4524	1.39343	0.01013
6578.95229	1.39343	0.01017
6577.45218	1.39345	0.01019
6575.95207	1.39347	0.0102
6574.45196	1.39349	0.01016
6572.95184	1.3935	0.0101
6571.45173	1.3935	0.01002
6569.95162	1.39347	0.00994
6568.45151	1.39343	0.00989
6566.9514	1.39339	0.00988
6565.45129	1.39336	0.00991
6563.95117	1.39334	0.00995
6562.45106	1.39333	0.01001
6560.95095	1.39332	0.01006
6559.45084	1.39333	0.01009
6557.95073	1.39335	0.01008
6556.45061	1.39337	0.01004
6554.9505	1.39338	0.00998
6553.45039	1.39338	0.00993
6551.95028	1.39338	0.00989
6550.45017	1.39336	0.00986
6548.95006	1.39334	0.00985
6547.44994	1.39331	0.00985
6545.94983	1.39328	0.00985
6544.44972	1.39326	0.00983
6542.94961	1.39323	0.00981
6541.4495	1.3932	0.00979
6539.94938	1.39317	0.00978
6538.44927	1.39314	0.00979
6536.94916	1.39312	0.00982
6535.44905	1.39311	0.00986
6533.94894	1.39311	0.00989
6532.44883	1.39311	0.00992
6530.94871	1.39311	0.00992
6529.4486	1.39312	0.0099
6527.94849	1.39312	0.00987
6526.44838	1.39312	0.00984
6524.94827	1.39312	0.00982
6523.44816	1.3931	0.00981
6521.94804	1.39309	0.0098
6520.44793	1.39306	0.00979
6518.94782	1.39304	0.00979
6517.44771	1.39302	0.00979
6515.9476	1.393	0.00979
6514.44748	1.39299	0.00979
6512.94737	1.39297	0.00981
6511.44726	1.39297	0.00982
6509.94715	1.39297	0.00984
6508.44704	1.39296	0.00985
6506.94693	1.39296	0.00984
6505.44681	1.39295	0.00982
6503.9467	1.39294	0.0098
6502.44659	1.39292	0.00977
6500.94648	1.3929	0.00976
6499.44637	1.39287	0.00976
6497.94625	1.39286	0.00979
6496.44614	1.39284	0.00982
6494.94603	1.39284	0.00985
6493.44592	1.39284	0.00988
6491.94581	1.39284	0.00991
6490.4457	1.39287	0.00993
6488.94558	1.39289	0.00993
6487.44547	1.39292	0.00992
6485.94536	1.39294	0.00989
6484.44525	1.39294	0.00986
6482.94514	1.39295	0.00982
6481.44502	1.39294	0.00978
6479.94491	1.39293	0.00975
6478.4448	1.39291	0.00972
6476.94469	1.39289	0.00972
6475.44458	1.39286	0.00972
6473.94447	1.39285	0.00973
6472.44435	1.39283	0.00975
6470.94424	1.39283	0.00975
6469.44413	1.39283	0.00977
6467.94402	1.39283	0.00977
6466.44391	1.39284	0.00976
6464.94379	1.39285	0.00974
6463.44368	1.39285	0.00972
6461.94357	1.39284	0.00969
6460.44346	1.39283	0.00964
6458.94335	1.39279	0.00961
6457.44324	1.39277	0.00958
6455.94312	1.39274	0.00955
6454.44301	1.3927	0.00955
6452.9429	1.39267	0.00957
6451.44279	1.39265	0.0096
6449.94268	1.39263	0.00964
6448.44256	1.39263	0.00967
6446.94245	1.39262	0.00968
6445.44234	1.39262	0.00966
6443.94223	1.39261	0.00963
6442.44212	1.39259	0.0096
6440.94201	1.39256	0.00957
6439.44189	1.39255	0.00958
6437.94178	1.39253	0.0096
6436.44167	1.39252	0.00963
6434.94156	1.39251	0.00968
6433.44145	1.39251	0.00971
6431.94133	1.39252	0.00973
6430.44122	1.39252	0.00972
6428.94111	1.39253	0.00969
6427.441	1.39253	0.00966
6425.94089	1.39252	0.00963
6424.44078	1.39251	0.0096
6422.94066	1.39249	0.0096
6421.44055	1.39246	0.00961
6419.94044	1.39244	0.00962
6418.44033	1.39242	0.00966
6416.94022	1.39242	0.00969
6415.4401	1.39243	0.00972
6413.93999	1.39244	0.00973
6412.43988	1.39245	0.00975
6410.93977	1.39247	0.00974
6409.43966	1.39249	0.00973
6407.93955	1.3925	0.00969
6406.43943	1.3925	0.00964
6404.93932	1.39248	0.0096
6403.43921	1.39247	0.00958
6401.9391	1.39245	0.00956
6400.43899	1.39242	0.00956
6398.93887	1.3924	0.00957
6397.43876	1.39237	0.00958
6395.93865	1.39236	0.0096
6394.43854	1.39235	0.00962
6392.93843	1.39235	0.00963
6391.43832	1.39235	0.00966
6389.9382	1.39236	0.00967
6388.43809	1.39237	0.00967
6386.93798	1.39238	0.00966
6385.43787	1.39238	0.00963
6383.93776	1.39238	0.0096
6382.43764	1.39238	0.00958
6380.93753	1.39237	0.00956
6379.43742	1.39237	0.00956
6377.93731	1.39236	0.00957
6376.4372	1.39235	0.00957
6374.93709	1.39235	0.00957
6373.43697	1.39234	0.00957
6371.93686	1.39234	0.00954
6370.43675	1.39233	0.00952
6368.93664	1.39232	0.0095
6367.43653	1.3923	0.00948
6365.93641	1.39228	0.00947
6364.4363	1.39226	0.00948
6362.93619	1.39225	0.00948
6361.43608	1.39223	0.00948
6359.93597	1.3922	0.00948
6358.43586	1.39219	0.00949
6356.93574	1.39219	0.00951
6355.43563	1.39219	0.00952
6353.93552	1.3922	0.00955
6352.43541	1.3922	0.00956
6350.9353	1.39221	0.00958
6349.43518	1.39223	0.00957
6347.93507	1.39225	0.00956
6346.43496	1.39226	0.00953
6344.93485	1.39228	0.0095
6343.43474	1.39228	0.00947
6341.93463	1.39228	0.00944
6340.43451	1.39227	0.00941
6338.9344	1.39226	0.00937
6337.43429	1.39224	0.00934
6335.93418	1.39222	0.00932
6334.43407	1.39219	0.0093
6332.93395	1.39217	0.00928
6331.43384	1.39215	0.00928
6329.93373	1.39212	0.00927
6328.43362	1.3921	0.00927
6326.93351	1.39207	0.00926
6325.4334	1.39204	0.00925
6323.93328	1.39201	0.00923
6322.43317	1.39198	0.00922
6320.93306	1.39194	0.0092
6319.43295	1.3919	0.00921
6317.93284	1.39186	0.00923
6316.43273	1.39183	0.00927
6314.93261	1.39182	0.00931
6313.4325	1.39181	0.00937
6311.93239	1.39181	0.00942
6310.43228	1.39183	0.00946
6308.93217	1.39186	0.00949
6307.43205	1.39188	0.00948
6305.93194	1.39191	0.00948
6304.43183	1.39193	0.00945
6302.93172	1.39194	0.00941
6301.43161	1.39195	0.00938
6299.9315	1.39195	0.00935
6298.43138	1.39195	0.00934
6296.93127	1.39194	0.00932
6295.43116	1.39193	0.00932
6293.93105	1.39192	0.00931
6292.43094	1.3919	0.00931
6290.93082	1.3919	0.00929
6289.43071	1.39188	0.00927
6287.9306	1.39188	0.00925
6286.43049	1.39187	0.00924
6284.93038	1.39187	0.00924
6283.43027	1.39185	0.00924
6281.93015	1.39185	0.00924
6280.43004	1.39184	0.00924
6278.92993	1.39184	0.00922
6277.42982	1.39183	0.00918
6275.92971	1.39181	0.00914
6274.42959	1.39178	0.00911
6272.92948	1.39175	0.00908
6271.42937	1.39171	0.00907
6269.92926	1.39168	0.00908
6268.42915	1.39165	0.00909
6266.92904	1.39161	0.0091
6265.42892	1.39158	0.00911
6263.92881	1.39155	0.00912
6262.4287	1.39153	0.00914
6260.92859	1.39152	0.00916
6259.42848	1.3915	0.0092
6257.92836	1.3915	0.00922
6256.42825	1.3915	0.00924
6254.92814	1.3915	0.00925
6253.42803	1.3915	0.00926
6251.92792	1.3915	0.00927
6250.42781	1.39151	0.00928
6248.92769	1.39153	0.00928
6247.42758	1.39153	0.00929
6245.92747	1.39154	0.00929
6244.42736	1.39155	0.00928
6242.92725	1.39156	0.00927
6241.42713	1.39157	0.00926
6239.92702	1.39157	0.00923
6238.42691	1.39155	0.00921
6236.9268	1.39154	0.00919
6235.42669	1.39153	0.00917
6233.92658	1.39152	0.00916
6232.42646	1.3915	0.00916
6230.92635	1.39149	0.00917
6229.42624	1.39147	0.0092
6227.92613	1.39148	0.00922
6226.42602	1.39149	0.00924
6224.9259	1.39151	0.00924
6223.42579	1.39151	0.00922
6221.92568	1.39152	0.0092
6220.42557	1.39152	0.00916
6218.92546	1.39151	0.00912
6217.42535	1.3915	0.00908
6215.92523	1.39147	0.00905
6214.42512	1.39145	0.00905
6212.92501	1.39143	0.00906
6211.4249	1.39141	0.00908
6209.92479	1.39141	0.00911
6208.42467	1.39142	0.00913
6206.92456	1.39142	0.00914
6205.42445	1.39143	0.00913
6203.92434	1.39144	0.0091
6202.42423	1.39144	0.00905
6200.92412	1.39143	0.00901
6199.424	1.39141	0.00896
6197.92389	1.39139	0.00894
6196.42378	1.39137	0.00894
6194.92367	1.39134	0.00895
6193.42356	1.39133	0.00897
6191.92344	1.39131	0.00899
6190.42333	1.39131	0.009
6188.92322	1.3913	0.00899
6187.42311	1.3913	0.00898
6185.923	1.3913	0.00895
6184.42289	1.39128	0.00892
6182.92277	1.39127	0.0089
6181.42266	1.39125	0.00888
6179.92255	1.39124	0.00887
6178.42244	1.39121	0.00887
6176.92233	1.3912	0.00887
6175.42221	1.39118	0.00888
6173.9221	1.39117	0.00888
6172.42199	1.39115	0.00888
6170.92188	1.39113	0.00888
6169.42177	1.39112	0.00886
6167.92166	1.3911	0.00884
6166.42154	1.39108	0.00883
6164.92143	1.39105	0.00882
6163.42132	1.39104	0.00883
6161.92121	1.39102	0.00886
6160.4211	1.39101	0.00888
6158.92098	1.391	0.0089
6157.42087	1.39099	0.00891
6155.92076	1.39099	0.0089
6154.42065	1.39098	0.00889
6152.92054	1.39098	0.00889
6151.42043	1.39098	0.00888
6149.92031	1.39097	0.00888
6148.4202	1.39097	0.0089
6146.92009	1.39097	0.00891
6145.41998	1.39098	0.00892
6143.91987	1.39099	0.00893
6142.41975	1.39099	0.00892
6140.91964	1.391	0.0089
6139.41953	1.391	0.00887
6137.91942	1.391	0.00883
6136.41931	1.391	0.00881
6134.9192	1.39098	0.00878
6133.41908	1.39097	0.00877
6131.91897	1.39095	0.00875
6130.41886	1.39094	0.00874
6128.91875	1.39091	0.00874
6127.41864	1.39089	0.00873
6125.91853	1.39088	0.00872
6124.41841	1.39086	0.00871
6122.9183	1.39085	0.00871
6121.41819	1.39083	0.00871
6119.91808	1.39082	0.00871
6118.41797	1.3908	0.00871
6116.91785	1.39078	0.0087
6115.41774	1.39077	0.00869
6113.91763	1.39075	0.00867
6112.41752	1.39073	0.00866
6110.91741	1.3907	0.00866
6109.4173	1.39069	0.00868
6107.91718	1.39068	0.0087
6106.41707	1.39067	0.00872
6104.91696	1.39067	0.00874
6103.41685	1.39067	0.00875
6101.91674	1.39067	0.00874
6100.41662	1.39067	0.00872
6098.91651	1.39067	0.0087
6097.4164	1.39067	0.00868
6095.91629	1.39067	0.00867
6094.41618	1.39066	0.00867
6092.91607	1.39065	0.00867
6091.41595	1.39063	0.00866
6089.91584	1.39063	0.00864
6088.41573	1.39061	0.00863
6086.91562	1.39059	0.00861
6085.41551	1.39057	0.00861
6083.91539	1.39055	0.00861
6082.41528	1.39054	0.00861
6080.91517	1.39052	0.00863
6079.41506	1.39052	0.00864
6077.91495	1.39051	0.00865
6076.41484	1.39051	0.00866
6074.91472	1.39052	0.00867
6073.41461	1.39054	0.00869
6071.9145	1.39055	0.00869
6070.41439	1.39058	0.00868
6068.91428	1.3906	0.00867
6067.41416	1.39062	0.00863
6065.91405	1.39063	0.00859
6064.41394	1.39064	0.00854
6062.91383	1.39063	0.00848
6061.41372	1.39061	0.00843
6059.91361	1.39059	0.00837
6058.41349	1.39054	0.00831
6056.91338	1.3905	0.00827
6055.41327	1.39044	0.00825
6053.91316	1.39038	0.00824
6052.41305	1.39034	0.00825
6050.91293	1.39029	0.00828
6049.41282	1.39025	0.00831
6047.91271	1.39022	0.00833
6046.4126	1.39019	0.00835
6044.91249	1.39017	0.00836
6043.41238	1.39016	0.00837
6041.91226	1.39015	0.00838
6040.41215	1.39014	0.0084
6038.91204	1.39014	0.00842
6037.41193	1.39014	0.00844
6035.91182	1.39016	0.00847
6034.4117	1.39017	0.00848
6032.91159	1.3902	0.00848
6031.41148	1.3902	0.00847
6029.91137	1.39021	0.00844
6028.41126	1.39022	0.00839
6026.91115	1.39022	0.00834
6025.41103	1.39022	0.0083
6023.91092	1.39019	0.00826
6022.41081	1.39016	0.00823
6020.9107	1.39013	0.00823
6019.41059	1.3901	0.00822
6017.91047	1.39008	0.00822
6016.41036	1.39005	0.00821
6014.91025	1.39003	0.00821
6013.41014	1.39001	0.0082
6011.91003	1.38998	0.0082
6010.40992	1.38997	0.00819
6008.9098	1.38996	0.00818
6007.40969	1.38993	0.00815
6005.90958	1.3899	0.00813
6004.40947	1.38986	0.00812
6002.90936	1.38982	0.00811
6001.40924	1.38978	0.00811
5999.90913	1.38975	0.00813
5998.40902	1.38972	0.00815
5996.90891	1.38971	0.00818
5995.4088	1.38969	0.00821
5993.90869	1.38968	0.00824
5992.40857	1.38968	0.00827
5990.90846	1.38968	0.00827
5989.40835	1.38969	0.00826
5987.90824	1.38969	0.00824
5986.40813	1.38968	0.00822
5984.90801	1.38966	0.00821
5983.4079	1.38964	0.00819
5981.90779	1.38963	0.00819
5980.40768	1.38962	0.0082
5978.90757	1.3896	0.00821
5977.40746	1.38958	0.00822
5975.90734	1.38957	0.00824
5974.40723	1.38956	0.00824
5972.90712	1.38957	0.00826
5971.40701	1.38957	0.00825
5969.9069	1.38957	0.00825
5968.40678	1.38957	0.00824
5966.90667	1.38957	0.00824
5965.40656	1.38958	0.00822
5963.90645	1.38958	0.00821
5962.40634	1.38958	0.00819
5960.90623	1.38957	0.00817
5959.40611	1.38955	0.00814
5957.906	1.38954	0.00811
5956.40589	1.38951	0.00807
5954.90578	1.38948	0.00804
5953.40567	1.38944	0.00803
5951.90555	1.3894	0.00803
5950.40544	1.38936	0.00804
5948.90533	1.38932	0.00807
5947.40522	1.3893	0.0081
5945.90511	1.38928	0.00813
5944.405	1.38927	0.00815
5942.90488	1.38928	0.00817
5941.40477	1.38929	0.0082
5939.90466	1.3893	0.00822
5938.40455	1.38932	0.00824
5936.90444	1.38934	0.00824
5935.40433	1.38937	0.00822
5933.90421	1.38938	0.00819
5932.4041	1.38939	0.00814
5930.90399	1.3894	0.00808
5929.40388	1.38939	0.00805
5927.90377	1.38938	0.00801
5926.40365	1.38937	0.00799
5924.90354	1.38934	0.00796
5923.40343	1.38931	0.00793
5921.90332	1.38927	0.00789
5920.40321	1.38923	0.00784
5918.9031	1.38917	0.0078
5917.40298	1.38912	0.00779
5915.90287	1.38907	0.00779
5914.40276	1.38902	0.00781
5912.90265	1.38897	0.00784
5911.40254	1.38894	0.00788
5909.90242	1.3889	0.00791
5908.40231	1.38889	0.00795
5906.9022	1.38888	0.00798
5905.40209	1.38888	0.00801
5903.90198	1.38888	0.00803
5902.40187	1.3889	0.00805
5900.90175	1.38891	0.00805
5899.40164	1.38891	0.00804
5897.90153	1.38891	0.00801
5896.40142	1.38891	0.00797
5894.90131	1.38889	0.00794
5893.40119	1.38887	0.00793
5891.90108	1.38885	0.00792
5890.40097	1.38882	0.00793
5888.90086	1.38881	0.00795
5887.40075	1.38879	0.00797
5885.90064	1.38878	0.00798
5884.40052	1.38878	0.00799
5882.90041	1.38878	0.00799
5881.4003	1.38878	0.00799
5879.90019	1.38878	0.00799
5878.40008	1.38877	0.00797
5876.89996	1.38877	0.00796
5875.39985	1.38876	0.00793
5873.89974	1.38874	0.00791
5872.39963	1.38873	0.0079
5870.89952	1.38871	0.0079
5869.39941	1.3887	0.0079
5867.89929	1.38869	0.00792
5866.39918	1.38869	0.00793
5864.89907	1.38869	0.00792
5863.39896	1.38868	0.00792
5861.89885	1.38868	0.0079
5860.39873	1.38867	0.00787
5858.89862	1.38867	0.00785
5857.39851	1.38865	0.00783
5855.8984	1.38864	0.00779
5854.39829	1.38861	0.00776
5852.89818	1.38858	0.00775
5851.39806	1.38855	0.00773
5849.89795	1.38851	0.00772
5848.39784	1.38849	0.00773
5846.89773	1.38846	0.00775
5845.39762	1.38845	0.00776
5843.8975	1.38842	0.00777
5842.39739	1.38841	0.00776
5840.89728	1.38838	0.00775
5839.39717	1.38837	0.00774
5837.89706	1.38835	0.00773
5836.39695	1.38833	0.00773
5834.89683	1.38831	0.00774
5833.39672	1.38829	0.00776
5831.89661	1.38829	0.00778
5830.3965	1.38829	0.0078
5828.89639	1.38829	0.0078
5827.39627	1.38829	0.0078
5825.89616	1.38829	0.00777
5824.39605	1.38828	0.00773
5822.89594	1.38825	0.00768
5821.39583	1.38824	0.00765
5819.89572	1.3882	0.00762
5818.3956	1.38817	0.00762
5816.89549	1.38813	0.00763
5815.39538	1.38809	0.00766
5813.89527	1.38806	0.00769
5812.39516	1.38804	0.0077
5810.89504	1.38802	0.00771
5809.39493	1.388	0.0077
5807.89482	1.38797	0.0077
5806.39471	1.38796	0.00771
5804.8946	1.38795	0.00772
5803.39449	1.38795	0.00776
5801.89437	1.38795	0.00781
5800.39426	1.38797	0.00785
5798.89415	1.38798	0.00786
5797.39404	1.38801	0.00786
5795.89393	1.38803	0.00784
5794.39381	1.38804	0.00779
5792.8937	1.38805	0.00773
5791.39359	1.38804	0.00767
5789.89348	1.38801	0.00764
5788.39337	1.38799	0.00761
5786.89326	1.38796	0.0076
5785.39314	1.38793	0.0076
5783.89303	1.3879	0.0076
5782.39292	1.38787	0.0076
5780.89281	1.38785	0.0076
5779.3927	1.38783	0.00759
5777.89258	1.38782	0.00758
5776.39247	1.38779	0.00758
5774.89236	1.38777	0.00758
5773.39225	1.38774	0.00758
5771.89214	1.38773	0.00758
5770.39203	1.38771	0.00758
5768.89191	1.38769	0.00757
5767.3918	1.38767	0.00757
5765.89169	1.38764	0.00757
5764.39158	1.38763	0.00757
5762.89147	1.3876	0.00758
5761.39135	1.38759	0.00758
5759.89124	1.38757	0.0076
5758.39113	1.38756	0.0076
5756.89102	1.38755	0.00762
5755.39091	1.38755	0.00762
5753.8908	1.38754	0.00764
5752.39068	1.38755	0.00766
5750.89057	1.38755	0.00767
5749.39046	1.38756	0.00766
5747.89035	1.38757	0.00764
5746.39024	1.38757	0.00761
5744.89013	1.38757	0.00759
5743.39001	1.38756	0.00756
5741.8899	1.38756	0.00756
5740.38979	1.38757	0.00756
5738.88968	1.38757	0.00756
5737.38957	1.38757	0.00755
5735.88945	1.38755	0.0075
5734.38934	1.38753	0.00744
5732.88923	1.3875	0.00737
5731.38912	1.38746	0.00729
5729.88901	1.3874	0.00724
5728.3889	1.38733	0.00722
5726.88878	1.38727	0.00723
5725.38867	1.3872	0.00728
5723.88856	1.38717	0.00735
5722.38845	1.38713	0.00741
5720.88834	1.38712	0.00746
5719.38822	1.38712	0.0075
5717.88811	1.38713	0.00752
5716.388	1.38715	0.00752
5714.88789	1.38717	0.0075
5713.38778	1.38718	0.00749
5711.88767	1.38717	0.00745
5710.38755	1.38717	0.00742
5708.88744	1.38715	0.00738
5707.38733	1.38713	0.00736
5705.88722	1.3871	0.00735
5704.38711	1.38707	0.00735
5702.88699	1.38705	0.00737
5701.38688	1.38703	0.00739
5699.88677	1.38702	0.0074
5698.38666	1.38702	0.0074
5696.88655	1.38701	0.00739
5695.38644	1.387	0.00737
5693.88632	1.38699	0.00735
5692.38621	1.38697	0.00733
5690.8861	1.38696	0.00731
5689.38599	1.38694	0.00729
5687.88588	1.38691	0.00727
5686.38576	1.38688	0.00726
5684.88565	1.38684	0.00726
5683.38554	1.38681	0.00726
5681.88543	1.38678	0.00727
5680.38532	1.38677	0.00728
5678.88521	1.38674	0.0073
5677.38509	1.38673	0.00731
5675.88498	1.38671	0.00731
5674.38487	1.38669	0.00731
5672.88476	1.38668	0.0073
5671.38465	1.38665	0.00728
5669.88453	1.38663	0.00728
5668.38442	1.38661	0.00729
5666.88431	1.3866	0.00732
5665.3842	1.38659	0.00735
5663.88409	1.38659	0.00739
5662.38398	1.3866	0.00742
5660.88386	1.38662	0.00743
5659.38375	1.38663	0.00741
5657.88364	1.38664	0.00737
5656.38353	1.38664	0.00732
5654.88342	1.38662	0.00727
5653.3833	1.38662	0.00723
5651.88319	1.38659	0.00721
5650.38308	1.38657	0.00721
5648.88297	1.38655	0.00722
5647.38286	1.38652	0.00724
5645.88275	1.38651	0.00724
5644.38263	1.38649	0.00723
5642.88252	1.38648	0.00719
5641.38241	1.38646	0.00715
5639.8823	1.38641	0.00711
5638.38219	1.38638	0.00709
5636.88207	1.38635	0.00709
5635.38196	1.38631	0.00712
5633.88185	1.38628	0.00716
5632.38174	1.38626	0.00719
5630.88163	1.38626	0.00722
5629.38152	1.38626	0.00724
5627.8814	1.38627	0.00725
5626.38129	1.38627	0.00724
5624.88118	1.38628	0.00721
5623.38107	1.38628	0.00719
5621.88096	1.38627	0.00715
5620.38084	1.38626	0.00711
5618.88073	1.38623	0.00708
5617.38062	1.3862	0.00706
5615.88051	1.38617	0.00705
5614.3804	1.38614	0.00706
5612.88029	1.38611	0.00707
5611.38017	1.38609	0.00709
5609.88006	1.38608	0.0071
5608.37995	1.38607	0.0071
5606.87984	1.38606	0.0071
5605.37973	1.38606	0.0071
5603.87961	1.38605	0.00708
5602.3795	1.38605	0.00707
5600.87939	1.38603	0.00704
5599.37928	1.38602	0.00701
5597.87917	1.38599	0.00697
5596.37906	1.38596	0.00694
5594.87894	1.38592	0.00692
5593.37883	1.38589	0.00692
5591.87872	1.38586	0.00693
5590.37861	1.38584	0.00695
5588.8785	1.38581	0.00696
5587.37838	1.38578	0.00698
5585.87827	1.38576	0.00698
5584.37816	1.38575	0.00697
5582.87805	1.38574	0.00694
5581.37794	1.38571	0.00693
5579.87783	1.38568	0.00693
5578.37771	1.38566	0.00693
5576.8776	1.38563	0.00694
5575.37749	1.38562	0.00695
5573.87738	1.38561	0.00697
5572.37727	1.38559	0.00698
5570.87715	1.38558	0.00698
5569.37704	1.38557	0.00698
5567.87693	1.38557	0.00697
5566.37682	1.38556	0.00697
5564.87671	1.38555	0.00694
5563.3766	1.38553	0.00692
5561.87648	1.38552	0.00691
5560.37637	1.38549	0.0069
5558.87626	1.38547	0.00689
5557.37615	1.38544	0.00689
5555.87604	1.38542	0.00689
5554.37592	1.3854	0.00689
5552.87581	1.38537	0.00689
5551.3757	1.38536	0.0069
5549.87559	1.38534	0.00691
5548.37548	1.38533	0.00691
5546.87537	1.38531	0.00691
5545.37525	1.3853	0.0069
5543.87514	1.38528	0.00689
5542.37503	1.38526	0.00687
5540.87492	1.38526	0.00687
5539.37481	1.38524	0.00687
5537.8747	1.38523	0.00688
5536.37458	1.38521	0.00689
5534.87447	1.3852	0.00689
5533.37436	1.38519	0.00688
5531.87425	1.38518	0.00686
5530.37414	1.38517	0.00684
5528.87402	1.38516	0.00682
5527.37391	1.38513	0.00682
5525.8738	1.38511	0.00682
5524.37369	1.3851	0.00682
5522.87358	1.38508	0.00682
5521.37347	1.38506	0.00681
5519.87335	1.38503	0.0068
5518.37324	1.38502	0.00679
5516.87313	1.385	0.00679
5515.37302	1.38498	0.0068
5513.87291	1.38498	0.00682
5512.37279	1.38498	0.00685
5510.87268	1.38499	0.00686
5509.37257	1.385	0.00686
5507.87246	1.38501	0.00684
5506.37235	1.38502	0.00681
5504.87224	1.38503	0.00675
5503.37212	1.38502	0.00669
5501.87201	1.385	0.00664
5500.3719	1.38497	0.00659
5498.87179	1.38492	0.00654
5497.37168	1.38487	0.0065
5495.87156	1.38481	0.00648
5494.37145	1.38475	0.00647
5492.87134	1.3847	0.00649
5491.37123	1.38464	0.00652
5489.87112	1.3846	0.00656
5488.37101	1.38458	0.0066
5486.87089	1.38458	0.00664
5485.37078	1.38459	0.00667
5483.87067	1.38459	0.00668
5482.37056	1.3846	0.00667
5480.87045	1.3846	0.00665
5479.37033	1.38461	0.00661
5477.87022	1.38462	0.00657
5476.37011	1.3846	0.00651
5474.87	1.38457	0.00647
5473.36989	1.38455	0.00646
5471.86978	1.38452	0.00645
5470.36966	1.3845	0.00644
5468.86955	1.38446	0.00641
5467.36944	1.3844	0.00638
5465.86933	1.38435	0.00634
5464.36922	1.38429	0.0063
5462.8691	1.38424	0.00628
5461.36899	1.38419	0.00629
5459.86888	1.38413	0.00634
5458.36877	1.3841	0.00641
5456.86866	1.38408	0.00647
5455.36855	1.38406	0.00652
5453.86843	1.38406	0.00654
5452.36832	1.38405	0.00652
5450.86821	1.38405	0.00649
5449.3681	1.38404	0.00646
5447.86799	1.38403	0.00644
5446.36787	1.38401	0.00645
5444.86776	1.384	0.00649
5443.36765	1.38399	0.00652
5441.86754	1.38399	0.00655
5440.36743	1.38399	0.00655
5438.86732	1.384	0.00653
5437.3672	1.384	0.00649
5435.86709	1.38397	0.00642
5434.36698	1.38395	0.00637
5432.86687	1.38391	0.00635
5431.36676	1.38388	0.00634
5429.86664	1.38385	0.00635
5428.36653	1.38382	0.00638
5426.86642	1.3838	0.00643
5425.36631	1.3838	0.00647
5423.8662	1.38381	0.00649
5422.36609	1.38383	0.00649
5420.86597	1.38384	0.00646
5419.36586	1.38384	0.00641
5417.86575	1.38383	0.00634
5416.36564	1.38381	0.00625
5414.86553	1.38376	0.00617
5413.36541	1.3837	0.00613
5411.8653	1.38364	0.00613
5410.36519	1.38358	0.00615
5408.86508	1.38354	0.00621
5407.36497	1.38351	0.00627
5405.86486	1.38351	0.00633
5404.36474	1.38352	0.00637
5402.86463	1.38352	0.00637
5401.36452	1.38354	0.00633
5399.86441	1.38354	0.00628
5398.3643	1.38355	0.00622
5396.86418	1.38355	0.00616
5395.36407	1.38352	0.00611
5393.86396	1.38348	0.00609
5392.36385	1.38342	0.00606
5390.86374	1.38337	0.00604
5389.36363	1.38334	0.00602
5387.86351	1.3833	0.006
5386.3634	1.38325	0.00599
5384.86329	1.3832	0.006
5383.36318	1.38315	0.00602
5381.86307	1.38313	0.00604
5380.36295	1.38311	0.00604
5378.86284	1.38308	0.00603
5377.36273	1.38303	0.006
5375.86262	1.38299	0.00598
5374.36251	1.38295	0.00597
5372.8624	1.38291	0.00598
5371.36228	1.38288	0.00601
5369.86217	1.38284	0.00604
5368.36206	1.3828	0.00607
5366.86195	1.38279	0.00608
5365.36184	1.38277	0.00611
5363.86172	1.38277	0.00613
5362.36161	1.38277	0.00614
5360.8615	1.38276	0.00617
5359.36139	1.38276	0.00618
5357.86128	1.38278	0.00616
5356.36117	1.38279	0.00615
5354.86105	1.3828	0.00612
5353.36094	1.38279	0.00609
5351.86083	1.38276	0.00606
5350.36072	1.38275	0.00604
5348.86061	1.38275	0.00602
5347.3605	1.38274	0.00599
5345.86038	1.3827	0.00594
5344.36027	1.38265	0.00591
5342.86016	1.38262	0.0059
5341.36005	1.3826	0.00589
5339.85994	1.38259	0.00588
5338.35982	1.38256	0.00586
5336.85971	1.3825	0.00585
5335.3596	1.38246	0.00584
5333.85949	1.38243	0.00581
5332.35938	1.38238	0.00577
5330.85927	1.38235	0.00575
5329.35915	1.38229	0.00575
5327.85904	1.38223	0.00576
5326.35893	1.38219	0.00578
5324.85882	1.38217	0.00582
5323.35871	1.38214	0.00585
5321.85859	1.38213	0.00588
5320.35848	1.38213	0.00589
5318.85837	1.38213	0.00589
5317.35826	1.38212	0.00586
5315.85815	1.38211	0.00583
5314.35804	1.38209	0.0058
5312.85792	1.38207	0.00576
5311.35781	1.38204	0.00572
5309.8577	1.382	0.00568
5308.35759	1.38194	0.00565
5306.85748	1.38188	0.00564
5305.35736	1.38182	0.00564
5303.85725	1.38177	0.00566
5302.35714	1.38174	0.00568
5300.85703	1.38171	0.00571
5299.35692	1.38168	0.00574
5297.85681	1.38165	0.00576
5296.35669	1.38162	0.00576
5294.85658	1.38161	0.00576
5293.35647	1.3816	0.00573
5291.85636	1.38158	0.0057
5290.35625	1.38153	0.00568
5288.85613	1.38149	0.00567
5287.35602	1.38144	0.00567
5285.85591	1.3814	0.00567
5284.3558	1.38136	0.00569
5282.85569	1.38132	0.00572
5281.35558	1.38129	0.00574
5279.85546	1.38126	0.00577
5278.35535	1.38125	0.00581
5276.85524	1.38125	0.00584
5275.35513	1.38126	0.00586
5273.85502	1.38127	0.00587
5272.3549	1.38127	0.00586
5270.85479	1.38125	0.00582
5269.35468	1.38123	0.00575
5267.85457	1.38121	0.0057
5266.35446	1.38119	0.00565
5264.85435	1.38114	0.00564
5263.35423	1.38109	0.00565
5261.85412	1.38104	0.00569
5260.35401	1.381	0.00573
5258.8539	1.38099	0.00576
5257.35379	1.38098	0.00576
5255.85367	1.38097	0.00574
5254.35356	1.38093	0.00571
5252.85345	1.38089	0.00568
5251.35334	1.38087	0.00567
5249.85323	1.38085	0.00566
5248.35312	1.38082	0.00567
5246.853	1.38078	0.00569
5245.35289	1.38074	0.0057
5243.85278	1.38072	0.00573
5242.35267	1.38071	0.00575
5240.85256	1.38071	0.00576
5239.35244	1.3807	0.00577
5237.85233	1.3807	0.00576
5236.35222	1.38069	0.00574
5234.85211	1.38068	0.00571
5233.352	1.38067	0.00568
5231.85189	1.38065	0.00565
5230.35177	1.38062	0.00563
5228.85166	1.38059	0.00561
5227.35155	1.38055	0.0056
5225.85144	1.38052	0.00558
5224.35133	1.38048	0.00558
5222.85121	1.38046	0.00561
5221.3511	1.38045	0.00563
5219.85099	1.38047	0.00566
5218.35088	1.38049	0.00568
5216.85077	1.38051	0.00568
5215.35066	1.38053	0.00564
5213.85054	1.38054	0.00555
5212.35043	1.38055	0.00542
5210.85032	1.38052	0.00527
5209.35021	1.38046	0.00511
5207.8501	1.38035	0.00497
5206.34998	1.3802	0.00485
5204.84987	1.38004	0.00478
5203.34976	1.37987	0.00475
5201.84965	1.3797	0.00475
5200.34954	1.37953	0.0048
5198.84943	1.37936	0.0049
5197.34931	1.37923	0.00503
5195.8492	1.37914	0.00518
5194.34909	1.37906	0.0053
5192.84898	1.37901	0.00541
5191.34887	1.37897	0.00549
5189.84875	1.37894	0.00556
5188.34864	1.37892	0.00563
5186.84853	1.37892	0.00571
5185.34842	1.37894	0.00581
5183.84831	1.37896	0.00591
5182.3482	1.37899	0.00599
5180.84808	1.37902	0.00604
5179.34797	1.37905	0.00607
5177.84786	1.37908	0.00605
5176.34775	1.3791	0.00602
5174.84764	1.37911	0.00599
5173.34752	1.3791	0.00596
5171.84741	1.37908	0.00596
5170.3473	1.37906	0.00597
5168.84719	1.37904	0.006
5167.34708	1.37903	0.00603
5165.84697	1.37901	0.00606
5164.34685	1.37899	0.00609
5162.84674	1.37899	0.00612
5161.34663	1.379	0.00614
5159.84652	1.37901	0.00615
5158.34641	1.37902	0.00616
5156.8463	1.37902	0.00617
5155.34618	1.37903	0.00617
5153.84607	1.37903	0.00617
5152.34596	1.37904	0.00617
5150.84585	1.37905	0.00617
5149.34574	1.37905	0.00617
5147.84562	1.37906	0.00616
5146.34551	1.37906	0.00616
5144.8454	1.37906	0.00614
5143.34529	1.37906	0.00613
5141.84518	1.37906	0.0061
5140.34507	1.37905	0.00607
5138.84495	1.37903	0.00604
5137.34484	1.379	0.00601
5135.84473	1.37898	0.00599
5134.34462	1.37895	0.00599
5132.84451	1.37894	0.006
5131.34439	1.37893	0.00602
5129.84428	1.37892	0.00604
5128.34417	1.37891	0.00605
5126.84406	1.37891	0.00603
5125.34395	1.3789	0.00599
5123.84384	1.37888	0.00594
5122.34372	1.37885	0.00588
5120.84361	1.3788	0.00583
5119.3435	1.37875	0.00581
5117.84339	1.3787	0.00582
5116.34328	1.37865	0.00585
5114.84316	1.37861	0.00589
5113.34305	1.37857	0.00594
5111.84294	1.37856	0.00599
5110.34283	1.37856	0.00603
5108.84272	1.37859	0.00606
5107.34261	1.37861	0.00609
5105.84249	1.37864	0.00609
5104.34238	1.37867	0.00606
5102.84227	1.37869	0.00603
5101.34216	1.3787	0.00596
5099.84205	1.3787	0.00589
5098.34193	1.37867	0.00582
5096.84182	1.37863	0.00576
5095.34171	1.37859	0.00572
5093.8416	1.37854	0.0057
5092.34149	1.37849	0.0057
5090.84138	1.37845	0.00571
5089.34126	1.3784	0.00572
5087.84115	1.37836	0.00573
5086.34104	1.37832	0.00575
5084.84093	1.3783	0.00575
5083.34082	1.37828	0.00576
5081.8407	1.37827	0.00577
5080.34059	1.37827	0.00579
5078.84048	1.37827	0.00581
5077.34037	1.37829	0.00585
5075.84026	1.37832	0.00585
5074.34015	1.37834	0.00584
5072.84003	1.37836	0.00579
5071.33992	1.37836	0.00571
5069.83981	1.37835	0.00561
5068.3397	1.37832	0.00551
5066.83959	1.37826	0.00541
5065.33947	1.37819	0.00535
5063.83936	1.3781	0.00532
5062.33925	1.37801	0.00532
5060.83914	1.37794	0.00534
5059.33903	1.37786	0.00538
5057.83892	1.37781	0.00543
5056.3388	1.37777	0.00548
5054.83869	1.37775	0.00552
5053.33858	1.37773	0.00556
5051.83847	1.37773	0.00558
5050.33836	1.37772	0.00558
5048.83824	1.37772	0.00556
5047.33813	1.37771	0.00553
5045.83802	1.3777	0.00552
5044.33791	1.37768	0.0055
5042.8378	1.37766	0.00551
5041.33769	1.37765	0.00552
5039.83757	1.37763	0.00553
5038.33746	1.37763	0.00553
5036.83735	1.37762	0.00551
5035.33724	1.3776	0.00548
5033.83713	1.37758	0.00545
5032.33701	1.37755	0.00542
5030.8369	1.37754	0.0054
5029.33679	1.37752	0.00538
5027.83668	1.3775	0.00538
5026.33657	1.37747	0.00538
5024.83646	1.37744	0.00538
5023.33634	1.37742	0.00537
5021.83623	1.3774	0.00535
5020.33612	1.37738	0.00532
5018.83601	1.37736	0.00529
5017.3359	1.37733	0.00526
5015.83578	1.3773	0.00524
5014.33567	1.37728	0.00523
5012.83556	1.37726	0.00524
5011.33545	1.37724	0.00524
5009.83534	1.3772	0.00523
5008.33523	1.37718	0.0052
5006.83511	1.37714	0.00515
5005.335	1.3771	0.00509
5003.83489	1.37704	0.00503
5002.33478	1.37699	0.005
5000.83467	1.37692	0.005
4999.33455	1.37686	0.00503
4997.83444	1.37681	0.00509
4996.33433	1.37678	0.00515
4994.83422	1.37677	0.00521
4993.33411	1.37678	0.00525
4991.834	1.37679	0.00526
4990.33388	1.37681	0.00526
4988.83377	1.37684	0.00523
4987.33366	1.37685	0.00519
4985.83355	1.37687	0.00513
4984.33344	1.37686	0.00506
4982.83332	1.37683	0.00499
4981.33321	1.3768	0.00493
4979.8331	1.37676	0.00487
4978.33299	1.37672	0.00483
4976.83288	1.37668	0.0048
4975.33277	1.37662	0.00478
4973.83265	1.37657	0.00477
4972.33254	1.37651	0.00475
4970.83243	1.37646	0.0047
4969.33232	1.3764	0.00467
4967.83221	1.37633	0.00462
4966.3321	1.37625	0.00459
4964.83198	1.37618	0.00459
4963.33187	1.37611	0.0046
4961.83176	1.37605	0.00465
4960.33165	1.37601	0.0047
4958.83154	1.37597	0.00475
4957.33142	1.37594	0.0048
4955.83131	1.37594	0.00483
4954.3312	1.37594	0.00484
4952.83109	1.37595	0.00484
4951.33098	1.37596	0.00482
4949.83087	1.37596	0.00479
4948.33075	1.37596	0.00475
4946.83064	1.37595	0.0047
4945.33053	1.37593	0.00464
4943.83042	1.37588	0.00458
4942.33031	1.37583	0.00453
4940.83019	1.37576	0.00448
4939.33008	1.37569	0.00445
4937.82997	1.37563	0.00444
4936.32986	1.37556	0.00444
4934.82975	1.3755	0.00447
4933.32964	1.37546	0.0045
4931.82952	1.37541	0.00454
4930.32941	1.3754	0.00458
4928.8293	1.37538	0.0046
4927.32919	1.37538	0.00459
4925.82908	1.37537	0.00457
4924.32896	1.37536	0.00453
4922.82885	1.37533	0.00448
4921.32874	1.3753	0.00444
4919.82863	1.37527	0.00441
4918.32852	1.37523	0.00438
4916.82841	1.3752	0.00438
4915.32829	1.37515	0.00437
4913.82818	1.37512	0.00436
4912.32807	1.37508	0.00434
4910.82796	1.37504	0.00431
4909.32785	1.375	0.00427
4907.82773	1.37495	0.00422
4906.32762	1.3749	0.00418
4904.82751	1.37483	0.00414
4903.3274	1.37476	0.00412
4901.82729	1.37468	0.00411
4900.32718	1.37461	0.00411
4898.82706	1.37454	0.00412
4897.32695	1.37447	0.00415
4895.82684	1.37442	0.00418
4894.32673	1.37436	0.00421
4892.82662	1.37433	0.00424
4891.3265	1.37431	0.00428
4889.82639	1.3743	0.00431
4888.32628	1.37429	0.00434
4886.82617	1.37429	0.00434
4885.32606	1.37428	0.00432
4883.82595	1.37428	0.00429
4882.32583	1.37426	0.00424
4880.82572	1.37423	0.00417
4879.32561	1.37417	0.00412
4877.8255	1.37412	0.00409
4876.32539	1.37407	0.00407
4874.82527	1.37402	0.00407
4873.32516	1.37398	0.00408
4871.82505	1.37393	0.00411
4870.32494	1.3739	0.00412
4868.82483	1.37387	0.00414
4867.32472	1.37384	0.00412
4865.8246	1.37382	0.00409
4864.32449	1.37379	0.00404
4862.82438	1.37374	0.00398
4861.32427	1.37369	0.00392
4859.82416	1.37362	0.00389
4858.32404	1.37355	0.00388
4856.82393	1.37348	0.00388
4855.32382	1.37342	0.00389
4853.82371	1.37334	0.00391
4852.3236	1.37329	0.00392
4850.82349	1.37324	0.00393
4849.32337	1.37318	0.00393
4847.82326	1.37313	0.00394
4846.32315	1.3731	0.00395
4844.82304	1.37305	0.00396
4843.32293	1.37301	0.00397
4841.82281	1.37298	0.00397
4840.3227	1.37294	0.00399
4838.82259	1.37292	0.00399
4837.32248	1.37289	0.004
4835.82237	1.37287	0.00401
4834.32226	1.37285	0.00401
4832.82214	1.37283	0.004
4831.32203	1.3728	0.00397
4829.82192	1.37278	0.00394
4828.32181	1.37274	0.00389
4826.8217	1.37268	0.00384
4825.32158	1.37262	0.00381
4823.82147	1.37256	0.00376
4822.32136	1.37249	0.00375
4820.82125	1.37241	0.00375
4819.32114	1.37233	0.00376
4817.82103	1.37226	0.00379
4816.32091	1.3722	0.00381
4814.8208	1.37215	0.00383
4813.32069	1.3721	0.00386
4811.82058	1.37206	0.00388
4810.32047	1.37202	0.0039
4808.82035	1.37199	0.00391
4807.32024	1.37196	0.00392
4805.82013	1.37193	0.00393
4804.32002	1.3719	0.00392
4802.81991	1.37186	0.00392
4801.3198	1.37183	0.0039
4799.81968	1.37179	0.00388
4798.31957	1.37174	0.00387
4796.81946	1.3717	0.00386
4795.31935	1.37164	0.00386
4793.81924	1.37159	0.00386
4792.31912	1.37153	0.00386
4790.81901	1.37148	0.00387
4789.3189	1.37143	0.00389
4787.81879	1.37139	0.0039
4786.31868	1.37134	0.00393
4784.81857	1.3713	0.00395
4783.31845	1.37126	0.00397
4781.81834	1.37123	0.00398
4780.31823	1.3712	0.00399
4778.81812	1.37117	0.00399
4777.31801	1.37113	0.00398
4775.81789	1.37109	0.00397
4774.31778	1.37105	0.00398
4772.81767	1.37101	0.004
4771.31756	1.37097	0.00401
4769.81745	1.37093	0.00405
4768.31734	1.3709	0.00407
4766.81722	1.37088	0.00409
4765.31711	1.37086	0.0041
4763.817	1.37084	0.00413
4762.31689	1.37082	0.00415
4760.81678	1.37082	0.00416
4759.31667	1.37081	0.00417
4757.81655	1.37081	0.00416
4756.31644	1.3708	0.00416
4754.81633	1.37079	0.00415
4753.31622	1.37079	0.00413
4751.81611	1.37078	0.00412
4750.31599	1.37077	0.00411
4748.81588	1.37075	0.00409
4747.31577	1.37073	0.00406
4745.81566	1.37071	0.00402
4744.31555	1.37069	0.00399
4742.81544	1.37065	0.00395
4741.31532	1.37062	0.00393
4739.81521	1.37059	0.00392
4738.3151	1.37056	0.00391
4736.81499	1.37053	0.0039
4735.31488	1.37049	0.00388
4733.81476	1.37046	0.00385
4732.31465	1.37042	0.00382
4730.81454	1.37038	0.00379
4729.31443	1.37034	0.00376
4727.81432	1.37031	0.00375
4726.31421	1.37027	0.00375
4724.81409	1.37024	0.00374
4723.31398	1.37021	0.00373
4721.81387	1.37018	0.00371
4720.31376	1.37014	0.00368
4718.81365	1.3701	0.00363
4717.31353	1.37004	0.00358
4715.81342	1.36999	0.00354
4714.31331	1.36994	0.00351
4712.8132	1.36988	0.0035
4711.31309	1.36983	0.0035
4709.81298	1.36978	0.00352
4708.31286	1.36974	0.00354
4706.81275	1.3697	0.00354
4705.31264	1.36966	0.00352
4703.81253	1.36962	0.00348
4702.31242	1.36958	0.00343
4700.8123	1.36952	0.00339
4699.31219	1.36946	0.00336
4697.81208	1.36941	0.00336
4696.31197	1.36936	0.00338
4694.81186	1.36931	0.00341
4693.31175	1.36928	0.00343
4691.81163	1.36925	0.00343
4690.31152	1.36922	0.00343
4688.81141	1.36918	0.00339
4687.3113	1.36916	0.00336
4685.81119	1.36912	0.00333
4684.31107	1.36909	0.0033
4682.81096	1.36905	0.00328
4681.31085	1.36901	0.00325
4679.81074	1.36897	0.00323
4678.31063	1.36892	0.00321
4676.81052	1.36887	0.0032
4675.3104	1.36883	0.00317
4673.81029	1.36878	0.00315
4672.31018	1.36872	0.00312
4670.81007	1.36867	0.00309
4669.30996	1.36862	0.00306
4667.80984	1.36856	0.00304
4666.30973	1.36851	0.00304
4664.80962	1.36847	0.00305
4663.30951	1.36843	0.00306
4661.8094	1.36839	0.00307
4660.30929	1.36836	0.00306
4658.80917	1.36833	0.00302
4657.30906	1.3683	0.00298
4655.80895	1.36826	0.00292
4654.30884	1.36821	0.00286
4652.80873	1.36817	0.00281
4651.30861	1.3681	0.00276
4649.8085	1.36803	0.00271
4648.30839	1.36795	0.00268
4646.80828	1.36786	0.00266
4645.30817	1.36779	0.00264
4643.80806	1.36771	0.00263
4642.30794	1.36763	0.00262
4640.80783	1.36756	0.00262
4639.30772	1.3675	0.00263
4637.80761	1.36743	0.00263
4636.3075	1.36737	0.00263
4634.80738	1.36731	0.00263
4633.30727	1.36726	0.00263
4631.80716	1.36721	0.00261
4630.30705	1.36717	0.00259
4628.80694	1.36711	0.00257
4627.30683	1.36705	0.00254
4625.80671	1.36699	0.00252
4624.3066	1.36692	0.00249
4622.80649	1.36685	0.00247
4621.30638	1.36678	0.00245
4619.80627	1.3667	0.00245
4618.30615	1.36663	0.00245
4616.80604	1.36658	0.00247
4615.30593	1.36652	0.00247
4613.80582	1.36647	0.00247
4612.30571	1.36642	0.00247
4610.8056	1.36636	0.00245
4609.30548	1.3663	0.00241
4607.80537	1.36624	0.00237
4606.30526	1.36617	0.00233
4604.80515	1.3661	0.0023
4603.30504	1.36601	0.00228
4601.80492	1.36593	0.00228
4600.30481	1.36584	0.00228
4598.8047	1.36575	0.00229
4597.30459	1.36568	0.00231
4595.80448	1.3656	0.00231
4594.30437	1.36554	0.00233
4592.80425	1.36548	0.00235
4591.30414	1.36542	0.00237
4589.80403	1.36538	0.0024
4588.30392	1.36533	0.00241
4586.80381	1.36528	0.0024
4585.30369	1.36524	0.00239
4583.80358	1.36518	0.00236
4582.30347	1.36511	0.00231
4580.80336	1.36503	0.00227
4579.30325	1.36495	0.00223
4577.80314	1.36486	0.00222
4576.30302	1.36477	0.00224
4574.80291	1.36469	0.00227
4573.3028	1.36461	0.00233
4571.80269	1.36455	0.00238
4570.30258	1.3645	0.00243
4568.80247	1.36445	0.00245
4567.30235	1.36442	0.00246
4565.80224	1.36438	0.00244
4564.30213	1.36433	0.00242
4562.80202	1.36428	0.00239
4561.30191	1.36422	0.00238
4559.80179	1.36417	0.00239
4558.30168	1.3641	0.0024
4556.80157	1.36404	0.00242
4555.30146	1.36399	0.00244
4553.80135	1.36395	0.00247
4552.30124	1.3639	0.00248
4550.80112	1.36386	0.00248
4549.30101	1.36383	0.00248
4547.8009	1.36379	0.00246
4546.30079	1.36375	0.00244
4544.80068	1.36372	0.00243
4543.30056	1.36367	0.00241
4541.80045	1.36361	0.00239
4540.30034	1.36356	0.00235
4538.80023	1.36348	0.00233
4537.30012	1.36342	0.0023
4535.80001	1.36335	0.00229
4534.29989	1.36327	0.00227
4532.79978	1.36319	0.00228
4531.29967	1.36312	0.00229
4529.79956	1.36306	0.00231
4528.29945	1.363	0.00233
4526.79933	1.36295	0.00235
4525.29922	1.36289	0.00236
4523.79911	1.36284	0.00236
4522.299	1.3628	0.00236
4520.79889	1.36276	0.00235
4519.29878	1.36271	0.00235
4517.79866	1.36266	0.00235
4516.29855	1.36261	0.00234
4514.79844	1.36256	0.00234
4513.29833	1.36252	0.00232
4511.79822	1.36247	0.0023
4510.2981	1.36241	0.00228
4508.79799	1.36236	0.00228
4507.29788	1.3623	0.00227
4505.79777	1.36226	0.00227
4504.29766	1.36221	0.00226
4502.79755	1.36216	0.00225
4501.29743	1.3621	0.00223
4499.79732	1.36205	0.0022
4498.29721	1.36198	0.00217
4496.7971	1.36193	0.00214
4495.29699	1.36186	0.00213
4493.79687	1.3618	0.00211
4492.29676	1.36174	0.00211
4490.79665	1.36168	0.00211
4489.29654	1.36162	0.00211
4487.79643	1.36157	0.00211
4486.29632	1.36153	0.00209
4484.7962	1.36147	0.00206
4483.29609	1.36141	0.00201
4481.79598	1.36135	0.00196
4480.29587	1.36127	0.00189
4478.79576	1.36118	0.00184
4477.29564	1.36107	0.0018
4475.79553	1.36096	0.00178
4474.29542	1.36085	0.00178
4472.79531	1.36075	0.00181
4471.2952	1.36066	0.00184
4469.79509	1.36057	0.00188
4468.29497	1.3605	0.00192
4466.79486	1.36044	0.00195
4465.29475	1.36039	0.00196
4463.79464	1.36033	0.00196
4462.29453	1.36029	0.00196
4460.79441	1.36024	0.00195
4459.2943	1.36018	0.00192
4457.79419	1.36011	0.0019
4456.29408	1.36005	0.00188
4454.79397	1.35997	0.00187
4453.29386	1.35991	0.00185
4451.79374	1.35983	0.00185
4450.29363	1.35974	0.00185
4448.79352	1.35967	0.00186
4447.29341	1.35961	0.00187
4445.7933	1.35955	0.00188
4444.29318	1.35948	0.00189
4442.79307	1.35942	0.0019
4441.29296	1.35936	0.0019
4439.79285	1.35932	0.00189
4438.29274	1.35927	0.00188
4436.79263	1.35921	0.00187
4435.29251	1.35915	0.00185
4433.7924	1.35909	0.00183
4432.29229	1.35902	0.00179
4430.79218	1.35895	0.00177
4429.29207	1.35887	0.00174
4427.79195	1.3588	0.00172
4426.29184	1.35871	0.00171
4424.79173	1.35862	0.0017
4423.29162	1.35854	0.0017
4421.79151	1.35846	0.0017
4420.2914	1.35839	0.0017
4418.79128	1.35831	0.00171
4417.29117	1.35823	0.00171
4415.79106	1.35815	0.00171
4414.29095	1.35809	0.0017
4412.79084	1.35801	0.0017
4411.29072	1.35794	0.0017
4409.79061	1.35786	0.0017
4408.2905	1.35779	0.0017
4406.79039	1.35772	0.0017
4405.29028	1.35766	0.00172
4403.79017	1.3576	0.00173
4402.29005	1.35754	0.00173
4400.78994	1.3575	0.00173
4399.28983	1.35744	0.00172
4397.78972	1.35738	0.0017
4396.28961	1.35732	0.00167
4394.78949	1.35725	0.00163
4393.28938	1.35718	0.00158
4391.78927	1.3571	0.00154
4390.28916	1.35701	0.00151
4388.78905	1.35691	0.00149
4387.28894	1.35681	0.00148
4385.78882	1.35672	0.00148
4384.28871	1.35662	0.00149
4382.7886	1.35653	0.0015
4381.28849	1.35645	0.00151
4379.78838	1.35637	0.00153
4378.28827	1.3563	0.00155
4376.78815	1.35623	0.00155
4375.28804	1.35617	0.00156
4373.78793	1.3561	0.00155
4372.28782	1.35604	0.00152
4370.78771	1.35596	0.00149
4369.28759	1.35588	0.00146
4367.78748	1.3558	0.00143
4366.28737	1.35571	0.00142
4364.78726	1.35563	0.00142
4363.28715	1.35554	0.00143
4361.78704	1.35545	0.00144
4360.28692	1.35537	0.00144
4358.78681	1.35529	0.00143
4357.2867	1.35521	0.00141
4355.78659	1.35512	0.00139
4354.28648	1.35504	0.00137
4352.78636	1.35495	0.00137
4351.28625	1.35486	0.00136
4349.78614	1.35477	0.00136
4348.28603	1.35467	0.00136
4346.78592	1.35458	0.00136
4345.28581	1.35449	0.00135
4343.78569	1.35439	0.00134
4342.28558	1.3543	0.00134
4340.78547	1.3542	0.00134
4339.28536	1.3541	0.00134
4337.78525	1.354	0.00135
4336.28513	1.35389	0.00137
4334.78502	1.3538	0.00139
4333.28491	1.35372	0.00143
4331.7848	1.35364	0.00146
4330.28469	1.35356	0.00149
4328.78458	1.35349	0.00152
4327.28446	1.35342	0.00154
4325.78435	1.35336	0.00155
4324.28424	1.3533	0.00155
4322.78413	1.35324	0.00155
4321.28402	1.35317	0.00155
4319.7839	1.35311	0.00156
4318.28379	1.35305	0.00157
4316.78368	1.35299	0.00156
4315.28357	1.35293	0.00156
4313.78346	1.35287	0.00155
4312.28335	1.3528	0.00154
4310.78323	1.35274	0.00152
4309.28312	1.35267	0.00151
4307.78301	1.35261	0.00149
4306.2829	1.35254	0.00146
4304.78279	1.35246	0.00143
4303.28267	1.35237	0.00139
4301.78256	1.35228	0.00135
4300.28245	1.35219	0.00131
4298.78234	1.35208	0.00128
4297.28223	1.35196	0.00126
4295.78212	1.35185	0.00125
4294.282	1.35174	0.00126
4292.78189	1.35164	0.00129
4291.28178	1.35154	0.00131
4289.78167	1.35145	0.00134
4288.28156	1.35137	0.00135
4286.78144	1.3513	0.00137
4285.28133	1.35123	0.00137
4283.78122	1.35116	0.00135
4282.28111	1.35108	0.00134
4280.781	1.351	0.00131
4279.28089	1.35092	0.00128
4277.78077	1.35082	0.00125
4276.28066	1.35072	0.00122
4274.78055	1.35061	0.00119
4273.28044	1.35049	0.00118
4271.78033	1.35038	0.00118
4270.28021	1.35027	0.00119
4268.7801	1.35016	0.00122
4267.27999	1.35006	0.00125
4265.77988	1.34997	0.00129
4264.27977	1.3499	0.00132
4262.77966	1.34983	0.00134
4261.27954	1.34977	0.00135
4259.77943	1.34971	0.00133
4258.27932	1.34963	0.0013
4256.77921	1.34956	0.00126
4255.2791	1.34947	0.00121
4253.77898	1.34936	0.00116
4252.27887	1.34925	0.00111
4250.77876	1.34912	0.00109
4249.27865	1.349	0.00108
4247.77854	1.34888	0.00109
4246.27843	1.34877	0.00113
4244.77831	1.34866	0.00118
4243.2782	1.34856	0.00121
4241.77809	1.34848	0.00123
4240.27798	1.34838	0.00123
4238.77787	1.3483	0.00121
4237.27775	1.34821	0.00119
4235.77764	1.34813	0.00116
4234.27753	1.34804	0.00116
4232.77742	1.34793	0.00116
4231.27731	1.34783	0.00116
4229.7772	1.34773	0.00115
4228.27708	1.34762	0.00114
4226.77697	1.34751	0.00111
4225.27686	1.3474	0.00109
4223.77675	1.34727	0.00108
4222.27664	1.34715	0.00108
4220.77652	1.34702	0.00109
4219.27641	1.34692	0.00112
4217.7763	1.3468	0.00115
4216.27619	1.34669	0.00117
4214.77608	1.34658	0.0012
4213.27597	1.34649	0.00122
4211.77585	1.3464	0.00125
4210.27574	1.3463	0.00126
4208.77563	1.34622	0.00126
4207.27552	1.34614	0.00126
4205.77541	1.34603	0.00126
4204.27529	1.34594	0.00126
4202.77518	1.34585	0.00126
4201.27507	1.34576	0.00127
4199.77496	1.34567	0.00128
4198.27485	1.34558	0.00128
4196.77474	1.34548	0.00128
4195.27462	1.34538	0.00127
4193.77451	1.34529	0.00126
4192.2744	1.34519	0.00124
4190.77429	1.34509	0.00123
4189.27418	1.34498	0.00121
4187.77407	1.34486	0.00121
4186.27395	1.34475	0.00121
4184.77384	1.34464	0.00121
4183.27373	1.34453	0.00123
4181.77362	1.34443	0.00124
4180.27351	1.34433	0.00125
4178.77339	1.34423	0.00125
4177.27328	1.34413	0.00125
4175.77317	1.34402	0.00123
4174.27306	1.34392	0.00122
4172.77295	1.34381	0.0012
4171.27284	1.34369	0.00119
4169.77272	1.34357	0.00119
4168.27261	1.34346	0.00119
4166.7725	1.34333	0.0012
4165.27239	1.34322	0.00121
4163.77228	1.3431	0.00121
4162.27216	1.34299	0.00123
4160.77205	1.34289	0.00124
4159.27194	1.34279	0.00126
4157.77183	1.34269	0.00128
4156.27172	1.34259	0.00129
4154.77161	1.34249	0.00128
4153.27149	1.34239	0.00126
4151.77138	1.34229	0.00122
4150.27127	1.34217	0.00118
4148.77116	1.34204	0.00115
4147.27105	1.34191	0.00114
4145.77093	1.34179	0.00114
4144.27082	1.34165	0.00116
4142.77071	1.34153	0.00118
4141.2706	1.34141	0.00119
4139.77049	1.34128	0.00119
4138.27038	1.34116	0.00118
4136.77026	1.34102	0.00117
4135.27015	1.3409	0.00115
4133.77004	1.34076	0.00114
4132.26993	1.34062	0.00115
4130.76982	1.34048	0.00116
4129.2697	1.34034	0.00119
4127.76959	1.34021	0.00122
4126.26948	1.34008	0.00124
4124.76937	1.33996	0.00127
4123.26926	1.33982	0.00128
4121.76915	1.3397	0.00129
4120.26903	1.33956	0.0013
4118.76892	1.33944	0.00131
4117.26881	1.33931	0.00134
4115.7687	1.33918	0.00136
4114.26859	1.33906	0.00141
4112.76847	1.33893	0.00146
4111.26836	1.33882	0.0015
4109.76825	1.33872	0.00154
4108.26814	1.33861	0.00156
4106.76803	1.33851	0.00157
4105.26792	1.3384	0.00159
4103.7678	1.33831	0.00161
4102.26769	1.3382	0.00162
4100.76758	1.33811	0.00164
4099.26747	1.33801	0.00166
4097.76736	1.33791	0.00167
4096.26724	1.33782	0.00167
4094.76713	1.33772	0.00166
4093.26702	1.33761	0.00164
4091.76691	1.33749	0.00161
4090.2668	1.33736	0.00159
4088.76669	1.33723	0.00157
4087.26657	1.3371	0.00155
4085.76646	1.33696	0.00155
4084.26635	1.33682	0.00157
4082.76624	1.33668	0.0016
4081.26613	1.33655	0.00163
4079.76601	1.33642	0.00166
4078.2659	1.33631	0.00168
4076.76579	1.33619	0.0017
4075.26568	1.33607	0.0017
4073.76557	1.33596	0.0017
4072.26546	1.33584	0.0017
4070.76534	1.33573	0.0017
4069.26523	1.3356	0.00171
4067.76512	1.33549	0.00172
4066.26501	1.33536	0.00172
4064.7649	1.33524	0.00172
4063.26478	1.33511	0.00171
4061.76467	1.33498	0.0017
4060.26456	1.33484	0.00169
4058.76445	1.33471	0.00169
4057.26434	1.33459	0.00171
4055.76423	1.33445	0.00173
4054.26411	1.33432	0.00175
4052.764	1.33419	0.00177
4051.26389	1.33407	0.00177
4049.76378	1.33394	0.00177
4048.26367	1.33382	0.00177
4046.76355	1.33369	0.00176
4045.26344	1.33357	0.00176
4043.76333	1.33345	0.00177
4042.26322	1.33332	0.00178
4040.76311	1.3332	0.00178
4039.263	1.33307	0.00178
4037.76288	1.33294	0.00176
4036.26277	1.3328	0.00173
4034.76266	1.33266	0.00171
4033.26255	1.33252	0.00169
4031.76244	1.33238	0.00169
4030.26232	1.33223	0.00169
4028.76221	1.33208	0.00169
4027.2621	1.33193	0.00169
4025.76199	1.33177	0.00169
4024.26188	1.33163	0.00169
4022.76177	1.33148	0.00168
4021.26165	1.33133	0.00168
4019.76154	1.33118	0.00169
4018.26143	1.33102	0.00169
4016.76132	1.33087	0.00171
4015.26121	1.33071	0.00171
4013.76109	1.33056	0.00171
4012.26098	1.33041	0.00171
4010.76087	1.33026	0.00172
4009.26076	1.3301	0.00172
4007.76065	1.32996	0.00175
4006.26054	1.32982	0.00177
4004.76042	1.32967	0.0018
4003.26031	1.32953	0.00181
4001.7602	1.32939	0.00181
4000.26009	1.32925	0.00179
3998.75998	1.3291	0.00176
3997.25986	1.32896	0.00176
3995.75975	1.3288	0.00176
3994.25964	1.32866	0.00177
3992.75953	1.32851	0.00179
3991.25942	1.32836	0.00179
3989.75931	1.32821	0.00178
3988.25919	1.32806	0.00176
3986.75908	1.3279	0.00172
3985.25897	1.32773	0.00169
3983.75886	1.32755	0.00165
3982.25875	1.32737	0.00163
3980.75864	1.32718	0.00163
3979.25852	1.32699	0.00165
3977.75841	1.32681	0.00166
3976.2583	1.32663	0.00171
3974.75819	1.32647	0.00174
3973.25808	1.32631	0.00177
3971.75796	1.32616	0.00179
3970.25785	1.32601	0.00179
3968.75774	1.32585	0.00178
3967.25763	1.32569	0.00177
3965.75752	1.32554	0.00173
3964.25741	1.32537	0.00172
3962.75729	1.32521	0.00171
3961.25718	1.32503	0.00171
3959.75707	1.32486	0.0017
3958.25696	1.32467	0.00169
3956.75685	1.32448	0.00167
3955.25673	1.32429	0.00164
3953.75662	1.32409	0.00161
3952.25651	1.32388	0.00158
3950.7564	1.32366	0.00157
3949.25629	1.32346	0.0016
3947.75618	1.32327	0.00164
3946.25606	1.3231	0.0017
3944.75595	1.32293	0.00175
3943.25584	1.32274	0.00179
3941.75573	1.32258	0.00181
3940.25562	1.32241	0.00176
3938.7555	1.32224	0.00169
3937.25539	1.32205	0.00162
3935.75528	1.32184	0.00155
3934.25517	1.32161	0.00151
3932.75506	1.32138	0.00153
3931.25495	1.32115	0.00157
3929.75483	1.32094	0.00163
3928.25472	1.32072	0.00167
3926.75461	1.3205	0.00168
3925.2545	1.32028	0.00167
3923.75439	1.32008	0.00166
3922.25427	1.31989	0.00167
3920.75416	1.31972	0.0017
3919.25405	1.31956	0.00177
3917.75394	1.3194	0.00184
3916.25383	1.31925	0.00188
3914.75372	1.31909	0.00184
3913.2536	1.31889	0.0017
3911.75349	1.31863	0.00147
3910.25338	1.31831	0.00122
3908.75327	1.31793	9.90E-04
3907.25316	1.31752	8.60E-04
3905.75304	1.31711	9.20E-04
3904.25293	1.31672	0.00115
3902.75282	1.31637	0.0015
3901.25271	1.3161	0.00188
3899.7526	1.31591	0.00221
3898.25249	1.31579	0.00244
3896.75237	1.31571	0.00253
3895.25226	1.31562	0.00248
3893.75215	1.31552	0.00235
3892.25204	1.31536	0.00222
3890.75193	1.31518	0.00211
3889.25181	1.31495	0.00203
3887.7517	1.31469	0.00199
3886.25159	1.31441	0.00202
3884.75148	1.31413	0.0021
3883.25137	1.31388	0.00217
3881.75126	1.31363	0.00225
3880.25114	1.31339	0.00231
3878.75103	1.31316	0.00232
3877.25092	1.31291	0.00227
3875.75081	1.31264	0.00221
3874.2507	1.31235	0.00217
3872.75058	1.31205	0.00218
3871.25047	1.31176	0.00225
3869.75036	1.31149	0.00239
3868.25025	1.31127	0.00255
3866.75014	1.31105	0.00271
3865.25003	1.31083	0.0028
3863.74991	1.31057	0.00282
3862.2498	1.31031	0.00275
3860.74969	1.31002	0.00261
3859.24958	1.30972	0.0025
3857.74947	1.30941	0.00248
3856.24935	1.30909	0.00259
3854.74924	1.30878	0.00285
3853.24913	1.30852	0.00321
3851.74902	1.30836	0.00355
3850.24891	1.30824	0.00376
3848.7488	1.3081	0.00379
3847.24868	1.30792	0.00364
3845.74857	1.30769	0.0034
3844.24846	1.30743	0.00316
3842.74835	1.30714	0.00303
3841.24824	1.30681	0.00306
3839.74812	1.30647	0.00323
3838.24801	1.30615	0.0035
3836.7479	1.30589	0.0038
3835.24779	1.30569	0.00402
3833.74768	1.30553	0.00415
3832.24757	1.30536	0.00416
3830.74745	1.30516	0.00406
3829.24734	1.30493	0.00389
3827.74723	1.30467	0.00372
3826.24712	1.30435	0.00362
3824.74701	1.304	0.0036
3823.24689	1.30363	0.00368
3821.74678	1.30328	0.00388
3820.24667	1.30302	0.00417
3818.74656	1.30282	0.00444
3817.24645	1.30263	0.00463
3815.74634	1.30246	0.00471
3814.24622	1.3023	0.00468
3812.74611	1.30211	0.00453
3811.246	1.30187	0.00429
3809.74589	1.30155	0.00406
3808.24578	1.30116	0.0039
3806.74566	1.30073	0.00386
3805.24555	1.30031	0.00394
3803.74544	1.2999	0.00413
3802.24533	1.29953	0.00441
3800.74522	1.29923	0.00474
3799.24511	1.29902	0.00503
3797.74499	1.29886	0.00522
3796.24488	1.29874	0.00532
3794.74477	1.29862	0.00532
3793.24466	1.29849	0.00521
3791.74455	1.29833	0.00502
3790.24444	1.2981	0.00481
3788.74432	1.29781	0.00461
3787.24421	1.29747	0.00443
3785.7441	1.2971	0.0043
3784.24399	1.29671	0.00425
3782.74388	1.29632	0.00424
3781.24376	1.29592	0.00426
3779.74365	1.29551	0.00429
3778.24354	1.29512	0.00429
3776.74343	1.29474	0.00423
3775.24332	1.29434	0.00414
3773.74321	1.29392	0.00402
3772.24309	1.29349	0.00393
3770.74298	1.29302	0.00387
3769.24287	1.29255	0.00386
3767.74276	1.29208	0.00388
3766.24265	1.29161	0.0039
3764.74253	1.29114	0.00392
3763.24242	1.29065	0.00389
3761.74231	1.2901	0.00382
3760.2422	1.28952	0.00374
3758.74209	1.28891	0.00365
3757.24198	1.28828	0.00359
3755.74186	1.28762	0.00359
3754.24175	1.28691	0.00366
3752.74164	1.28619	0.00384
3751.24153	1.2855	0.00414
3749.74142	1.28491	0.00452
3748.2413	1.28439	0.00495
3746.74119	1.2839	0.00535
3745.24108	1.28341	0.0057
3743.74097	1.28295	0.00598
3742.24086	1.28256	0.00616
3740.74075	1.28219	0.00627
3739.24063	1.2818	0.00638
3737.74052	1.28138	0.00655
3736.24041	1.28094	0.00678
3734.7403	1.28054	0.00706
3733.24019	1.28018	0.00734
3731.74007	1.27983	0.00756
3730.23996	1.27947	0.0077
3728.73985	1.2791	0.00774
3727.23974	1.27871	0.00773
3725.73963	1.27831	0.0077
3724.23952	1.27788	0.00768
3722.7394	1.27739	0.00769
3721.23929	1.27684	0.00769
3719.73918	1.27624	0.00767
3718.23907	1.2756	0.00764
3716.73896	1.27495	0.00763
3715.23884	1.27428	0.00767
3713.73873	1.27358	0.0078
3712.23862	1.27289	0.00802
3710.73851	1.27222	0.00831
3709.2384	1.2716	0.00861
3707.73829	1.27099	0.00886
3706.23817	1.2704	0.00904
3704.73806	1.26979	0.00916
3703.23795	1.26916	0.00923
3701.73784	1.26851	0.00929
3700.23773	1.26781	0.00932
3698.73761	1.26703	0.00936
3697.2375	1.2662	0.00941
3695.73739	1.26532	0.00949
3694.23728	1.2644	0.00965
3692.73717	1.26348	0.0099
3691.23706	1.26256	0.01027
3689.73694	1.26166	0.01072
3688.23683	1.26079	0.01121
3686.73672	1.2599	0.01165
3685.23661	1.25901	0.01201
3683.7365	1.25809	0.0123
3682.23638	1.25713	0.01255
3680.73627	1.25614	0.01285
3679.23616	1.25509	0.01324
3677.73605	1.25402	0.01377
3676.23594	1.25296	0.01447
3674.73583	1.25197	0.01533
3673.23571	1.25104	0.01627
3671.7356	1.25019	0.01722
3670.23549	1.2494	0.01817
3668.73538	1.24869	0.01907
3667.23527	1.24805	0.01985
3665.73515	1.24741	0.02052
3664.23504	1.24675	0.02112
3662.73493	1.24602	0.02167
3661.23482	1.24523	0.02221
3659.73471	1.24437	0.02277
3658.2346	1.24343	0.02337
3656.73448	1.24244	0.02409
3655.23437	1.24143	0.02494
3653.73426	1.24046	0.02591
3652.23415	1.23952	0.02704
3650.73404	1.23864	0.02831
3649.23392	1.23786	0.02968
3647.73381	1.23722	0.0311
3646.2337	1.23668	0.03246
3644.73359	1.23624	0.03373
3643.23348	1.23583	0.03489
3641.73337	1.23543	0.03595
3640.23325	1.23504	0.03692
3638.73314	1.23462	0.03784
3637.23303	1.23416	0.03877
3635.73292	1.23367	0.03972
3634.23281	1.23316	0.04075
3632.73269	1.23266	0.04186
3631.23258	1.23216	0.04308
3629.73247	1.2317	0.04437
3628.23236	1.2313	0.04571
3626.73225	1.23096	0.04705
3625.23214	1.23068	0.04834
3623.73202	1.23044	0.04955
3622.23191	1.23021	0.05072
3620.7318	1.22998	0.05188
3619.23169	1.22978	0.05305
3617.73158	1.22963	0.05428
3616.23146	1.22949	0.05554
3614.73135	1.22937	0.05682
3613.23124	1.22929	0.05813
3611.73113	1.22926	0.05941
3610.23102	1.22927	0.06066
3608.73091	1.22932	0.06188
3607.23079	1.22939	0.06306
3605.73068	1.22949	0.06421
3604.23057	1.2296	0.06531
3602.73046	1.22971	0.06637
3601.23035	1.22981	0.06743
3599.73024	1.2299	0.06847
3598.23012	1.23	0.06952
3596.73001	1.23007	0.07057
3595.2299	1.23015	0.07161
3593.72979	1.23023	0.07266
3592.22968	1.23033	0.07372
3590.72956	1.23045	0.0748
3589.22945	1.23057	0.07591
3587.72934	1.23074	0.07706
3586.22923	1.23096	0.07824
3584.72912	1.23122	0.0794
3583.22901	1.23152	0.08051
3581.72889	1.23185	0.08156
3580.22878	1.23217	0.08256
3578.72867	1.2325	0.08348
3577.22856	1.2328	0.08436
3575.72845	1.23307	0.08517
3574.22833	1.23331	0.08598
3572.72822	1.23351	0.0868
3571.22811	1.2337	0.08765
3569.728	1.23387	0.08857
3568.22789	1.23406	0.08958
3566.72778	1.23429	0.09069
3565.22766	1.23459	0.09183
3563.72755	1.23493	0.09295
3562.22744	1.23531	0.09402
3560.72733	1.23572	0.09501
3559.22722	1.23614	0.09592
3557.7271	1.23658	0.09677
3556.22699	1.23701	0.09757
3554.72688	1.2374	0.09835
3553.22677	1.23777	0.09915
3551.72666	1.23811	0.09997
3550.22655	1.23847	0.10082
3548.72643	1.23883	0.10171
3547.22632	1.23921	0.10264
3545.72621	1.2396	0.10359
3544.2261	1.24004	0.10453
3542.72599	1.24051	0.10544
3541.22587	1.24099	0.10632
3539.72576	1.24148	0.10715
3538.22565	1.24198	0.10794
3536.72554	1.24247	0.10869
3535.22543	1.24295	0.10942
3533.72532	1.24342	0.11016
3532.2252	1.24387	0.11089
3530.72509	1.2443	0.11164
3529.22498	1.24475	0.1124
3527.72487	1.24519	0.11319
3526.22476	1.24565	0.114
3524.72464	1.24613	0.11482
3523.22453	1.24663	0.11565
3521.72442	1.24715	0.11646
3520.22431	1.2477	0.11725
3518.7242	1.24825	0.11801
3517.22409	1.24881	0.11875
3515.72397	1.24938	0.11946
3514.22386	1.24995	0.12015
3512.72375	1.2505	0.12084
3511.22364	1.25105	0.12151
3509.72353	1.2516	0.12218
3508.22341	1.25215	0.12286
3506.7233	1.2527	0.12353
3505.22319	1.25325	0.12422
3503.72308	1.25381	0.12492
3502.22297	1.25439	0.12564
3500.72286	1.25498	0.12635
3499.22274	1.2556	0.12705
3497.72263	1.25623	0.12774
3496.22252	1.25686	0.1284
3494.72241	1.25752	0.12904
3493.2223	1.25817	0.12966
3491.72218	1.25883	0.13026
3490.22207	1.25949	0.13085
3488.72196	1.26014	0.13142
3487.22185	1.26079	0.13199
3485.72174	1.26145	0.13255
3484.22163	1.2621	0.13311
3482.72151	1.26275	0.13367
3481.2214	1.26341	0.13423
3479.72129	1.26408	0.13478
3478.22118	1.26476	0.13533
3476.72107	1.26544	0.13586
3475.22095	1.26612	0.13639
3473.72084	1.26682	0.13691
3472.22073	1.26752	0.13741
3470.72062	1.26822	0.1379
3469.22051	1.26893	0.13838
3467.7204	1.26963	0.13883
3466.22028	1.27034	0.13928
3464.72017	1.27104	0.13972
3463.22006	1.27175	0.14015
3461.71995	1.27246	0.14057
3460.21984	1.27317	0.14099
3458.71972	1.27387	0.14139
3457.21961	1.27457	0.14178
3455.7195	1.27527	0.14217
3454.21939	1.27596	0.14254
3452.71928	1.27666	0.1429
3451.21917	1.27735	0.14326
3449.71905	1.27805	0.14363
3448.21894	1.27874	0.144
3446.71883	1.27945	0.14438
3445.21872	1.28016	0.14476
3443.71861	1.28088	0.14512
3442.21849	1.28161	0.14547
3440.71838	1.28235	0.14581
3439.21827	1.28309	0.14613
3437.71816	1.28385	0.14643
3436.21805	1.2846	0.14671
3434.71794	1.28536	0.14699
3433.21782	1.28611	0.14726
3431.71771	1.28687	0.1475
3430.2176	1.28761	0.14772
3428.71749	1.28835	0.14792
3427.21738	1.28906	0.1481
3425.71726	1.28978	0.14827
3424.21715	1.29049	0.14844
3422.71704	1.29119	0.14862
3421.21693	1.2919	0.14883
3419.71682	1.2926	0.14903
3418.21671	1.29332	0.14924
3416.71659	1.29404	0.14943
3415.21648	1.29477	0.14959
3413.71637	1.2955	0.14973
3412.21626	1.29621	0.14985
3410.71615	1.29694	0.14996
3409.21604	1.29765	0.15005
3407.71592	1.29836	0.15014
3406.21581	1.29907	0.15022
3404.7157	1.29977	0.15031
3403.21559	1.30046	0.15039
3401.71548	1.30116	0.15045
3400.21536	1.30185	0.1505
3398.71525	1.30255	0.15054
3397.21514	1.30323	0.15057
3395.71503	1.30391	0.1506
3394.21492	1.30459	0.15061
3392.71481	1.30526	0.1506
3391.21469	1.30593	0.15058
3389.71458	1.30659	0.15054
3388.21447	1.30723	0.1505
3386.71436	1.30785	0.15045
3385.21425	1.30847	0.15039
3383.71413	1.30909	0.15035
3382.21402	1.3097	0.15029
3380.71391	1.3103	0.15024
3379.2138	1.31089	0.15018
3377.71369	1.31148	0.15011
3376.21358	1.31207	0.15005
3374.71346	1.31265	0.14997
3373.21335	1.31323	0.14988
3371.71324	1.3138	0.1498
3370.21313	1.31436	0.1497
3368.71302	1.31491	0.14959
3367.2129	1.31546	0.14948
3365.71279	1.31599	0.14935
3364.21268	1.31651	0.14922
3362.71257	1.31702	0.14909
3361.21246	1.31753	0.14897
3359.71235	1.31803	0.14886
3358.21223	1.31854	0.14875
3356.71212	1.31902	0.14864
3355.21201	1.31951	0.14852
3353.7119	1.32	0.14839
3352.21179	1.32049	0.14825
3350.71167	1.32097	0.1481
3349.21156	1.32144	0.14794
3347.71145	1.3219	0.14779
3346.21134	1.32236	0.14764
3344.71123	1.3228	0.14747
3343.21112	1.32324	0.1473
3341.711	1.32366	0.14712
3340.21089	1.32408	0.14694
3338.71078	1.32448	0.14675
3337.21067	1.32487	0.14656
3335.71056	1.32524	0.14638
3334.21044	1.3256	0.1462
3332.71033	1.32596	0.14604
3331.21022	1.32631	0.14587
3329.71011	1.32665	0.14572
3328.21	1.32699	0.14557
3326.70989	1.32733	0.14543
3325.20977	1.32766	0.14529
3323.70966	1.328	0.14515
3322.20955	1.32833	0.14501
3320.70944	1.32866	0.14485
3319.20933	1.32897	0.1447
3317.70921	1.32928	0.14454
3316.2091	1.3296	0.14439
3314.70899	1.32991	0.14425
3313.20888	1.33021	0.14412
3311.70877	1.33051	0.144
3310.20866	1.33081	0.14388
3308.70854	1.33111	0.14374
3307.20843	1.33141	0.14359
3305.70832	1.3317	0.14344
3304.20821	1.33198	0.14327
3302.7081	1.33224	0.14311
3301.20798	1.33251	0.14296
3299.70787	1.33276	0.14282
3298.20776	1.33301	0.14268
3296.70765	1.33325	0.14255
3295.20754	1.33348	0.14241
3293.70743	1.33371	0.14228
3292.20731	1.33392	0.14215
3290.7072	1.33413	0.14203
3289.20709	1.33435	0.14192
3287.70698	1.33456	0.14182
3286.20687	1.33478	0.14174
3284.70675	1.33498	0.14166
3283.20664	1.3352	0.14159
3281.70653	1.33542	0.14153
3280.20642	1.33565	0.14146
3278.70631	1.33588	0.1414
3277.2062	1.33612	0.14133
3275.70608	1.33636	0.14127
3274.20597	1.3366	0.1412
3272.70586	1.33683	0.14112
3271.20575	1.33707	0.14102
3269.70564	1.33729	0.14092
3268.20552	1.33751	0.14083
3266.70541	1.33772	0.14073
3265.2053	1.33794	0.14065
3263.70519	1.33814	0.14058
3262.20508	1.33836	0.14054
3260.70497	1.33858	0.14049
3259.20485	1.3388	0.14044
3257.70474	1.33902	0.14039
3256.20463	1.33924	0.14032
3254.70452	1.33947	0.14025
3253.20441	1.33969	0.14018
3251.70429	1.33992	0.14011
3250.20418	1.34013	0.14004
3248.70407	1.34036	0.13998
3247.20396	1.34058	0.13992
3245.70385	1.3408	0.13986
3244.20374	1.34102	0.1398
3242.70362	1.34125	0.13974
3241.20351	1.34147	0.13968
3239.7034	1.34171	0.13961
3238.20329	1.34194	0.13954
3236.70318	1.34216	0.13947
3235.20306	1.34238	0.13938
3233.70295	1.3426	0.13929
3232.20284	1.34281	0.13919
3230.70273	1.34302	0.13909
3229.20262	1.34322	0.139
3227.70251	1.34341	0.13892
3226.20239	1.3436	0.13885
3224.70228	1.3438	0.13878
3223.20217	1.344	0.13871
3221.70206	1.34419	0.13865
3220.20195	1.34439	0.13859
3218.70183	1.34459	0.13853
3217.20172	1.3448	0.13845
3215.70161	1.345	0.13839
3214.2015	1.3452	0.13831
3212.70139	1.3454	0.13823
3211.20128	1.3456	0.13814
3209.70116	1.34579	0.13806
3208.20105	1.34597	0.13797
3206.70094	1.34616	0.13788
3205.20083	1.34635	0.1378
3203.70072	1.34652	0.13773
3202.20061	1.34671	0.13766
3200.70049	1.3469	0.13759
3199.20038	1.34708	0.13752
3197.70027	1.34727	0.13745
3196.20016	1.34746	0.13738
3194.70005	1.34766	0.13731
3193.19993	1.34784	0.13723
3191.69982	1.34803	0.13713
3190.19971	1.3482	0.13702
3188.6996	1.34838	0.13691
3187.19949	1.34853	0.13679
3185.69938	1.34869	0.13668
3184.19926	1.34884	0.13659
3182.69915	1.34898	0.1365
3181.19904	1.34913	0.13643
3179.69893	1.34927	0.13637
3178.19882	1.34942	0.1363
3176.6987	1.34956	0.13622
3175.19859	1.34971	0.13614
3173.69848	1.34985	0.13606
3172.19837	1.34999	0.13597
3170.69826	1.35013	0.13589
3169.19815	1.35027	0.13581
3167.69803	1.3504	0.13575
3166.19792	1.35053	0.13568
3164.69781	1.35067	0.13562
3163.1977	1.3508	0.13555
3161.69759	1.35094	0.13549
3160.19747	1.35107	0.13543
3158.69736	1.35121	0.13537
3157.19725	1.35135	0.13532
3155.69714	1.35149	0.13525
3154.19703	1.35163	0.13519
3152.69692	1.35176	0.1351
3151.1968	1.35189	0.13502
3149.69669	1.35201	0.13492
3148.19658	1.35213	0.13483
3146.69647	1.35224	0.13477
3145.19636	1.35235	0.13471
3143.69624	1.35246	0.13466
3142.19613	1.35255	0.1346
3140.69602	1.35266	0.13454
3139.19591	1.35277	0.13448
3137.6958	1.35287	0.13442
3136.19569	1.35297	0.13435
3134.69557	1.35305	0.1343
3133.19546	1.35314	0.13425
3131.69535	1.35323	0.13421
3130.19524	1.35332	0.13417
3128.69513	1.35342	0.13414
3127.19501	1.35351	0.13413
3125.6949	1.35361	0.13413
3124.19479	1.35373	0.13414
3122.69468	1.35385	0.13414
3121.19457	1.35398	0.13413
3119.69446	1.35411	0.13409
3118.19434	1.35423	0.13404
3116.69423	1.35436	0.13397
3115.19412	1.35446	0.1339
3113.69401	1.35457	0.13384
3112.1939	1.35466	0.13379
3110.69378	1.35475	0.13376
3109.19367	1.35484	0.13374
3107.69356	1.35493	0.13371
3106.19345	1.355	0.13369
3104.69334	1.35508	0.13366
3103.19323	1.35517	0.13364
3101.69311	1.35525	0.13362
3100.193	1.35533	0.13361
3098.69289	1.35542	0.1336
3097.19278	1.3555	0.13361
3095.69267	1.35559	0.13363
3094.19255	1.35569	0.13365
3092.69244	1.3558	0.13369
3091.19233	1.35592	0.13372
3089.69222	1.35604	0.13374
3088.19211	1.35617	0.13376
3086.692	1.35631	0.13376
3085.19188	1.35644	0.13375
3083.69177	1.35658	0.13372
3082.19166	1.3567	0.13369
3080.69155	1.35681	0.13365
3079.19144	1.35692	0.13361
3077.69132	1.35702	0.13358
3076.19121	1.35712	0.13357
3074.6911	1.35722	0.13357
3073.19099	1.35731	0.13357
3071.69088	1.3574	0.13358
3070.19077	1.3575	0.13359
3068.69065	1.3576	0.1336
3067.19054	1.3577	0.13359
3065.69043	1.35781	0.13359
3064.19032	1.3579	0.1336
3062.69021	1.358	0.1336
3061.19009	1.35811	0.13363
3059.68998	1.35821	0.13365
3058.18987	1.35832	0.13368
3056.68976	1.35843	0.13371
3055.18965	1.35854	0.13374
3053.68954	1.35867	0.13377
3052.18942	1.35881	0.13381
3050.68931	1.35895	0.13384
3049.1892	1.35909	0.13386
3047.68909	1.35924	0.13387
3046.18898	1.35938	0.13388
3044.68886	1.35952	0.13387
3043.18875	1.35966	0.13384
3041.68864	1.35979	0.13382
3040.18853	1.3599	0.13379
3038.68842	1.36001	0.13376
3037.18831	1.36011	0.13374
3035.68819	1.3602	0.13374
3034.18808	1.3603	0.13375
3032.68797	1.36039	0.13376
3031.18786	1.36048	0.13379
3029.68775	1.36058	0.13383
3028.18763	1.36069	0.13386
3026.68752	1.36081	0.13391
3025.18741	1.36093	0.13396
3023.6873	1.36106	0.134
3022.18719	1.36119	0.13406
3020.68708	1.36133	0.1341
3019.18696	1.36149	0.13413
3017.68685	1.36162	0.13414
3016.18674	1.36177	0.13415
3014.68663	1.3619	0.13416
3013.18652	1.36203	0.13417
3011.68641	1.36217	0.13418
3010.18629	1.3623	0.13421
3008.68618	1.36243	0.13424
3007.18607	1.36257	0.13428
3005.68596	1.3627	0.13432
3004.18585	1.36286	0.13436
3002.68573	1.36301	0.13441
3001.18562	1.36317	0.13444
2999.68551	1.36334	0.13447
2998.1854	1.3635	0.1345
2996.68529	1.36367	0.13452
2995.18518	1.36384	0.13453
2993.68506	1.364	0.13454
2992.18495	1.36417	0.13453
2990.68484	1.36433	0.13453
2989.18473	1.36448	0.13453
2987.68462	1.36464	0.13454
2986.1845	1.3648	0.13456
2984.68439	1.36496	0.13457
2983.18428	1.36512	0.13461
2981.68417	1.36529	0.13462
2980.18406	1.36546	0.13464
2978.68395	1.36563	0.13464
2977.18383	1.3658	0.13463
2975.68372	1.36596	0.1346
2974.18361	1.36612	0.13459
2972.6835	1.36627	0.13458
2971.18339	1.36643	0.13458
2969.68327	1.36659	0.1346
2968.18316	1.36675	0.13463
2966.68305	1.36692	0.13465
2965.18294	1.36709	0.13468
2963.68283	1.36726	0.13468
2962.18272	1.36744	0.13468
2960.6826	1.36761	0.13468
2959.18249	1.36779	0.13467
2957.68238	1.36796	0.13467
2956.18227	1.36814	0.13468
2954.68216	1.36833	0.13469
2953.18204	1.36852	0.13471
2951.68193	1.36871	0.13473
2950.18182	1.3689	0.13474
2948.68171	1.3691	0.13475
2947.1816	1.36932	0.13476
2945.68149	1.36953	0.13474
2944.18137	1.36974	0.13472
2942.68126	1.36995	0.13469
2941.18115	1.37016	0.13466
2939.68104	1.37038	0.13464
2938.18093	1.37061	0.13464
2936.68081	1.37085	0.13464
2935.1807	1.37111	0.13464
2933.68059	1.37136	0.13463
2932.18048	1.37163	0.13457
2930.68037	1.3719	0.13448
2929.18026	1.37216	0.13435
2927.68014	1.37239	0.1342
2926.18003	1.37262	0.13401
2924.67992	1.3728	0.13384
2923.17981	1.37298	0.13366
2921.6797	1.37313	0.13351
2920.17958	1.37327	0.13336
2918.67947	1.37338	0.13323
2917.17936	1.37349	0.13311
2915.67925	1.37359	0.133
2914.17914	1.37369	0.1329
2912.67903	1.37379	0.13281
2911.17891	1.3739	0.13274
2909.6788	1.37401	0.13268
2908.17869	1.37411	0.13263
2906.67858	1.37424	0.13259
2905.17847	1.37436	0.13255
2903.67835	1.3745	0.1325
2902.17824	1.37463	0.13245
2900.67813	1.37477	0.13238
2899.17802	1.3749	0.13231
2897.67791	1.37504	0.13224
2896.1778	1.37517	0.13218
2894.67768	1.37531	0.13211
2893.17757	1.37544	0.13206
2891.67746	1.37557	0.13202
2890.17735	1.37571	0.13197
2888.67724	1.37585	0.13192
2887.17712	1.37599	0.13188
2885.67701	1.37613	0.13182
2884.1769	1.37628	0.13177
2882.67679	1.37644	0.13174
2881.17668	1.3766	0.1317
2879.67657	1.37677	0.13166
2878.17645	1.37695	0.13163
2876.67634	1.37713	0.13158
2875.17623	1.37731	0.13152
2873.67612	1.37751	0.13144
2872.17601	1.37769	0.13134
2870.67589	1.37787	0.13124
2869.17578	1.37805	0.13114
2867.67567	1.37824	0.13106
2866.17556	1.37844	0.13097
2864.67545	1.37862	0.13088
2863.17534	1.37881	0.13079
2861.67522	1.37899	0.13068
2860.17511	1.37919	0.13055
2858.675	1.37938	0.1304
2857.17489	1.37954	0.13023
2855.67478	1.3797	0.13004
2854.17466	1.37984	0.12985
2852.67455	1.37996	0.12966
2851.17444	1.38007	0.12948
2849.67433	1.38016	0.12931
2848.17422	1.38025	0.12917
2846.67411	1.38033	0.12905
2845.17399	1.38042	0.12893
2843.67388	1.3805	0.12883
2842.17377	1.3806	0.12872
2840.67366	1.3807	0.12862
2839.17355	1.38079	0.1285
2837.67343	1.3809	0.12839
2836.17332	1.38099	0.12827
2834.67321	1.38108	0.12816
2833.1731	1.38118	0.12804
2831.67299	1.38128	0.12793
2830.17288	1.38136	0.12783
2828.67276	1.38146	0.12773
2827.17265	1.38155	0.12764
2825.67254	1.38165	0.12756
2824.17243	1.38176	0.12748
2822.67232	1.38189	0.1274
2821.17221	1.38201	0.12734
2819.67209	1.38215	0.12725
2818.17198	1.3823	0.12716
2816.67187	1.38245	0.12706
2815.17176	1.3826	0.12694
2813.67165	1.38275	0.1268
2812.17153	1.3829	0.12666
2810.67142	1.38303	0.1265
2809.17131	1.38317	0.12632
2807.6712	1.38328	0.12615
2806.17109	1.38339	0.12598
2804.67098	1.3835	0.12582
2803.17086	1.3836	0.12566
2801.67075	1.38371	0.12552
2800.17064	1.38381	0.12537
2798.67053	1.38391	0.12523
2797.17042	1.38401	0.12507
2795.6703	1.38412	0.1249
2794.17019	1.38421	0.12473
2792.67008	1.38432	0.12455
2791.16997	1.3844	0.12437
2789.66986	1.38449	0.12418
2788.16975	1.38457	0.124
2786.66963	1.38464	0.12381
2785.16952	1.3847	0.12362
2783.66941	1.38476	0.12344
2782.1693	1.38482	0.12326
2780.66919	1.38488	0.12307
2779.16907	1.38492	0.1229
2777.66896	1.38497	0.12272
2776.16885	1.38502	0.12254
2774.66874	1.38506	0.12236
2773.16863	1.38509	0.12217
2771.66852	1.38512	0.12198
2770.1684	1.38516	0.1218
2768.66829	1.38518	0.12161
2767.16818	1.3852	0.12142
2765.66807	1.38522	0.12124
2764.16796	1.38522	0.12107
2762.66784	1.38523	0.12089
2761.16773	1.38523	0.12072
2759.66762	1.38523	0.12055
2758.16751	1.38523	0.12038
2756.6674	1.38523	0.1202
2755.16729	1.38522	0.12002
2753.66717	1.3852	0.11984
2752.16706	1.38519	0.11967
2750.66695	1.38516	0.1195
2749.16684	1.38514	0.11933
2747.66673	1.38511	0.11916
2746.16661	1.38506	0.11898
2744.6665	1.38501	0.11882
2743.16639	1.38497	0.11866
2741.66628	1.38491	0.11852
2740.16617	1.38485	0.11838
2738.66606	1.3848	0.11824
2737.16594	1.38475	0.11811
2735.66583	1.38469	0.11798
2734.16572	1.38464	0.11787
2732.66561	1.38459	0.11775
2731.1655	1.38454	0.11763
2729.66538	1.38449	0.11752
2728.16527	1.38444	0.1174
2726.66516	1.38439	0.11728
2725.16505	1.38433	0.11714
2723.66494	1.38427	0.11702
2722.16483	1.38421	0.11689
2720.66471	1.38413	0.11678
2719.1646	1.38406	0.11666
2717.66449	1.38399	0.11655
2716.16438	1.38391	0.11647
2714.66427	1.38383	0.11638
2713.16415	1.38376	0.1163
2711.66404	1.38369	0.11624
2710.16393	1.38363	0.11617
2708.66382	1.38357	0.11611
2707.16371	1.38353	0.11603
2705.6636	1.38348	0.11597
2704.16348	1.38343	0.11589
2702.66337	1.38338	0.1158
2701.16326	1.38333	0.11571
2699.66315	1.38326	0.11562
2698.16304	1.3832	0.11552
2696.66292	1.38313	0.11542
2695.16281	1.38305	0.11534
2693.6627	1.38297	0.11526
2692.16259	1.3829	0.11521
2690.66248	1.38282	0.11515
2689.16237	1.38275	0.11512
2687.66225	1.38269	0.11508
2686.16214	1.38263	0.11505
2684.66203	1.38259	0.11501
2683.16192	1.38254	0.11496
2681.66181	1.38249	0.1149
2680.16169	1.38245	0.11483
2678.66158	1.3824	0.11477
2677.16147	1.38235	0.11469
2675.66136	1.38229	0.11462
2674.16125	1.38223	0.11454
2672.66114	1.38216	0.11448
2671.16102	1.38209	0.11442
2669.66091	1.38202	0.11436
2668.1608	1.38194	0.11431
2666.66069	1.38187	0.11427
2665.16058	1.3818	0.11423
2663.66046	1.38173	0.11418
2662.16035	1.38166	0.11415
2660.66024	1.3816	0.11411
2659.16013	1.38153	0.11407
2657.66002	1.38147	0.11404
2656.15991	1.3814	0.11399
2654.65979	1.38133	0.11393
2653.15968	1.38125	0.11389
2651.65957	1.38118	0.11384
2650.15946	1.3811	0.1138
2648.65935	1.38101	0.11377
2647.15923	1.38093	0.11376
2645.65912	1.38085	0.11374
2644.15901	1.38078	0.11373
2642.6589	1.38071	0.11373
2641.15879	1.38064	0.11371
2639.65868	1.38057	0.1137
2638.15856	1.38051	0.11368
2636.65845	1.38044	0.11366
2635.15834	1.38037	0.11363
2633.65823	1.3803	0.11361
2632.15812	1.38022	0.11359
2630.658	1.38014	0.11358
2629.15789	1.38006	0.11357
2627.65778	1.37998	0.11357
2626.15767	1.3799	0.11358
2624.65756	1.37981	0.11359
2623.15745	1.37974	0.1136
2621.65733	1.37967	0.11362
2620.15722	1.37959	0.11363
2618.65711	1.37952	0.11366
2617.157	1.37945	0.11368
2615.65689	1.37939	0.1137
2614.15678	1.37933	0.11374
2612.65666	1.37926	0.11377
2611.15655	1.37921	0.11381
2609.65644	1.37916	0.11386
2608.15633	1.37912	0.1139
2606.65622	1.37907	0.11393
2605.1561	1.37903	0.11396
2603.65599	1.379	0.11399
2602.15588	1.37896	0.11403
2600.65577	1.37892	0.11407
2599.15566	1.37889	0.11411
2597.65555	1.37885	0.11415
2596.15543	1.37884	0.1142
2594.65532	1.37881	0.11424
2593.15521	1.3788	0.11428
2591.6551	1.37878	0.11433
2590.15499	1.37878	0.11436
2588.65487	1.37877	0.11441
2587.15476	1.37878	0.11445
2585.65465	1.37878	0.11449
2584.15454	1.37879	0.11451
2582.65443	1.37879	0.11453
2581.15432	1.3788	0.11455
2579.6542	1.3788	0.11455
2578.15409	1.37881	0.11457
2576.65398	1.37881	0.11458
2575.15387	1.37882	0.1146
2573.65376	1.37883	0.11461
2572.15364	1.37883	0.11462
2570.65353	1.37884	0.11463
2569.15342	1.37885	0.11463
2567.65331	1.37886	0.11463
2566.1532	1.37886	0.11463
2564.65309	1.37887	0.11462
2563.15297	1.37888	0.11462
2561.65286	1.37888	0.11461
2560.15275	1.37888	0.11461
2558.65264	1.37889	0.1146
2557.15253	1.37889	0.11459
2555.65241	1.37889	0.11458
2554.1523	1.37889	0.11456
2552.65219	1.37889	0.11455
2551.15208	1.37889	0.11453
2549.65197	1.37888	0.11451
2548.15186	1.37888	0.11449
2546.65174	1.37886	0.11446
2545.15163	1.37885	0.11444
2543.65152	1.37883	0.11441
2542.15141	1.37881	0.11439
2540.6513	1.37878	0.11436
2539.15118	1.37876	0.11435
2537.65107	1.37873	0.11433
2536.15096	1.3787	0.11432
2534.65085	1.37867	0.11431
2533.15074	1.37864	0.1143
2531.65063	1.37861	0.11429
2530.15051	1.37858	0.11428
2528.6504	1.37854	0.11428
2527.15029	1.37852	0.11428
2525.65018	1.37849	0.11428
2524.15007	1.37846	0.11428
2522.64995	1.37843	0.11427
2521.14984	1.37841	0.11427
2519.64973	1.37838	0.11426
2518.14962	1.37834	0.11425
2516.64951	1.3783	0.11424
2515.1494	1.37826	0.11423
2513.64928	1.37821	0.11423
2512.14917	1.37818	0.11424
2510.64906	1.37813	0.11426
2509.14895	1.37809	0.11428
2507.64884	1.37805	0.11431
2506.14872	1.37802	0.11433
2504.64861	1.37799	0.11436
2503.1485	1.37796	0.11439
2501.64839	1.37792	0.11441
2500.14828	1.3779	0.11444
2498.64817	1.37788	0.11447
2497.14805	1.37786	0.11451
2495.64794	1.37784	0.11456
2494.14783	1.37784	0.1146
2492.64772	1.37784	0.11465
2491.14761	1.37784	0.11469
2489.64749	1.37785	0.11473
2488.14738	1.37786	0.11474
2486.64727	1.37788	0.11477
2485.14716	1.37789	0.11479
2483.64705	1.37792	0.11482
2482.14694	1.37794	0.11484
2480.64682	1.37796	0.11487
2479.14671	1.37799	0.11489
2477.6466	1.37803	0.1149
2476.14649	1.37807	0.11491
2474.64638	1.37811	0.11491
2473.14626	1.37815	0.1149
2471.64615	1.37819	0.11489
2470.14604	1.37823	0.11486
2468.64593	1.37826	0.11484
2467.14582	1.37829	0.1148
2465.64571	1.37832	0.11477
2464.14559	1.37834	0.11473
2462.64548	1.37836	0.11469
2461.14537	1.37838	0.11465
2459.64526	1.3784	0.11461
2458.14515	1.37841	0.11457
2456.64503	1.37843	0.11453
2455.14492	1.37845	0.11448
2453.64481	1.37845	0.11444
2452.1447	1.37847	0.11438
2450.64459	1.37847	0.11432
2449.14448	1.37848	0.11427
2447.64436	1.37848	0.11421
2446.14425	1.37849	0.11415
2444.64414	1.37849	0.11409
2443.14403	1.37849	0.11402
2441.64392	1.37849	0.11396
2440.1438	1.37848	0.11389
2438.64369	1.37847	0.11379
2437.14358	1.37845	0.1137
2435.64347	1.37841	0.1136
2434.14336	1.37838	0.11349
2432.64325	1.37832	0.11339
2431.14313	1.37827	0.1133
2429.64302	1.37821	0.11322
2428.14291	1.37814	0.11316
2426.6428	1.37808	0.1131
2425.14269	1.37801	0.11303
2423.64258	1.37794	0.11297
2422.14246	1.37786	0.1129
2420.64235	1.3778	0.11284
2419.14224	1.37772	0.11277
2417.64213	1.37764	0.1127
2416.14202	1.37756	0.11264
2414.6419	1.37747	0.11259
2413.14179	1.37739	0.11254
2411.64168	1.3773	0.11249
2410.14157	1.37721	0.11243
2408.64146	1.37711	0.11238
2407.14135	1.37702	0.11232
2405.64123	1.37691	0.11225
2404.14112	1.3768	0.1122
2402.64101	1.37669	0.11215
2401.1409	1.37658	0.11212
2399.64079	1.37645	0.11209
2398.14067	1.37634	0.11206
2396.64056	1.37622	0.11205
2395.14045	1.37611	0.11204
2393.64034	1.376	0.11203
2392.14023	1.37588	0.11202
2390.64012	1.37577	0.11201
2389.14	1.37565	0.11199
2387.63989	1.37554	0.11197
2386.13978	1.37542	0.11197
2384.63967	1.37531	0.11196
2383.13956	1.37519	0.11196
2381.63944	1.37507	0.11196
2380.13933	1.37495	0.11196
2378.63922	1.37483	0.11197
2377.13911	1.37471	0.11197
2375.639	1.37459	0.11198
2374.13889	1.37446	0.11199
2372.63877	1.37432	0.11199
2371.13866	1.37419	0.11201
2369.63855	1.37405	0.11202
2368.13844	1.3739	0.11204
2366.63833	1.37375	0.11207
2365.13821	1.37359	0.11211
2363.6381	1.37344	0.11217
2362.13799	1.37329	0.11226
2360.63788	1.37316	0.11236
2359.13777	1.37303	0.11248
2357.63766	1.37293	0.11263
2356.13754	1.37286	0.11278
2354.63743	1.37282	0.11293
2353.13732	1.3728	0.11308
2351.63721	1.3728	0.11321
2350.1371	1.37281	0.11331
2348.63698	1.37284	0.11338
2347.13687	1.37288	0.1134
2345.63676	1.37291	0.1134
2344.13665	1.37293	0.11337
2342.63654	1.37293	0.11332
2341.13643	1.37291	0.11327
2339.63631	1.37287	0.11321
2338.1362	1.37282	0.11315
2336.63609	1.37273	0.11307
2335.13598	1.37264	0.11299
2333.63587	1.37253	0.11292
2332.13575	1.37239	0.11287
2330.63564	1.37225	0.11285
2329.13553	1.37211	0.11285
2327.63542	1.37197	0.11287
2326.13531	1.37183	0.11289
2324.6352	1.37169	0.11291
2323.13508	1.37155	0.11293
2321.63497	1.37141	0.11295
2320.13486	1.37127	0.11298
2318.63475	1.37113	0.11301
2317.13464	1.37098	0.11304
2315.63452	1.37084	0.1131
2314.13441	1.3707	0.11315
2312.6343	1.37055	0.11322
2311.13419	1.37042	0.1133
2309.63408	1.37029	0.1134
2308.13397	1.37017	0.11348
2306.63385	1.37005	0.11357
2305.13374	1.36993	0.11365
2303.63363	1.36982	0.11373
2302.13352	1.36972	0.11381
2300.63341	1.36961	0.1139
2299.13329	1.36952	0.11399
2297.63318	1.36942	0.11409
2296.13307	1.36932	0.11419
2294.63296	1.36924	0.11428
2293.13285	1.36915	0.11437
2291.63274	1.36905	0.11445
2290.13262	1.36896	0.11452
2288.63251	1.36888	0.1146
2287.1324	1.36878	0.11469
2285.63229	1.36869	0.11478
2284.13218	1.3686	0.11488
2282.63206	1.3685	0.11499
2281.13195	1.36842	0.1151
2279.63184	1.36834	0.11521
2278.13173	1.36826	0.11531
2276.63162	1.36819	0.11543
2275.13151	1.36812	0.11554
2273.63139	1.36805	0.11565
2272.13128	1.368	0.11578
2270.63117	1.36794	0.1159
2269.13106	1.3679	0.11602
2267.63095	1.36785	0.11613
2266.13083	1.36781	0.11624
2264.63072	1.36778	0.11634
2263.13061	1.36775	0.11644
2261.6305	1.36772	0.11655
2260.13039	1.36769	0.11667
2258.63028	1.36768	0.11679
2257.13016	1.36766	0.11689
2255.63005	1.36766	0.117
2254.12994	1.36765	0.11708
2252.62983	1.36765	0.11717
2251.12972	1.36765	0.11724
2249.6296	1.36765	0.11731
2248.12949	1.36766	0.11738
2246.62938	1.36766	0.11745
2245.12927	1.36766	0.11752
2243.62916	1.36767	0.11759
2242.12905	1.36768	0.11764
2240.62893	1.36769	0.11769
2239.12882	1.36769	0.11773
2237.62871	1.3677	0.11776
2236.1286	1.3677	0.11779
2234.62849	1.3677	0.11781
2233.12838	1.36769	0.11784
2231.62826	1.36769	0.11786
2230.12815	1.36768	0.11789
2228.62804	1.36768	0.11792
2227.12793	1.36768	0.11793
2225.62782	1.36767	0.11794
2224.1277	1.36766	0.11795
2222.62759	1.36765	0.11794
2221.12748	1.36763	0.11793
2219.62737	1.36761	0.1179
2218.12726	1.36758	0.11788
2216.62715	1.36754	0.11785
2215.12703	1.3675	0.11784
2213.62692	1.36745	0.11782
2212.12681	1.36739	0.1178
2210.6267	1.36734	0.11779
2209.12659	1.36728	0.11778
2207.62647	1.36722	0.11777
2206.12636	1.36716	0.11774
2204.62625	1.36709	0.11772
2203.12614	1.36701	0.11769
2201.62603	1.36694	0.11766
2200.12592	1.36685	0.11763
2198.6258	1.36675	0.1176
2197.12569	1.36665	0.11758
2195.62558	1.36654	0.11756
2194.12547	1.36643	0.11756
2192.62536	1.36631	0.11756
2191.12524	1.3662	0.11757
2189.62513	1.36609	0.11758
2188.12502	1.36597	0.11759
2186.62491	1.36586	0.1176
2185.1248	1.36574	0.11762
2183.62469	1.36563	0.11763
2182.12457	1.36551	0.11765
2180.62446	1.36539	0.11768
2179.12435	1.36527	0.11771
2177.62424	1.36516	0.11774
2176.12413	1.36506	0.11777
2174.62401	1.36494	0.1178
2173.1239	1.36483	0.11783
2171.62379	1.36472	0.11786
2170.12368	1.3646	0.11789
2168.62357	1.36449	0.11792
2167.12346	1.36438	0.11796
2165.62334	1.36426	0.118
2164.12323	1.36415	0.11804
2162.62312	1.36405	0.11809
2161.12301	1.36394	0.11813
2159.6229	1.36384	0.11818
2158.12278	1.36373	0.11824
2156.62267	1.36363	0.11828
2155.12256	1.36354	0.11832
2153.62245	1.36344	0.11836
2152.12234	1.36335	0.11839
2150.62223	1.36326	0.11842
2149.12211	1.36316	0.11845
2147.622	1.36306	0.11848
2146.12189	1.36297	0.11851
2144.62178	1.36287	0.11853
2143.12167	1.36277	0.11856
2141.62155	1.36267	0.11858
2140.12144	1.36257	0.1186
2138.62133	1.36247	0.11862
2137.12122	1.36237	0.11863
2135.62111	1.36226	0.11865
2134.121	1.36217	0.11866
2132.62088	1.36206	0.11868
2131.12077	1.36195	0.11869
2129.62066	1.36185	0.1187
2128.12055	1.36173	0.1187
2126.62044	1.36162	0.11871
2125.12032	1.36151	0.11871
2123.62021	1.3614	0.11871
2122.1201	1.36129	0.1187
2120.61999	1.36117	0.11869
2119.11988	1.36105	0.11866
2117.61977	1.36092	0.11863
2116.11965	1.36077	0.11859
2114.61954	1.36062	0.11855
2113.11943	1.36045	0.1185
2111.61932	1.36028	0.11847
2110.11921	1.3601	0.11845
2108.61909	1.35992	0.11843
2107.11898	1.35973	0.11843
2105.61887	1.35954	0.11843
2104.11876	1.35935	0.11842
2102.61865	1.35915	0.11842
2101.11854	1.35896	0.11841
2099.61842	1.35876	0.11841
2098.11831	1.35855	0.11839
2096.6182	1.35834	0.11838
2095.11809	1.35812	0.11836
2093.61798	1.35789	0.11834
2092.11786	1.35764	0.11834
2090.61775	1.35739	0.11833
2089.11764	1.35713	0.11834
2087.61753	1.35687	0.11836
2086.11742	1.35659	0.11839
2084.61731	1.35632	0.11842
2083.11719	1.35605	0.11846
2081.61708	1.35578	0.11853
2080.11697	1.3555	0.11859
2078.61686	1.35523	0.11866
2077.11675	1.35497	0.11875
2075.61663	1.3547	0.11883
2074.11652	1.35444	0.11892
2072.61641	1.35417	0.119
2071.1163	1.35391	0.11908
2069.61619	1.35365	0.11916
2068.11608	1.35338	0.11925
2066.61596	1.35311	0.11934
2065.11585	1.35284	0.11943
2063.61574	1.35257	0.11954
2062.11563	1.35231	0.11966
2060.61552	1.35205	0.11978
2059.1154	1.35177	0.1199
2057.61529	1.35151	0.12002
2056.11518	1.35125	0.12014
2054.61507	1.35099	0.12026
2053.11496	1.35072	0.12038
2051.61485	1.35045	0.1205
2050.11473	1.35018	0.12062
2048.61462	1.34991	0.12075
2047.11451	1.34964	0.12089
2045.6144	1.34936	0.12104
2044.11429	1.3491	0.12119
2042.61418	1.34883	0.12135
2041.11406	1.34858	0.12153
2039.61395	1.34833	0.1217
2038.11384	1.34809	0.12188
2036.61373	1.34786	0.12204
2035.11362	1.34762	0.12221
2033.6135	1.3474	0.12236
2032.11339	1.34717	0.1225
2030.61328	1.34693	0.12263
2029.11317	1.3467	0.12274
2027.61306	1.34645	0.12286
2026.11295	1.34618	0.12297
2024.61283	1.34592	0.12308
2023.11272	1.34564	0.12319
2021.61261	1.34536	0.12333
2020.1125	1.34507	0.12347
2018.61239	1.34477	0.12363
2017.11227	1.34448	0.12379
2015.61216	1.34419	0.12395
2014.11205	1.34391	0.12412
2012.61194	1.34362	0.12427
2011.11183	1.34333	0.12443
2009.61172	1.34304	0.12459
2008.1116	1.34274	0.12475
2006.61149	1.34245	0.12491
2005.11138	1.34215	0.12507
2003.61127	1.34185	0.12524
2002.11116	1.34152	0.12538
2000.61104	1.34119	0.12552
1999.11093	1.34084	0.12565
1997.61082	1.34048	0.12579
1996.11071	1.3401	0.12594
1994.6106	1.33972	0.12612
1993.11049	1.33932	0.12634
1991.61037	1.33894	0.12659
1990.11026	1.33856	0.12687
1988.61015	1.3382	0.12716
1987.11004	1.33786	0.12744
1985.60993	1.33751	0.12772
1984.10981	1.33717	0.12798
1982.6097	1.33683	0.12823
1981.10959	1.33649	0.12847
1979.60948	1.33615	0.1287
1978.10937	1.33578	0.12894
1976.60926	1.3354	0.12918
1975.10914	1.33501	0.12943
1973.60903	1.33461	0.1297
1972.10892	1.33421	0.12998
1970.60881	1.33381	0.13028
1969.1087	1.3334	0.1306
1967.60858	1.33299	0.13095
1966.10847	1.33259	0.13132
1964.60836	1.3322	0.13169
1963.10825	1.33182	0.13206
1961.60814	1.33144	0.13243
1960.10803	1.33106	0.13279
1958.60791	1.33068	0.13317
1957.1078	1.3303	0.13354
1955.60769	1.32992	0.13393
1954.10758	1.32954	0.13433
1952.60747	1.32914	0.13474
1951.10735	1.32874	0.13515
1949.60724	1.32834	0.13556
1948.10713	1.32794	0.13598
1946.60702	1.32755	0.13642
1945.10691	1.32716	0.13691
1943.6068	1.32678	0.13743
1942.10668	1.32642	0.13799
1940.60657	1.32609	0.13858
1939.10646	1.3258	0.13914
1937.60635	1.3255	0.13969
1936.10624	1.32523	0.14021
1934.60612	1.32495	0.1407
1933.10601	1.32467	0.14116
1931.6059	1.32439	0.14161
1930.10579	1.32408	0.14205
1928.60568	1.32375	0.14252
1927.10557	1.3234	0.14298
1925.60545	1.32305	0.14347
1924.10534	1.32268	0.14401
1922.60523	1.32234	0.1446
1921.10512	1.322	0.14522
1919.60501	1.32169	0.14588
1918.10489	1.32139	0.14656
1916.60478	1.32113	0.14723
1915.10467	1.3209	0.1479
1913.60456	1.32068	0.14852
1912.10445	1.32048	0.14914
1910.60434	1.32028	0.14976
1909.10422	1.32008	0.15036
1907.60411	1.3199	0.15098
1906.104	1.31971	0.15159
1904.60389	1.31953	0.15219
1903.10378	1.31933	0.15278
1901.60366	1.31912	0.15336
1900.10355	1.31892	0.15394
1898.60344	1.31869	0.15451
1897.10333	1.31845	0.15508
1895.60322	1.31821	0.15568
1894.10311	1.31796	0.15631
1892.60299	1.31773	0.15699
1891.10288	1.3175	0.1577
1889.60277	1.31729	0.15844
1888.10266	1.31711	0.15923
1886.60255	1.31697	0.16001
1885.10243	1.31686	0.16077
1883.60232	1.31676	0.1615
1882.10221	1.31668	0.16221
1880.6021	1.31658	0.16288
1879.10199	1.31646	0.16351
1877.60188	1.31632	0.16411
1876.10176	1.31614	0.16469
1874.60165	1.31594	0.16529
1873.10154	1.31573	0.16594
1871.60143	1.3155	0.16666
1870.10132	1.31529	0.16748
1868.6012	1.3151	0.16842
1867.10109	1.31498	0.16943
1865.60098	1.31494	0.17045
1864.10087	1.31494	0.17142
1862.60076	1.31498	0.17233
1861.10065	1.31504	0.17317
1859.60053	1.31513	0.17395
1858.10042	1.31523	0.17469
1856.60031	1.31532	0.1754
1855.1002	1.31536	0.17612
1853.60009	1.31535	0.17683
1852.09997	1.31532	0.17751
1850.59986	1.31527	0.1782
1849.09975	1.31523	0.17895
1847.59964	1.31518	0.17976
1846.09953	1.31515	0.18067
1844.59942	1.31514	0.18166
1843.0993	1.31522	0.18274
1841.59919	1.31535	0.18381
1840.09908	1.31551	0.18481
1838.59897	1.31568	0.18573
1837.09886	1.31586	0.18656
1835.59875	1.31603	0.18733
1834.09863	1.3162	0.18807
1832.59852	1.31635	0.18884
1831.09841	1.31647	0.18968
1829.5983	1.31661	0.19063
1828.09819	1.3168	0.19169
1826.59807	1.31702	0.19278
1825.09796	1.31731	0.19389
1823.59785	1.31766	0.19498
1822.09774	1.31806	0.19602
1820.59763	1.3185	0.19696
1819.09752	1.31895	0.19782
1817.5974	1.31941	0.19863
1816.09729	1.31986	0.19941
1814.59718	1.32032	0.2002
1813.09707	1.32076	0.201
1811.59696	1.32118	0.20182
1810.09684	1.3216	0.20265
1808.59673	1.32203	0.20347
1807.09662	1.32248	0.20427
1805.59651	1.32293	0.20504
1804.0964	1.32336	0.2058
1802.59629	1.32377	0.20655
1801.09617	1.32416	0.20732
1799.59606	1.32456	0.20812
1798.09595	1.32499	0.20894
1796.59584	1.32544	0.20981
1795.09573	1.32592	0.21073
1793.59561	1.32641	0.21169
1792.0955	1.32696	0.21271
1790.59539	1.32759	0.21375
1789.09528	1.32831	0.21476
1787.59517	1.32906	0.21568
1786.09506	1.32983	0.21651
1784.59494	1.33061	0.21728
1783.09483	1.33137	0.21796
1781.59472	1.3321	0.21858
1780.09461	1.33279	0.21915
1778.5945	1.33345	0.21971
1777.09438	1.33406	0.22028
1775.59427	1.33467	0.22091
1774.09416	1.33527	0.22164
1772.59405	1.33592	0.22254
1771.09394	1.33663	0.22355
1769.59383	1.33743	0.22461
1768.09371	1.33833	0.22562
1766.5936	1.33928	0.22656
1765.09349	1.34029	0.22736
1763.59338	1.34134	0.22801
1762.09327	1.34241	0.22861
1760.59315	1.34348	0.22918
1759.09304	1.34451	0.2297
1757.59293	1.3455	0.23016
1756.09282	1.34646	0.2306
1754.59271	1.34741	0.23104
1753.0926	1.34834	0.23147
1751.59248	1.34927	0.23195
1750.09237	1.35021	0.23254
1748.59226	1.35121	0.23321
1747.09215	1.35228	0.23389
1745.59204	1.3534	0.23456
1744.09192	1.35451	0.23515
1742.59181	1.35561	0.23561
1741.0917	1.35673	0.23594
1739.59159	1.35787	0.23622
1738.09148	1.35905	0.23652
1736.59137	1.36023	0.23688
1735.09125	1.36143	0.23733
1733.59114	1.36269	0.23796
1732.09103	1.36411	0.23863
1730.59092	1.36563	0.23923
1729.09081	1.36721	0.23966
1727.59069	1.36877	0.23985
1726.09058	1.37027	0.23972
1724.59047	1.37169	0.23929
1723.09036	1.37305	0.23871
1721.59025	1.37432	0.23814
1720.09014	1.37548	0.2377
1718.59002	1.37658	0.23749
1717.08991	1.3777	0.23756
1715.5898	1.37889	0.2378
1714.08969	1.38019	0.238
1712.58958	1.38157	0.23803
1711.08946	1.38292	0.2378
1709.58935	1.38421	0.23727
1708.08924	1.3854	0.23643
1706.58913	1.38648	0.23547
1705.08902	1.38743	0.23457
1703.58891	1.3883	0.2338
1702.08879	1.38908	0.23324
1700.58868	1.38985	0.23297
1699.08857	1.3907	0.23299
1697.58846	1.39169	0.23311
1696.08835	1.39279	0.23318
1694.58823	1.39394	0.23309
1693.08812	1.39509	0.23267
1691.58801	1.39618	0.23185
1690.0879	1.39722	0.23077
1688.58779	1.39816	0.22966
1687.08768	1.399	0.22865
1685.58756	1.39969	0.22784
1684.08745	1.40033	0.22736
1682.58734	1.40104	0.22712
1681.08723	1.40179	0.22687
1679.58712	1.40257	0.22651
1678.087	1.40333	0.22596
1676.58689	1.40408	0.22524
1675.08678	1.40486	0.22444
1673.58667	1.40566	0.22369
1672.08656	1.40643	0.22301
1670.58645	1.40717	0.22243
1669.08633	1.40791	0.22198
1667.58622	1.40874	0.22156
1666.08611	1.40963	0.22103
1664.586	1.41047	0.22035
1663.08589	1.41119	0.2195
1661.58577	1.41182	0.21846
1660.08566	1.41241	0.21724
1658.58555	1.4129	0.21599
1657.08544	1.41323	0.21484
1655.58533	1.41338	0.21386
1654.08522	1.41347	0.21319
1652.5851	1.41372	0.21292
1651.08499	1.4142	0.21295
1649.58488	1.41485	0.21303
1648.08477	1.4156	0.2131
1646.58466	1.41644	0.21309
1645.08455	1.41743	0.21281
1643.58443	1.41857	0.21214
1642.08432	1.41977	0.21117
1640.58421	1.42091	0.21007
1639.0841	1.42194	0.20893
1637.58399	1.4229	0.20781
1636.08387	1.42386	0.20678
1634.58376	1.42487	0.20587
1633.08365	1.42589	0.20489
1631.58354	1.42687	0.20369
1630.08343	1.42779	0.20226
1628.58332	1.42864	0.20063
1627.0832	1.4294	0.19885
1625.58309	1.43007	0.19695
1624.08298	1.43061	0.19504
1622.58287	1.43103	0.19319
1621.08276	1.43136	0.1914
1619.58264	1.43158	0.18962
1618.08253	1.43169	0.18783
1616.58242	1.43175	0.1861
1615.08231	1.43179	0.18439
1613.5822	1.4318	0.18262
1612.08209	1.43172	0.18077
1610.58197	1.43153	0.17887
1609.08186	1.43124	0.17693
1607.58175	1.43085	0.17498
1606.08164	1.43038	0.17305
1604.58153	1.42982	0.17116
1603.08141	1.42914	0.16936
1601.5813	1.42835	0.16762
1600.08119	1.42751	0.16592
1598.58108	1.4266	0.16427
1597.08097	1.42564	0.16268
1595.58086	1.42463	0.16116
1594.08074	1.42357	0.1597
1592.58063	1.4225	0.15831
1591.08052	1.4214	0.15698
1589.58041	1.42027	0.15569
1588.0803	1.4191	0.15444
1586.58018	1.41787	0.15317
1585.08007	1.41658	0.15189
1583.57996	1.41523	0.1506
1582.07985	1.41384	0.14936
1580.57974	1.41239	0.14822
1579.07963	1.41087	0.1472
1577.57951	1.40931	0.14632
1576.0794	1.40778	0.14562
1574.57929	1.40633	0.14508
1573.07918	1.40496	0.14457
1571.57907	1.4036	0.14404
1570.07895	1.40216	0.1435
1568.57884	1.40066	0.14289
1567.07873	1.39911	0.14211
1565.57862	1.39754	0.14124
1564.07851	1.39591	0.14048
1562.5784	1.39422	0.13991
1561.07828	1.39247	0.13962
1559.57817	1.39076	0.13972
1558.07806	1.38926	0.14023
1556.57795	1.38803	0.14091
1555.07784	1.38697	0.14145
1553.57772	1.38598	0.14176
1552.07761	1.38499	0.14174
1550.5775	1.38395	0.14134
1549.07739	1.38285	0.14066
1547.57728	1.38168	0.1399
1546.07717	1.38036	0.13927
1544.57705	1.37887	0.13895
1543.07694	1.37732	0.13898
1541.57683	1.3758	0.13932
1540.07672	1.37441	0.13993
1538.57661	1.37324	0.14067
1537.07649	1.37223	0.14132
1535.57638	1.37129	0.14174
1534.07627	1.37037	0.14194
1532.57616	1.36949	0.14197
1531.07605	1.36859	0.1418
1529.57594	1.36762	0.14153
1528.07582	1.36652	0.14126
1526.57571	1.36529	0.14113
1525.0756	1.36399	0.14113
1523.57549	1.3627	0.14129
1522.07538	1.36146	0.14166
1520.57526	1.36029	0.14221
1519.07515	1.35918	0.14281
1517.57504	1.35808	0.14333
1516.07493	1.35698	0.14372
1514.57482	1.35592	0.14393
1513.07471	1.35487	0.14403
1511.57459	1.35383	0.14416
1510.07448	1.35277	0.14445
1508.57437	1.35169	0.14496
1507.07426	1.35065	0.14572
1505.57415	1.34976	0.14663
1504.07403	1.34903	0.14748
1502.57392	1.34837	0.14813
1501.07381	1.3477	0.14857
1499.5737	1.347	0.14881
1498.07359	1.34627	0.14889
1496.57348	1.34552	0.14891
1495.07336	1.34475	0.149
1493.57325	1.34392	0.14918
1492.07314	1.34299	0.14945
1490.57303	1.34203	0.14985
1489.07292	1.34115	0.15037
1487.5728	1.34036	0.15091
1486.07269	1.33962	0.15143
1484.57258	1.33888	0.15183
1483.07247	1.33807	0.15208
1481.57236	1.33721	0.15218
1480.07225	1.33633	0.15217
1478.57213	1.3354	0.15218
1477.07202	1.33443	0.15231
1475.57191	1.3334	0.15262
1474.0718	1.33236	0.15311
1472.57169	1.33136	0.15374
1471.07157	1.33047	0.15441
1469.57146	1.32964	0.15502
1468.07135	1.32879	0.15547
1466.57124	1.32787	0.15573
1465.07113	1.32689	0.15588
1463.57102	1.32589	0.15596
1462.0709	1.32487	0.1561
1460.57079	1.32378	0.15638
1459.07068	1.32262	0.15686
1457.57057	1.32146	0.15758
1456.07046	1.3204	0.15848
1454.57035	1.31948	0.15941
1453.07023	1.31866	0.16028
1451.57012	1.3179	0.16102
1450.07001	1.31716	0.16164
1448.5699	1.31643	0.16213
1447.06979	1.31571	0.16252
1445.56967	1.31496	0.16286
1444.06956	1.31414	0.16315
1442.56945	1.31324	0.16344
1441.06934	1.31227	0.16373
1439.56923	1.31124	0.16406
1438.06912	1.31017	0.16446
1436.569	1.3091	0.16497
1435.06889	1.30805	0.16558
1433.56878	1.30702	0.16623
1432.06867	1.306	0.16688
1430.56856	1.30497	0.16751
1429.06844	1.30391	0.16811
1427.56833	1.30286	0.16863
1426.06822	1.30178	0.1691
1424.56811	1.30069	0.1696
1423.068	1.29957	0.17018
1421.56789	1.29844	0.17083
1420.06777	1.2973	0.1716
1418.56766	1.29622	0.17248
1417.06755	1.29519	0.17344
1415.56744	1.29422	0.17437
1414.06733	1.29327	0.17522
1412.56721	1.29233	0.17596
1411.0671	1.29138	0.17662
1409.56699	1.29041	0.17719
1408.06688	1.28939	0.17773
1406.56677	1.28831	0.17827
1405.06666	1.28715	0.17884
1403.56654	1.28592	0.17946
1402.06643	1.28467	0.18014
1400.56632	1.28339	0.18088
1399.06621	1.2821	0.18173
1397.5661	1.28081	0.18268
1396.06598	1.27955	0.18369
1394.56587	1.27832	0.18475
1393.06576	1.27712	0.18582
1391.56565	1.27596	0.18686
1390.06554	1.27481	0.18787
1388.56543	1.27365	0.18885
1387.06531	1.27249	0.18984
1385.5652	1.27133	0.19085
1384.06509	1.27014	0.19185
1382.56498	1.26892	0.19283
1381.06487	1.26765	0.19382
1379.56475	1.26636	0.19483
1378.06464	1.26505	0.19587
1376.56453	1.26373	0.19698
1375.06442	1.2624	0.19817
1373.56431	1.26106	0.19945
1372.0642	1.25972	0.20079
1370.56408	1.25839	0.20213
1369.06397	1.25705	0.20346
1367.56386	1.25571	0.2048
1366.06375	1.25439	0.20615
1364.56364	1.25305	0.20756
1363.06352	1.25171	0.20904
1361.56341	1.2504	0.21063
1360.0633	1.2491	0.21229
1358.56319	1.24784	0.214
1357.06308	1.2466	0.21573
1355.56297	1.24539	0.21747
1354.06285	1.24421	0.21921
1352.56274	1.24307	0.22097
1351.06263	1.24195	0.22274
1349.56252	1.24083	0.22453
1348.06241	1.23971	0.22634
1346.56229	1.23859	0.22816
1345.06218	1.23747	0.22999
1343.56207	1.23638	0.23187
1342.06196	1.23529	0.2338
1340.56185	1.23424	0.23581
1339.06174	1.23321	0.23791
1337.56162	1.23226	0.24011
1336.06151	1.23138	0.24236
1334.5614	1.23056	0.24463
1333.06129	1.22982	0.24688
1331.56118	1.22913	0.2491
1330.06106	1.2285	0.25126
1328.56095	1.22791	0.25339
1327.06084	1.22736	0.25549
1325.56073	1.22684	0.25756
1324.06062	1.22632	0.25963
1322.56051	1.22582	0.26166
1321.06039	1.22534	0.26369
1319.56028	1.22487	0.26571
1318.06017	1.22443	0.2677
1316.56006	1.22399	0.2697
1315.05995	1.22356	0.27167
1313.55983	1.22315	0.2736
1312.05972	1.22274	0.2755
1310.55961	1.22232	0.27735
1309.0595	1.2219	0.27916
1307.55939	1.22146	0.28092
1306.05928	1.22098	0.28264
1304.55916	1.22046	0.28431
1303.05905	1.21989	0.28594
1301.55894	1.21927	0.28753
1300.05883	1.21858	0.28912
1298.55872	1.21781	0.29069
1297.0586	1.21697	0.29226
1295.55849	1.21605	0.29382
1294.05838	1.21503	0.2954
1292.55827	1.21394	0.297
1291.05816	1.21274	0.29862
1289.55805	1.21145	0.30029
1288.05793	1.21005	0.30199
1286.55782	1.20855	0.30377
1285.05771	1.20695	0.30563
1283.5576	1.20525	0.30757
1282.05749	1.20345	0.30964
1280.55737	1.20156	0.31183
1279.05726	1.19958	0.31417
1277.55715	1.19753	0.31665
1276.05704	1.19541	0.31931
1274.55693	1.19324	0.32215
1273.05682	1.19102	0.32519
1271.5567	1.18876	0.32842
1270.05659	1.1865	0.33189
1268.55648	1.18424	0.33559
1267.05637	1.18201	0.33952
1265.55626	1.17981	0.3437
1264.05615	1.17768	0.34814
1262.55603	1.17562	0.35282
1261.05592	1.17367	0.35775
1259.55581	1.17184	0.36293
1258.0557	1.17015	0.36837
1256.55559	1.16863	0.37403
1255.05547	1.1673	0.37994
1253.55536	1.16619	0.38607
1252.05525	1.16529	0.39241
1250.55514	1.16465	0.39894
1249.05503	1.16428	0.40565
1247.55492	1.16419	0.4125
1246.0548	1.16439	0.41948
1244.55469	1.16489	0.42657
1243.05458	1.16572	0.43374
1241.55447	1.16686	0.44096
1240.05436	1.16833	0.4482
1238.55424	1.17012	0.45545
1237.05413	1.17224	0.46269
1235.55402	1.17468	0.46985
1234.05391	1.17742	0.47695
1232.5538	1.18048	0.48393
1231.05369	1.18383	0.49078
1229.55357	1.18744	0.49748
1228.05346	1.19132	0.50402
1226.55335	1.19544	0.51037
1225.05324	1.19978	0.51654
1223.55313	1.20432	0.5225
1222.05301	1.20905	0.52826
1220.5529	1.21394	0.5338
1219.05279	1.21897	0.53911
1217.55268	1.22413	0.54422
1216.05257	1.22938	0.54909
1214.55246	1.23472	0.55378
1213.05234	1.24014	0.55826
1211.55223	1.24561	0.56257
1210.05212	1.25114	0.56672
1208.55201	1.25671	0.57071
1207.0519	1.26232	0.57457
1205.55178	1.26797	0.57831
1204.05167	1.27366	0.58194
1202.55156	1.2794	0.58547
1201.05145	1.28519	0.58891
1199.55134	1.29104	0.59226
1198.05123	1.29696	0.59552
1196.55111	1.30294	0.5987
1195.051	1.309	0.60182
1193.55089	1.31518	0.60488
1192.05078	1.32145	0.60785
1190.55067	1.32785	0.61077
1189.05055	1.33439	0.61359
1187.55044	1.34108	0.61632
1186.05033	1.34793	0.61894
1184.55022	1.35494	0.62143
1183.05011	1.36214	0.62375
1181.55	1.36952	0.62591
1180.04988	1.37708	0.62786
1178.54977	1.38481	0.62957
1177.04966	1.39271	0.63102
1175.54955	1.40077	0.63218
1174.04944	1.40897	0.63301
1172.54932	1.41728	0.63351
1171.04921	1.4257	0.63362
1169.5491	1.43418	0.63335
1168.04899	1.44269	0.63266
1166.54888	1.45122	0.63155
1165.04877	1.4597	0.63001
1163.54865	1.46813	0.62804
1162.04854	1.47646	0.62562
1160.54843	1.48465	0.62278
1159.04832	1.49267	0.61949
1157.54821	1.50047	0.61579
1156.04809	1.50803	0.61169
1154.54798	1.51531	0.6072
1153.04787	1.52228	0.60235
1151.54776	1.5289	0.59716
1150.04765	1.53515	0.59167
1148.54754	1.54102	0.58591
1147.04742	1.54646	0.5799
1145.54731	1.55148	0.57371
1144.0472	1.55608	0.56737
1142.54709	1.56024	0.56092
1141.04698	1.56394	0.55441
1139.54686	1.56723	0.54787
1138.04675	1.57009	0.54133
1136.54664	1.57254	0.53482
1135.04653	1.57459	0.52838
1133.54642	1.57625	0.52201
1132.04631	1.57753	0.51575
1130.54619	1.57846	0.50962
1129.04608	1.57906	0.50363
1127.54597	1.57934	0.49783
1126.04586	1.57932	0.49222
1124.54575	1.57904	0.4868
1123.04563	1.57848	0.48159
1121.54552	1.57771	0.47658
1120.04541	1.57671	0.47178
1118.5453	1.5755	0.46719
1117.04519	1.5741	0.46281
1115.54508	1.57253	0.45862
1114.04496	1.57077	0.45465
1112.54485	1.56886	0.45088
1111.04474	1.56679	0.44732
1109.54463	1.56456	0.44397
1108.04452	1.56219	0.44083
1106.5444	1.55968	0.43791
1105.04429	1.55703	0.4352
1103.54418	1.55424	0.43271
1102.04407	1.55132	0.43045
1100.54396	1.54825	0.42842
1099.04385	1.54505	0.42662
1097.54373	1.54171	0.42507
1096.04362	1.53822	0.42379
1094.54351	1.53461	0.42278
1093.0434	1.53084	0.42208
1091.54329	1.52695	0.4217
1090.04317	1.52291	0.42168
1088.54306	1.51877	0.42206
1087.04295	1.51452	0.42286
1085.54284	1.5102	0.42414
1084.04273	1.50583	0.42596
1082.54262	1.50148	0.42835
1081.0425	1.4972	0.43139
1079.54239	1.49306	0.43513
1078.04228	1.48915	0.4396
1076.54217	1.48557	0.44484
1075.04206	1.48245	0.45086
1073.54194	1.47988	0.45768
1072.04183	1.47798	0.46524
1070.54172	1.47688	0.4735
1069.04161	1.47668	0.48237
1067.5415	1.47748	0.49174
1066.04139	1.47936	0.50147
1064.54127	1.48239	0.51141
1063.04116	1.48658	0.52137
1061.54105	1.49197	0.53119
1060.04094	1.49852	0.5407
1058.54083	1.50621	0.5497
1057.04072	1.51499	0.55805
1055.5406	1.52477	0.56559
1054.04049	1.53542	0.57217
1052.54038	1.54684	0.57767
1051.04027	1.55887	0.58196
1049.54016	1.57136	0.58497
1048.04004	1.58416	0.58663
1046.53993	1.59708	0.58694
1045.03982	1.60997	0.58591
1043.53971	1.62267	0.5836
1042.0396	1.63504	0.58007
1040.53949	1.64697	0.57542
1039.03937	1.65831	0.56977
1037.53926	1.66901	0.56321
1036.03915	1.67898	0.55586
1034.53904	1.68816	0.54783
1033.03893	1.69652	0.53925
1031.53881	1.70404	0.53023
1030.0387	1.71071	0.52086
1028.53859	1.71653	0.51126
1027.03848	1.7215	0.50152
1025.53837	1.72567	0.49175
1024.03826	1.72907	0.48201
1022.53814	1.73174	0.47241
1021.03803	1.73373	0.463
1019.53792	1.7351	0.45384
1018.03781	1.73591	0.44498
1016.5377	1.73623	0.43644
1015.03758	1.7361	0.42823
1013.53747	1.73557	0.42035
1012.03736	1.73471	0.41278
1010.53725	1.73353	0.40555
1009.03714	1.73209	0.39863
1007.53703	1.73041	0.39201
1006.03691	1.72853	0.38571
1004.5368	1.72647	0.3797
1003.03669	1.72425	0.374
1001.53658	1.7219	0.36859
1000.03647	1.71944	0.36345
998.53635	1.71688	0.35857
997.03624	1.71425	0.35396
995.53613	1.71157	0.34959
994.03602	1.70885	0.34547
992.53591	1.70611	0.34157
991.0358	1.70336	0.3379
989.53568	1.7006	0.33444
988.03557	1.69786	0.33117
986.53546	1.69514	0.32807
985.03535	1.69245	0.32513
983.53524	1.68978	0.32232
982.03512	1.68714	0.31962
980.53501	1.68453	0.31702
979.0349	1.68192	0.31451
977.53479	1.67933	0.31208
976.03468	1.67675	0.30972
974.53457	1.67415	0.30743
973.03445	1.67154	0.3052
971.53434	1.6689	0.30303
970.03423	1.66623	0.30093
968.53412	1.66351	0.2989
967.03401	1.66075	0.29694
965.53389	1.65795	0.29506
964.03378	1.65509	0.29326
962.53367	1.65216	0.29154
961.03356	1.64918	0.28992
959.53345	1.64614	0.2884
958.03334	1.64303	0.28698
956.53322	1.63985	0.28569
955.03311	1.63661	0.28453
953.533	1.6333	0.28349
952.03289	1.62994	0.28261
950.53278	1.62651	0.28186
949.03266	1.62303	0.28128
947.53255	1.6195	0.28086
946.03244	1.61592	0.28063
944.53233	1.61231	0.28058
943.03222	1.60865	0.28074
941.53211	1.60498	0.28112
940.03199	1.60131	0.28173
938.53188	1.59763	0.28258
937.03177	1.59398	0.28366
935.53166	1.59035	0.28499
934.03155	1.58678	0.28658
932.53143	1.58327	0.28845
931.03132	1.57986	0.2906
929.53121	1.57656	0.29304
928.0311	1.57339	0.29577
926.53099	1.5704	0.2988
925.03088	1.56758	0.30212
923.53076	1.56499	0.30573
922.03065	1.56265	0.30963
920.53054	1.5606	0.31381
919.03043	1.55887	0.31827
917.53032	1.55749	0.323
916.0302	1.55651	0.32799
914.53009	1.55597	0.3332
913.02998	1.5559	0.33862
911.52987	1.55632	0.34418
910.02976	1.55729	0.34984
908.52965	1.55881	0.35555
907.02953	1.5609	0.36124
905.52942	1.56358	0.36685
904.02931	1.56682	0.37231
902.5292	1.57066	0.37756
901.02909	1.57504	0.38253
899.52897	1.57997	0.38715
898.02886	1.58538	0.39132
896.52875	1.59126	0.395
895.02864	1.59752	0.39811
893.52853	1.60411	0.4006
892.02842	1.61097	0.40243
890.5283	1.61801	0.40356
889.02819	1.62515	0.40398
887.52808	1.63231	0.40366
886.02797	1.63942	0.40263
884.52786	1.64637	0.4009
883.02774	1.65311	0.39849
881.52763	1.65957	0.39546
880.02752	1.66569	0.39186
878.52741	1.67142	0.38775
877.0273	1.67671	0.38317
875.52719	1.68153	0.37822
874.02707	1.68587	0.37294
872.52696	1.68969	0.36739
871.02685	1.69301	0.36165
869.52674	1.6958	0.35575
868.02663	1.6981	0.34979
866.52652	1.69988	0.3438
865.0264	1.70121	0.33783
863.52629	1.70209	0.33194
862.02618	1.70254	0.32617
860.52607	1.7026	0.32055
859.02596	1.7023	0.31511
857.52584	1.70169	0.30986
856.02573	1.70079	0.30482
854.52562	1.69965	0.30001
853.02551	1.69827	0.29542
851.5254	1.69672	0.29106
850.02529	1.695	0.2869
848.52517	1.69313	0.28296
847.02506	1.69114	0.27921
845.52495	1.68905	0.27566
844.02484	1.68686	0.2723
842.52473	1.6846	0.26912
841.02461	1.68227	0.26613
839.5245	1.67989	0.26331
838.02439	1.67746	0.26065
836.52428	1.675	0.25815
835.02417	1.67249	0.25577
833.52406	1.66995	0.25353
832.02394	1.66737	0.25142
830.52383	1.66476	0.24945
829.02372	1.66214	0.2476
827.52361	1.6595	0.24592
826.0235	1.65686	0.24441
824.52338	1.65425	0.24305
823.02327	1.65165	0.24185
821.52316	1.6491	0.24079
820.02305	1.64661	0.23985
818.52294	1.64417	0.23899
817.02283	1.64177	0.2382
815.52271	1.63941	0.23744
814.0226	1.63708	0.23673
812.52249	1.63478	0.23606
811.02238	1.63249	0.23544
809.52227	1.6302	0.23487
808.02215	1.62792	0.23437
806.52204	1.62564	0.23396
805.02193	1.62338	0.23362
803.52182	1.62115	0.23338
802.02171	1.61895	0.23323
800.5216	1.61678	0.23317
799.02148	1.61465	0.23318
797.52137	1.61257	0.23324
796.02126	1.61053	0.23335
794.52115	1.60855	0.2335
793.02104	1.6066	0.23369
791.52092	1.6047	0.23392
790.02081	1.60283	0.23417
788.5207	1.60099	0.23447
787.02059	1.5992	0.2348
785.52048	1.59743	0.23518
784.02037	1.5957	0.23559
782.52025	1.59401	0.23604
781.02014	1.59236	0.23652
779.52003	1.59074	0.23702
778.01992	1.58916	0.23755
776.51981	1.58761	0.2381
775.01969	1.5861	0.23868
773.51958	1.58461	0.23927
772.01947	1.58318	0.2399
770.51936	1.58177	0.24054
769.01925	1.58041	0.24121
767.51914	1.57908	0.24192
766.01902	1.57779	0.24263
764.51891	1.57656	0.24336
763.0188	1.57536	0.24409
761.51869	1.57421	0.24482
760.01858	1.57309	0.24555
758.51846	1.57202	0.24627
757.01835	1.57097	0.24697
755.51824	1.56995	0.24765
754.01813	1.56895	0.24831
752.51802	1.56796	0.24895
751.01791	1.56697	0.24956
749.51779	1.566	0.25016
748.01768	1.56502	0.25075
746.51757	1.56405	0.25134
745.01746	1.56308	0.25193
743.51735	1.56212	0.25254
742.01723	1.56115	0.25313
740.51712	1.56019	0.25372
739.01701	1.55923	0.25429
737.5169	1.55825	0.25484
736.01679	1.55726	0.25537
734.51668	1.55627	0.25589
733.01656	1.55525	0.25642
731.51645	1.55422	0.25696
730.01634	1.55317	0.25753
728.51623	1.55211	0.25809
727.01612	1.55104	0.25869
725.516	1.54997	0.25929
724.01589	1.54889	0.2599
722.51578	1.5478	0.26052
721.01567	1.54669	0.26113
719.51556	1.54558	0.26174
718.01545	1.54446	0.26235
716.51533	1.5433	0.26295
715.01522	1.5421	0.26355
713.51511	1.54088	0.26417
712.015	1.53962	0.26481
710.51489	1.53833	0.26547
709.01477	1.53702	0.26617
707.51466	1.53568	0.26692
706.01455	1.53432	0.2677
704.51444	1.53293	0.26853
703.01433	1.53153	0.2694
701.51422	1.53012	0.27028
700.0141	1.52869	0.27121
698.51399	1.52724	0.27217
697.01388	1.52578	0.27317
695.51377	1.52431	0.27422
694.01366	1.52284	0.2753
692.51354	1.52135	0.27643
691.01343	1.51985	0.27762
689.51332	1.51836	0.27883
688.01321	1.51685	0.28008
686.5131	1.51534	0.28137
685.01299	1.51382	0.28268
683.51287	1.51228	0.28401
682.01276	1.51073	0.28538
680.51265	1.50917	0.28678
679.01254	1.50758	0.28822
677.51243	1.50595	0.28969
676.01232	1.50429	0.29119
674.5122	1.50259	0.29274
673.01209	1.50087	0.29433
671.51198	1.49912	0.29599
670.01187	1.49733	0.29772
668.51176	1.4955	0.29955
667.01164	1.49365	0.30147
665.51153	1.49179	0.3035
664.01142	1.48992	0.30557
662.51131	1.48802	0.30771
661.0112	1.48609	0.30994
659.51109	1.48417	0.31223
658.01097	1.48221	0.31463
656.51086	1.48024	0.31713
655.01075	1.47827	0.31976
653.51064	1.47628	0.32249
652.01053	1.47427	0.32531
650.51041	1.47223	0.32822
649.0103	1.47016	0.33122
647.51019	1.46805	0.3343
646.01008	1.46593	0.33751
644.50997	1.46375	0.34087
643.00986	1.46153	0.3444
641.50974	1.45927	0.34814
640.00963	1.457	0.3521
638.50952	1.45474	0.3563
637.00941	1.4525	0.36074
635.5093	1.45025	0.36542
634.00918	1.44805	0.37038
632.50907	1.44591	0.37561
631.00896	1.44385	0.38113
629.50885	1.44188	0.38693
628.00874	1.44001	0.39308
626.50863	1.43829	0.39957
625.00851	1.43674	0.40644
623.5084	1.43542	0.41372
622.00829	1.43435	0.42141
620.50818	1.43361	0.42951
619.00807	1.4332	0.43805
617.50795	1.43322	0.44698
616.00784	1.43369	0.45628
614.50773	1.43468	0.46596
613.00762	1.43623	0.47598
611.50751	1.43839	0.48632
610.0074	1.44122	0.49694
608.50728	1.44477	0.50783
607.00717	1.44907	0.51892
605.50706	1.4542	0.53015
604.00695	1.46019	0.54147
602.50684	1.46708	0.55282
601.00672	1.47491	0.5641
599.50661	1.48374	0.57525
598.0065	1.49363	0.5862
596.50639	1.50462	0.59688
595.00628	1.51676	0.6072
593.50617	1.53011	0.61703
592.00605	1.54468	0.62619
590.50594	1.56047	0.63448
589.00583	1.57744	0.64164
587.50572	1.5955	0.64733
586.00561	1.61445	0.65125
584.50549	1.63406	0.65309
583.00538	1.65401	0.65254
581.50527	1.67394	0.64939
580.00516	1.69341	0.64356
578.50505	1.71198	0.63504
577.00494	1.72922	0.62396
575.50482	1.74476	0.61067
574.00471	1.7583	0.59556
572.5046	1.76963	0.57919
571.00449	1.77862	0.56212
569.50438	1.78532	0.54494
568.00426	1.78983	0.52816
566.50415	1.79235	0.5122
565.00404	1.79316	0.49733
563.50393	1.79253	0.48371
562.00382	1.79073	0.4714
560.50371	1.78806	0.46041
559.00359	1.78478	0.45064
557.50348	1.78105	0.44202
556.00337	1.77709	0.43443
554.50326	1.77299	0.42778
553.00315	1.76889	0.42198
551.50303	1.76484	0.41693
550.00292	1.76089	0.41252
548.50281	1.7571	0.4087
547.0027	1.75349	0.40537
545.50259	1.75007	0.40246
544.00248	1.74684	0.39989
542.50236	1.74381	0.39762
541.00225	1.74095	0.39559
539.50214	1.73829	0.39378
538.00203	1.73578	0.39216
536.50192	1.73341	0.3907
535.0018	1.73116	0.38935
533.50169	1.72902	0.38812
532.00158	1.727	0.38699
530.50147	1.72507	0.38597
529.00136	1.72322	0.38503
527.50125	1.7214	0.38419
526.00113	1.71964	0.38346
524.50102	1.71797	0.38283
523.00091	1.7164	0.38228
521.5008	1.7149	0.38182
520.00069	1.71344	0.38147
518.50057	1.71207	0.38123
517.00046	1.71077	0.38105
515.50035	1.70955	0.38091
514.00024	1.70841	0.38075
512.50013	1.70726	0.38054
511.00002	1.70609	0.38027
509.4999	1.70489	0.37998
507.99979	1.70368	0.37973
506.49968	1.70247	0.37957
504.99957	1.70124	0.37956
503.49946	1.69998	0.37969
501.99934	1.6987	0.37996
500.49923	1.69746	0.38034
498.99912	1.69626	0.38078
497.49901	1.6951	0.38129
495.9989	1.69397	0.38184
494.49879	1.69283	0.38244
492.99867	1.69169	0.38312
491.49856	1.6906	0.38391
489.99845	1.68956	0.38481
488.49834	1.68856	0.38584
486.99823	1.68762	0.38699
485.49812	1.68672	0.3883
483.998	1.68589	0.38974
482.49789	1.68514	0.39124
480.99778	1.68446	0.39275
479.49767	1.68384	0.39426
477.99756	1.68326	0.39582
476.49744	1.68272	0.39744
474.99733	1.68225	0.3992
473.49722	1.68188	0.40118
471.99711	1.68167	0.40345
470.497	1.68163	0.40594
468.99689	1.68175	0.40853
467.49677	1.682	0.41117
465.99666	1.68245	0.41377
464.49655	1.68312	0.41632
462.99644	1.68402	0.41887
461.49633	1.68515	0.42154
459.99621	1.68654	0.42436
458.4961	1.68818	0.42738
456.99599	1.6902	0.43056
455.49588	1.69261	0.43372
453.99577	1.69537	0.43665
452.49566	1.69839	0.43923
450.99554	1.70168	0.44141
449.49543	1.7052	0.44317
447.99532	1.70891	0.44453
446.49521	1.7127	0.44556
444.9951	1.71653	0.44632
443.49498	1.72034	0.44679
441.99487	1.72417	0.44699
440.49476	1.72799	0.44687
438.99465	1.73174	0.44638
437.49454	1.73538	0.44557
435.99443	1.73891	0.4445
434.49431	1.74234	0.44316
432.9942	1.74558	0.44155
431.49409	1.74856	0.43963
429.99398	1.75121	0.43741
428.49387	1.75353	0.43492
426.99375	1.75555	0.43222
425.49364	1.75724	0.42937
423.99353	1.75859	0.4266
422.49342	1.75959	0.42403
420.99331	1.76035	0.42172
419.4932	1.76092	0.41965
417.99308	1.76138	0.41778
416.49297	1.76172	0.416
414.99286	1.76191	0.4142
413.49275	1.76195	0.41238
411.99264	1.76189	0.41059
410.49252	1.76174	0.40886
408.99241	1.76149	0.40726
407.4923	1.76112	0.40585
405.99219	1.76063	0.40463
404.49208	1.76008	0.40358
402.99197	1.75946	0.40266
401.49185	1.75883	0.40183
399.99174	1.75815	0.40108
