#SUBSTANCE=Sulphuric acid
#DESCRIPTION=Refractive indices of 48 wt% sulphuric acid from 400 to 7500 cm-1 at 213 K
#TEMPERATURE=213 K
#CONCENTRATION=48 wt%
#DOI=10.1021/jp026576n
#REFERENCE=Spectroscopic Study of Aqueous H2SO4 at Different Temperatures and Compositions:  Variations in Dissociation and Optical Properties
##Cathrine E. Lund Myhre,†, Daniel H. Christensen,‡, Flemming M. Nicolaisen,‡ and, and Claus J. Nielsen*,†
##The Journal of Physical Chemistry A 2003 107 (12), 1979-1991 
#FORMAT=WAVN N K
7498.52083	1.38131	0.01227
7497.02072	1.38137	0.01228
7495.52061	1.38145	0.01228
7494.0205	1.38151	0.01228
7492.52039	1.38156	0.01226
7491.02027	1.38162	0.01222
7489.52016	1.38166	0.01218
7488.02005	1.38167	0.01214
7486.51994	1.38169	0.0121
7485.01983	1.38168	0.01205
7483.51971	1.38168	0.01202
7482.0196	1.38166	0.01199
7480.51949	1.38164	0.01197
7479.01938	1.38161	0.01195
7477.51927	1.3816	0.01194
7476.01916	1.38159	0.01194
7474.51904	1.38159	0.01194
7473.01893	1.3816	0.01195
7471.51882	1.38162	0.01195
7470.01871	1.38165	0.01195
7468.5186	1.3817	0.01193
7467.01848	1.38174	0.01191
7465.51837	1.38178	0.01187
7464.01826	1.38182	0.01183
7462.51815	1.38185	0.01177
7461.01804	1.38187	0.01171
7459.51793	1.38186	0.01165
7458.01781	1.38184	0.0116
7456.5177	1.38181	0.01155
7455.01759	1.38176	0.0115
7453.51748	1.38172	0.01147
7452.01737	1.38168	0.01143
7450.51725	1.38163	0.01141
7449.01714	1.38159	0.0114
7447.51703	1.38157	0.0114
7446.01692	1.38154	0.01139
7444.51681	1.38152	0.01139
7443.0167	1.3815	0.01139
7441.51658	1.38147	0.01139
7440.01647	1.38146	0.01139
7438.51636	1.38144	0.0114
7437.01625	1.38143	0.01141
7435.51614	1.38143	0.01141
7434.01602	1.38143	0.01141
7432.51591	1.38145	0.01141
7431.0158	1.38148	0.01139
7429.51569	1.38149	0.01137
7428.01558	1.3815	0.01135
7426.51547	1.38149	0.01132
7425.01535	1.38147	0.01129
7423.51524	1.38144	0.01128
7422.01513	1.3814	0.01126
7420.51502	1.38137	0.01125
7419.01491	1.38133	0.01125
7417.51479	1.3813	0.01125
7416.01468	1.38128	0.01127
7414.51457	1.38127	0.01129
7413.01446	1.38128	0.01131
7411.51435	1.3813	0.01132
7410.01424	1.38133	0.01132
7408.51412	1.38136	0.0113
7407.01401	1.38139	0.01129
7405.5139	1.3814	0.01127
7404.01379	1.38143	0.01124
7402.51368	1.38144	0.0112
7401.01356	1.38143	0.01116
7399.51345	1.38142	0.01111
7398.01334	1.38138	0.01107
7396.51323	1.38134	0.01104
7395.01312	1.3813	0.01102
7393.51301	1.38127	0.011
7392.01289	1.38123	0.011
7390.51278	1.38119	0.01099
7389.01267	1.38116	0.01098
7387.51256	1.38114	0.01098
7386.01245	1.38113	0.01098
7384.51233	1.38109	0.01099
7383.01222	1.38107	0.01099
7381.51211	1.38105	0.011
7380.012	1.38104	0.011
7378.51189	1.38102	0.01101
7377.01178	1.38099	0.01102
7375.51166	1.38097	0.01103
7374.01155	1.38095	0.01105
7372.51144	1.38096	0.01106
7371.01133	1.38097	0.01107
7369.51122	1.38098	0.01107
7368.0111	1.38098	0.01107
7366.51099	1.38098	0.01107
7365.01088	1.38099	0.01108
7363.51077	1.38099	0.01108
7362.01066	1.38099	0.01108
7360.51055	1.38098	0.01107
7359.01043	1.38097	0.01107
7357.51032	1.38097	0.01106
7356.01021	1.38098	0.01106
7354.5101	1.381	0.01105
7353.00999	1.38103	0.01104
7351.50987	1.38106	0.011
7350.00976	1.38109	0.01096
7348.50965	1.38108	0.01092
7347.00954	1.38105	0.01088
7345.50943	1.381	0.01085
7344.00932	1.38094	0.01082
7342.5092	1.38087	0.01082
7341.00909	1.3808	0.01081
7339.50898	1.38073	0.01082
7338.00887	1.38067	0.01085
7336.50876	1.38065	0.01089
7335.00864	1.38066	0.01093
7333.50853	1.38068	0.01096
7332.00842	1.3807	0.01099
7330.50831	1.38073	0.011
7329.0082	1.38074	0.01101
7327.50809	1.38076	0.01101
7326.00797	1.38076	0.01102
7324.50786	1.38077	0.01102
7323.00775	1.38079	0.01101
7321.50764	1.3808	0.011
7320.00753	1.38083	0.01098
7318.50741	1.38084	0.01095
7317.0073	1.38086	0.01092
7315.50719	1.38087	0.0109
7314.00708	1.38087	0.01087
7312.50697	1.38085	0.01083
7311.00686	1.38081	0.0108
7309.50674	1.38076	0.01078
7308.00663	1.38071	0.01076
7306.50652	1.38067	0.01075
7305.00641	1.38063	0.01075
7303.5063	1.38061	0.01076
7302.00619	1.38059	0.01076
7300.50607	1.38058	0.01077
7299.00596	1.38057	0.01077
7297.50585	1.38056	0.01077
7296.00574	1.38053	0.01078
7294.50563	1.3805	0.01078
7293.00551	1.38047	0.0108
7291.5054	1.38043	0.01082
7290.00529	1.3804	0.01085
7288.50518	1.38039	0.01088
7287.00507	1.38037	0.01091
7285.50496	1.38037	0.01094
7284.00484	1.3804	0.01097
7282.50473	1.38044	0.011
7281.00462	1.38049	0.01101
7279.50451	1.38054	0.011
7278.0044	1.3806	0.01099
7276.50428	1.38064	0.01095
7275.00417	1.38066	0.01092
7273.50406	1.38068	0.01087
7272.00395	1.38067	0.01083
7270.50384	1.38063	0.01079
7269.00373	1.38059	0.01076
7267.50361	1.38054	0.01074
7266.0035	1.38049	0.01072
7264.50339	1.38044	0.01072
7263.00328	1.38041	0.01072
7261.50317	1.3804	0.01073
7260.00305	1.38038	0.01074
7258.50294	1.38037	0.01077
7257.00283	1.38038	0.01077
7255.50272	1.3804	0.01076
7254.00261	1.38041	0.01075
7252.5025	1.38041	0.01073
7251.00238	1.3804	0.01072
7249.50227	1.38038	0.01071
7248.00216	1.38036	0.01071
7246.50205	1.38034	0.0107
7245.00194	1.38032	0.01068
7243.50182	1.38029	0.01065
7242.00171	1.38025	0.01064
7240.5016	1.38021	0.01065
7239.00149	1.38018	0.01067
7237.50138	1.38017	0.01069
7236.00127	1.38015	0.0107
7234.50115	1.38014	0.0107
7233.00104	1.38011	0.01069
7231.50093	1.38009	0.0107
7230.00082	1.38006	0.01073
7228.50071	1.38005	0.01075
7227.00059	1.38005	0.01077
7225.50048	1.38004	0.01079
7224.00037	1.38003	0.01079
7222.50026	1.38001	0.01081
7221.00015	1.38	0.01082
7219.50004	1.38	0.01085
7217.99992	1.38	0.01088
7216.49981	1.38002	0.01089
7214.9997	1.38004	0.01089
7213.49959	1.38006	0.01089
7211.99948	1.38008	0.01087
7210.49936	1.38009	0.01086
7208.99925	1.38009	0.01085
7207.49914	1.38008	0.01084
7205.99903	1.38005	0.01083
7204.49892	1.38001	0.01083
7202.99881	1.37996	0.01084
7201.49869	1.37991	0.01086
7199.99858	1.37989	0.01089
7198.49847	1.37988	0.01093
7196.99836	1.37989	0.01097
7195.49825	1.37992	0.011
7193.99813	1.37997	0.01101
7192.49802	1.38002	0.01102
7190.99791	1.38007	0.01102
7189.4978	1.3801	0.01101
7187.99769	1.38012	0.01099
7186.49758	1.38013	0.01097
7184.99746	1.38012	0.01094
7183.49735	1.38011	0.01092
7181.99724	1.38008	0.0109
7180.49713	1.38008	0.0109
7178.99702	1.38007	0.01088
7177.4969	1.38008	0.01088
7175.99679	1.38009	0.01086
7174.49668	1.3801	0.01084
7172.99657	1.38011	0.01081
7171.49646	1.38012	0.01077
7169.99635	1.38011	0.01073
7168.49623	1.38007	0.01069
7166.99612	1.38	0.01067
7165.49601	1.37993	0.01065
7163.9959	1.37985	0.01065
7162.49579	1.37976	0.01067
7160.99567	1.37966	0.01072
7159.49556	1.37959	0.01078
7157.99545	1.37955	0.01086
7156.49534	1.37955	0.01092
7154.99523	1.37958	0.01099
7153.49512	1.37963	0.01106
7151.995	1.3797	0.0111
7150.49489	1.37979	0.01112
7148.99478	1.37987	0.01112
7147.49467	1.37994	0.01111
7145.99456	1.37997	0.01108
7144.49444	1.37998	0.01104
7142.99433	1.37998	0.011
7141.49422	1.37995	0.01098
7139.99411	1.37991	0.01096
7138.494	1.37987	0.01095
7136.99389	1.37984	0.01095
7135.49377	1.37982	0.01097
7133.99366	1.37982	0.01099
7132.49355	1.37983	0.011
7130.99344	1.37986	0.01101
7129.49333	1.37988	0.01101
7127.99321	1.37991	0.011
7126.4931	1.37992	0.011
7124.99299	1.37993	0.01098
7123.49288	1.37993	0.01096
7121.99277	1.37991	0.01095
7120.49266	1.37988	0.01094
7118.99254	1.37985	0.01093
7117.49243	1.37981	0.01094
7115.99232	1.37979	0.01096
7114.49221	1.37977	0.01099
7112.9921	1.37977	0.01101
7111.49198	1.3798	0.01104
7109.99187	1.37983	0.01106
7108.49176	1.37986	0.01106
7106.99165	1.3799	0.01106
7105.49154	1.37994	0.01106
7103.99143	1.37997	0.01104
7102.49131	1.38001	0.01102
7100.9912	1.38003	0.01099
7099.49109	1.38003	0.01096
7097.99098	1.38003	0.01092
7096.49087	1.38002	0.01089
7094.99076	1.38001	0.01086
7093.49064	1.37999	0.01084
7091.99053	1.37998	0.01082
7090.49042	1.37995	0.01079
7088.99031	1.37993	0.01077
7087.4902	1.3799	0.01076
7085.99008	1.37987	0.01075
7084.48997	1.37983	0.01075
7082.98986	1.3798	0.01075
7081.48975	1.37977	0.01077
7079.98964	1.37975	0.01078
7078.48953	1.37974	0.01079
7076.98941	1.37974	0.0108
7075.4893	1.37975	0.0108
7073.98919	1.37976	0.01081
7072.48908	1.37976	0.01081
7070.98897	1.37977	0.0108
7069.48885	1.37976	0.0108
7067.98874	1.37976	0.01078
7066.48863	1.37973	0.01077
7064.98852	1.37971	0.01077
7063.48841	1.37968	0.01077
7061.9883	1.37964	0.01077
7060.48818	1.37962	0.01079
7058.98807	1.37961	0.01079
7057.48796	1.3796	0.01081
7055.98785	1.37958	0.01083
7054.48774	1.37957	0.01084
7052.98762	1.37956	0.01086
7051.48751	1.37956	0.01088
7049.9874	1.37956	0.01091
7048.48729	1.37955	0.01092
7046.98718	1.37956	0.01094
7045.48707	1.37956	0.01096
7043.98695	1.37958	0.01098
7042.48684	1.3796	0.011
7040.98673	1.37963	0.01101
7039.48662	1.37967	0.01101
7037.98651	1.3797	0.011
7036.48639	1.37973	0.01098
7034.98628	1.37974	0.01096
7033.48617	1.37975	0.01093
7031.98606	1.37975	0.01092
7030.48595	1.37973	0.0109
7028.98584	1.37971	0.01088
7027.48572	1.37968	0.01088
7025.98561	1.37965	0.01087
7024.4855	1.37963	0.01088
7022.98539	1.37961	0.01089
7021.48528	1.3796	0.0109
7019.98516	1.37961	0.01092
7018.48505	1.37961	0.01093
7016.98494	1.37961	0.01094
7015.48483	1.37961	0.01096
7013.98472	1.37961	0.01097
7012.48461	1.37962	0.01098
7010.98449	1.37962	0.01099
7009.48438	1.37963	0.01102
7007.98427	1.37963	0.01103
7006.48416	1.37966	0.01105
7004.98405	1.37969	0.01105
7003.48393	1.37974	0.01105
7001.98382	1.37978	0.01105
7000.48371	1.37982	0.01103
6998.9836	1.37986	0.01101
6997.48349	1.3799	0.01097
6995.98338	1.37993	0.01093
6994.48326	1.37994	0.01088
6992.98315	1.37992	0.01083
6991.48304	1.37989	0.0108
6989.98293	1.37985	0.01078
6988.48282	1.37981	0.01076
6986.9827	1.37977	0.01075
6985.48259	1.37974	0.01076
6983.98248	1.37971	0.01076
6982.48237	1.37969	0.01078
6980.98226	1.37969	0.01079
6979.48215	1.37971	0.01081
6977.98203	1.37973	0.01081
6976.48192	1.37976	0.01081
6974.98181	1.37978	0.0108
6973.4817	1.37978	0.0108
6971.98159	1.37979	0.01078
6970.48147	1.37979	0.01077
6968.98136	1.37978	0.01075
6967.48125	1.37978	0.01075
6965.98114	1.37977	0.01074
6964.48103	1.37977	0.01073
6962.98092	1.37978	0.01072
6961.4808	1.37978	0.0107
6959.98069	1.3798	0.01069
6958.48058	1.3798	0.01067
6956.98047	1.3798	0.01065
6955.48036	1.37979	0.01063
6953.98024	1.37978	0.01061
6952.48013	1.37976	0.01059
6950.98002	1.37973	0.01058
6949.47991	1.3797	0.01057
6947.9798	1.37966	0.01056
6946.47969	1.37963	0.01058
6944.97957	1.3796	0.0106
6943.47946	1.37958	0.01062
6941.97935	1.37959	0.01065
6940.47924	1.3796	0.01067
6938.97913	1.37962	0.01069
6937.47901	1.37964	0.0107
6935.9789	1.37968	0.01071
6934.47879	1.37974	0.0107
6932.97868	1.37979	0.01069
6931.47857	1.37983	0.01065
6929.97846	1.37985	0.0106
6928.47834	1.37985	0.01056
6926.97823	1.37985	0.01052
6925.47812	1.37983	0.01049
6923.97801	1.3798	0.01046
6922.4779	1.37976	0.01044
6920.97778	1.37972	0.01042
6919.47767	1.37969	0.01042
6917.97756	1.37967	0.01042
6916.47745	1.37966	0.01042
6914.97734	1.37967	0.01042
6913.47723	1.37967	0.01042
6911.97711	1.3797	0.01041
6910.477	1.37971	0.0104
6908.97689	1.37973	0.01038
6907.47678	1.37973	0.01035
6905.97667	1.37973	0.01032
6904.47656	1.37971	0.01029
6902.97644	1.3797	0.01026
6901.47633	1.37967	0.01023
6899.97622	1.37965	0.01021
6898.47611	1.37962	0.01019
6896.976	1.37959	0.01016
6895.47588	1.37956	0.01015
6893.97577	1.37953	0.01015
6892.47566	1.37951	0.01014
6890.97555	1.37949	0.01013
6889.47544	1.37947	0.01013
6887.97533	1.37944	0.01012
6886.47521	1.37941	0.01012
6884.9751	1.37939	0.01012
6883.47499	1.37937	0.01012
6881.97488	1.37934	0.01012
6880.47477	1.37933	0.01012
6878.97465	1.3793	0.01012
6877.47454	1.37928	0.01012
6875.97443	1.37927	0.01012
6874.47432	1.37924	0.01013
6872.97421	1.37921	0.01014
6871.4741	1.37919	0.01015
6869.97398	1.37917	0.01016
6868.47387	1.37914	0.01018
6866.97376	1.37911	0.0102
6865.47365	1.3791	0.01022
6863.97354	1.37909	0.01025
6862.47342	1.3791	0.01027
6860.97331	1.37911	0.01029
6859.4732	1.37912	0.0103
6857.97309	1.37914	0.01032
6856.47298	1.37915	0.01033
6854.97287	1.37918	0.01033
6853.47275	1.37921	0.01032
6851.97264	1.37921	0.01031
6850.47253	1.37921	0.01029
6848.97242	1.3792	0.01029
6847.47231	1.37919	0.01029
6845.97219	1.37919	0.01028
6844.47208	1.37918	0.01028
6842.97197	1.37916	0.01027
6841.47186	1.37916	0.01027
6839.97175	1.37915	0.01027
6838.47164	1.37915	0.01028
6836.97152	1.37916	0.01029
6835.47141	1.37916	0.01029
6833.9713	1.37918	0.01028
6832.47119	1.37918	0.01027
6830.97108	1.37919	0.01026
6829.47096	1.37919	0.01026
6827.97085	1.37918	0.01025
6826.47074	1.37918	0.01023
6824.97063	1.37917	0.01023
6823.47052	1.37917	0.01021
6821.97041	1.37916	0.01021
6820.47029	1.37915	0.0102
6818.97018	1.37915	0.01019
6817.47007	1.37915	0.01018
6815.96996	1.37915	0.01017
6814.46985	1.37914	0.01015
6812.96973	1.37911	0.01014
6811.46962	1.37909	0.01014
6809.96951	1.37907	0.01014
6808.4694	1.37905	0.01014
6806.96929	1.37902	0.01015
6805.46918	1.379	0.01015
6803.96906	1.37898	0.01017
6802.46895	1.37898	0.01019
6800.96884	1.37898	0.01021
6799.46873	1.37899	0.01023
6797.96862	1.37899	0.01024
6796.4685	1.37901	0.01026
6794.96839	1.37902	0.01026
6793.46828	1.37906	0.01027
6791.96817	1.37909	0.01027
6790.46806	1.37911	0.01026
6788.96795	1.37913	0.01025
6787.46783	1.37916	0.01023
6785.96772	1.37918	0.0102
6784.46761	1.37919	0.01018
6782.9675	1.3792	0.01015
6781.46739	1.3792	0.01011
6779.96727	1.37919	0.01008
6778.46716	1.37918	0.01005
6776.96705	1.37916	0.01003
6775.46694	1.37914	0.01
6773.96683	1.37911	0.00999
6772.46672	1.37909	0.00998
6770.9666	1.37907	0.00997
6769.46649	1.37905	0.00996
6767.96638	1.37904	0.00995
6766.46627	1.37902	0.00995
6764.96616	1.37902	0.00995
6763.46604	1.37901	0.00995
6761.96593	1.37901	0.00994
6760.46582	1.379	0.00993
6758.96571	1.37899	0.00992
6757.4656	1.37898	0.00992
6755.96549	1.37897	0.00991
6754.46537	1.37896	0.00991
6752.96526	1.37897	0.0099
6751.46515	1.37897	0.00989
6749.96504	1.37897	0.00987
6748.46493	1.37897	0.00985
6746.96481	1.37897	0.00983
6745.4647	1.37896	0.00981
6743.96459	1.37895	0.0098
6742.46448	1.37894	0.00977
6740.96437	1.37891	0.00973
6739.46426	1.37888	0.00971
6737.96414	1.37883	0.0097
6736.46403	1.37879	0.00969
6734.96392	1.37876	0.00969
6733.46381	1.37872	0.00969
6731.9637	1.37868	0.0097
6730.46358	1.37865	0.0097
6728.96347	1.37861	0.00972
6727.46336	1.3786	0.00974
6725.96325	1.37859	0.00976
6724.46314	1.37859	0.00977
6722.96303	1.37858	0.00979
6721.46291	1.37857	0.00979
6719.9628	1.37856	0.00981
6718.46269	1.37856	0.00982
6716.96258	1.37856	0.00982
6715.46247	1.37856	0.00983
6713.96236	1.37855	0.00983
6712.46224	1.37854	0.00984
6710.96213	1.37853	0.00984
6709.46202	1.37852	0.00986
6707.96191	1.37852	0.00986
6706.4618	1.37851	0.00988
6704.96168	1.3785	0.00989
6703.46157	1.3785	0.0099
6701.96146	1.37851	0.00992
6700.46135	1.37852	0.00993
6698.96124	1.37856	0.00993
6697.46113	1.37858	0.00993
6695.96101	1.37861	0.00991
6694.4609	1.37864	0.00989
6692.96079	1.37865	0.00987
6691.46068	1.37865	0.00984
6689.96057	1.37864	0.00981
6688.46045	1.37862	0.00978
6686.96034	1.37858	0.00976
6685.46023	1.37855	0.00974
6683.96012	1.37852	0.00974
6682.46001	1.37848	0.00974
6680.9599	1.37844	0.00974
6679.45978	1.37842	0.00976
6677.95967	1.37841	0.00979
6676.45956	1.37841	0.0098
6674.95945	1.37841	0.00981
6673.45934	1.37841	0.00982
6671.95922	1.37841	0.00984
6670.45911	1.37842	0.00985
6668.959	1.37844	0.00986
6667.45889	1.37846	0.00986
6665.95878	1.37847	0.00985
6664.45867	1.37847	0.00984
6662.95855	1.37847	0.00984
6661.45844	1.37847	0.00984
6659.95833	1.37848	0.00984
6658.45822	1.3785	0.00983
6656.95811	1.3785	0.00982
6655.45799	1.37851	0.0098
6653.95788	1.37852	0.00978
6652.45777	1.37853	0.00977
6650.95766	1.37855	0.00975
6649.45755	1.37855	0.00973
6647.95744	1.37855	0.0097
6646.45732	1.37854	0.00966
6644.95721	1.37852	0.00963
6643.4571	1.3785	0.0096
6641.95699	1.37847	0.00958
6640.45688	1.37842	0.00956
6638.95676	1.37838	0.00956
6637.45665	1.37834	0.00956
6635.95654	1.3783	0.00957
6634.45643	1.37826	0.00959
6632.95632	1.37824	0.00961
6631.45621	1.37822	0.00963
6629.95609	1.37822	0.00966
6628.45598	1.37824	0.00968
6626.95587	1.37825	0.0097
6625.45576	1.37828	0.0097
6623.95565	1.37831	0.0097
6622.45553	1.37833	0.0097
6620.95542	1.37835	0.00968
6619.45531	1.37835	0.00967
6617.9552	1.37835	0.00966
6616.45509	1.37835	0.00965
6614.95498	1.37834	0.00963
6613.45486	1.37833	0.00962
6611.95475	1.37832	0.00961
6610.45464	1.37831	0.00961
6608.95453	1.37831	0.0096
6607.45442	1.37833	0.0096
6605.9543	1.37833	0.0096
6604.45419	1.37834	0.00958
6602.95408	1.37835	0.00957
6601.45397	1.37837	0.00955
6599.95386	1.37839	0.00953
6598.45375	1.3784	0.0095
6596.95363	1.3784	0.00946
6595.45352	1.37839	0.00943
6593.95341	1.37839	0.0094
6592.4533	1.37837	0.00935
6590.95319	1.37834	0.00931
6589.45307	1.37831	0.00928
6587.95296	1.37825	0.00926
6586.45285	1.3782	0.00924
6584.95274	1.37815	0.00924
6583.45263	1.3781	0.00925
6581.95252	1.37807	0.00925
6580.4524	1.37803	0.00927
6578.95229	1.37801	0.00928
6577.45218	1.37801	0.0093
6575.95207	1.37801	0.00931
6574.45196	1.37803	0.00932
6572.95184	1.37804	0.00931
6571.45173	1.37804	0.00931
6569.95162	1.37803	0.0093
6568.45151	1.37802	0.00929
6566.9514	1.378	0.00928
6565.45129	1.37798	0.00927
6563.95117	1.37796	0.00926
6562.45106	1.37793	0.00926
6560.95095	1.37791	0.00926
6559.45084	1.37789	0.00926
6557.95073	1.37788	0.00926
6556.45061	1.37787	0.00927
6554.9505	1.37785	0.00928
6553.45039	1.37784	0.00929
6551.95028	1.37783	0.0093
6550.45017	1.37784	0.00931
6548.95006	1.37784	0.00931
6547.44994	1.37785	0.00931
6545.94983	1.37785	0.0093
6544.44972	1.37787	0.00929
6542.94961	1.37788	0.00927
6541.4495	1.37788	0.00926
6539.94938	1.37786	0.00923
6538.44927	1.37784	0.00922
6536.94916	1.37781	0.00921
6535.44905	1.37779	0.0092
6533.94894	1.37776	0.0092
6532.44883	1.37773	0.0092
6530.94871	1.3777	0.0092
6529.4486	1.37768	0.00922
6527.94849	1.37768	0.00922
6526.44838	1.37768	0.00924
6524.94827	1.37767	0.00924
6523.44816	1.37767	0.00926
6521.94804	1.37766	0.00927
6520.44793	1.37767	0.00928
6518.94782	1.3777	0.00928
6517.44771	1.37772	0.00926
6515.9476	1.37773	0.00924
6514.44748	1.37774	0.00923
6512.94737	1.37775	0.00921
6511.44726	1.37775	0.00919
6509.94715	1.37774	0.00916
6508.44704	1.37772	0.00914
6506.94693	1.37768	0.00912
6505.44681	1.37763	0.0091
6503.9467	1.3776	0.00911
6502.44659	1.37757	0.00912
6500.94648	1.37756	0.00912
6499.44637	1.37754	0.00913
6497.94625	1.37753	0.00914
6496.44614	1.37754	0.00915
6494.94603	1.37754	0.00916
6493.44592	1.37757	0.00916
6491.94581	1.37759	0.00916
6490.4457	1.37759	0.00914
6488.94558	1.3776	0.00912
6487.44547	1.3776	0.0091
6485.94536	1.37759	0.00907
6484.44525	1.37758	0.00905
6482.94514	1.37755	0.00902
6481.44502	1.37753	0.00901
6479.94491	1.37749	0.00899
6478.4448	1.37745	0.00898
6476.94469	1.37742	0.00898
6475.44458	1.37738	0.00899
6473.94447	1.37735	0.009
6472.44435	1.37733	0.00903
6470.94424	1.37732	0.00904
6469.44413	1.37732	0.00906
6467.94402	1.37733	0.00907
6466.44391	1.37734	0.00907
6464.94379	1.37737	0.00907
6463.44368	1.37738	0.00907
6461.94357	1.3774	0.00905
6460.44346	1.37741	0.00904
6458.94335	1.37741	0.00901
6457.44324	1.37741	0.00899
6455.94312	1.37739	0.00897
6454.44301	1.37737	0.00894
6452.9429	1.37735	0.00893
6451.44279	1.37732	0.00891
6449.94268	1.3773	0.0089
6448.44256	1.37729	0.00888
6446.94245	1.37728	0.00887
6445.44234	1.37725	0.00886
6443.94223	1.37723	0.00885
6442.44212	1.3772	0.00883
6440.94201	1.37717	0.00883
6439.44189	1.37713	0.00883
6437.94178	1.37709	0.00883
6436.44167	1.37705	0.00884
6434.94156	1.37702	0.00885
6433.44145	1.377	0.00886
6431.94133	1.37698	0.00888
6430.44122	1.37697	0.00889
6428.94111	1.37695	0.00892
6427.441	1.37695	0.00893
6425.94089	1.37695	0.00895
6424.44078	1.37695	0.00897
6422.94066	1.37695	0.00897
6421.44055	1.37695	0.00898
6419.94044	1.37695	0.00898
6418.44033	1.37696	0.00898
6416.94022	1.37696	0.00898
6415.4401	1.37697	0.00898
6413.93999	1.37696	0.00898
6412.43988	1.37695	0.00899
6410.93977	1.37693	0.00899
6409.43966	1.37693	0.009
6407.93955	1.37693	0.00901
6406.43943	1.37693	0.00901
6404.93932	1.37694	0.00902
6403.43921	1.37696	0.00902
6401.9391	1.37699	0.00901
6400.43899	1.37703	0.009
6398.93887	1.37706	0.00897
6397.43876	1.37708	0.00894
6395.93865	1.37708	0.0089
6394.43854	1.37707	0.00886
6392.93843	1.37706	0.00883
6391.43832	1.37702	0.00879
6389.9382	1.37699	0.00875
6388.43809	1.37694	0.00872
6386.93798	1.3769	0.00869
6385.43787	1.37686	0.00868
6383.93776	1.37681	0.00868
6382.43764	1.37675	0.00868
6380.93753	1.3767	0.0087
6379.43742	1.37665	0.00872
6377.93731	1.37661	0.00875
6376.4372	1.37658	0.00878
6374.93709	1.37656	0.00881
6373.43697	1.37654	0.00885
6371.93686	1.37655	0.0089
6370.43675	1.37658	0.00894
6368.93664	1.37661	0.00896
6367.43653	1.37665	0.00897
6365.93641	1.3767	0.00897
6364.4363	1.37673	0.00896
6362.93619	1.37676	0.00896
6361.43608	1.37679	0.00894
6359.93597	1.37682	0.00891
6358.43586	1.37682	0.00888
6356.93574	1.37682	0.00884
6355.43563	1.37681	0.00881
6353.93552	1.3768	0.00876
6352.43541	1.37679	0.00875
6350.9353	1.37676	0.00872
6349.43518	1.37675	0.0087
6347.93507	1.37672	0.00867
6346.43496	1.3767	0.00864
6344.93485	1.37667	0.00863
6343.43474	1.37663	0.00861
6341.93463	1.3766	0.00861
6340.43451	1.37656	0.0086
6338.9344	1.37652	0.00861
6337.43429	1.37649	0.00861
6335.93418	1.37646	0.00861
6334.43407	1.37644	0.00862
6332.93395	1.37641	0.00862
6331.43384	1.3764	0.00864
6329.93373	1.37638	0.00866
6328.43362	1.37637	0.00867
6326.93351	1.37636	0.00869
6325.4334	1.37636	0.00869
6323.93328	1.37636	0.0087
6322.43317	1.37635	0.0087
6320.93306	1.37634	0.00871
6319.43295	1.37634	0.00873
6317.93284	1.37634	0.00873
6316.43273	1.37635	0.00873
6314.93261	1.37635	0.00873
6313.4325	1.37634	0.00872
6311.93239	1.37634	0.00873
6310.43228	1.37633	0.00873
6308.93217	1.37634	0.00873
6307.43205	1.37635	0.00873
6305.93194	1.37635	0.00872
6304.43183	1.37635	0.00871
6302.93172	1.37635	0.00869
6301.43161	1.37635	0.00869
6299.9315	1.37635	0.00867
6298.43138	1.37635	0.00866
6296.93127	1.37634	0.00864
6295.43116	1.37633	0.00863
6293.93105	1.37631	0.00861
6292.43094	1.37629	0.00861
6290.93082	1.37626	0.0086
6289.43071	1.37624	0.0086
6287.9306	1.37623	0.0086
6286.43049	1.3762	0.0086
6284.93038	1.37618	0.00861
6283.43027	1.37617	0.00862
6281.93015	1.37616	0.00863
6280.43004	1.37617	0.00864
6278.92993	1.37617	0.00864
6277.42982	1.37618	0.00864
6275.92971	1.37619	0.00864
6274.42959	1.3762	0.00864
6272.92948	1.37621	0.00864
6271.42937	1.37622	0.00863
6269.92926	1.37622	0.00861
6268.42915	1.37622	0.0086
6266.92904	1.37622	0.00858
6265.42892	1.37622	0.00857
6263.92881	1.37622	0.00855
6262.4287	1.37622	0.00853
6260.92859	1.37622	0.00851
6259.42848	1.37621	0.00849
6257.92836	1.37621	0.00846
6256.42825	1.37618	0.00843
6254.92814	1.37616	0.00842
6253.42803	1.37614	0.0084
6251.92792	1.37611	0.0084
6250.42781	1.37609	0.00838
6248.92769	1.37606	0.00837
6247.42758	1.37604	0.00836
6245.92747	1.37601	0.00836
6244.42736	1.376	0.00836
6242.92725	1.37599	0.00836
6241.42713	1.37598	0.00836
6239.92702	1.37596	0.00836
6238.42691	1.37596	0.00837
6236.9268	1.37594	0.00837
6235.42669	1.37594	0.00837
6233.92658	1.37594	0.00837
6232.42646	1.37594	0.00836
6230.92635	1.37594	0.00835
6229.42624	1.37594	0.00834
6227.92613	1.37594	0.00833
6226.42602	1.37595	0.00831
6224.9259	1.37595	0.00828
6223.42579	1.37595	0.00826
6221.92568	1.37593	0.00822
6220.42557	1.37591	0.00819
6218.92546	1.37588	0.00816
6217.42535	1.37583	0.00815
6215.92523	1.37579	0.00814
6214.42512	1.37574	0.00813
6212.92501	1.37569	0.00813
6211.4249	1.37564	0.00813
6209.92479	1.37561	0.00815
6208.42467	1.37557	0.00818
6206.92456	1.37556	0.0082
6205.42445	1.37556	0.00823
6203.92434	1.37556	0.00824
6202.42423	1.37558	0.00826
6200.92412	1.37559	0.00826
6199.424	1.37561	0.00826
6197.92389	1.37564	0.00824
6196.42378	1.37564	0.00823
6194.92367	1.37564	0.00821
6193.42356	1.37563	0.00819
6191.92344	1.37561	0.00817
6190.42333	1.37559	0.00816
6188.92322	1.37557	0.00814
6187.42311	1.37555	0.00813
6185.923	1.37552	0.00812
6184.42289	1.3755	0.00811
6182.92277	1.3755	0.0081
6181.42266	1.37549	0.00809
6179.92255	1.37547	0.00808
6178.42244	1.37545	0.00806
6176.92233	1.37541	0.00806
6175.42221	1.37537	0.00806
6173.9221	1.37533	0.00806
6172.42199	1.37529	0.00808
6170.92188	1.37526	0.00809
6169.42177	1.37523	0.00812
6167.92166	1.37523	0.00815
6166.42154	1.37524	0.00817
6164.92143	1.37526	0.00818
6163.42132	1.37531	0.00819
6161.92121	1.37534	0.00817
6160.4211	1.37536	0.00816
6158.92098	1.37538	0.00814
6157.42087	1.37538	0.00811
6155.92076	1.37538	0.00808
6154.42065	1.37536	0.00804
6152.92054	1.37532	0.00801
6151.42043	1.37529	0.00798
6149.92031	1.37524	0.00797
6148.4202	1.3752	0.00795
6146.92009	1.37517	0.00795
6145.41998	1.37513	0.00795
6143.91987	1.3751	0.00796
6142.41975	1.37507	0.00796
6140.91964	1.37505	0.00797
6139.41953	1.37504	0.00798
6137.91942	1.37502	0.00799
6136.41931	1.37501	0.00799
6134.9192	1.37499	0.00801
6133.41908	1.37498	0.00801
6131.91897	1.37497	0.00802
6130.41886	1.37497	0.00803
6128.91875	1.37495	0.00803
6127.41864	1.37493	0.00804
6125.91853	1.37492	0.00805
6124.41841	1.37492	0.00807
6122.9183	1.37492	0.00808
6121.41819	1.37494	0.00808
6119.91808	1.37495	0.00808
6118.41797	1.37497	0.00807
6116.91785	1.37498	0.00807
6115.41774	1.37499	0.00805
6113.91763	1.37501	0.00803
6112.41752	1.37501	0.00802
6110.91741	1.375	0.00798
6109.4173	1.37499	0.00795
6107.91718	1.37496	0.00793
6106.41707	1.37493	0.00792
6104.91696	1.3749	0.0079
6103.41685	1.37488	0.00789
6101.91674	1.37485	0.00789
6100.41662	1.37483	0.00788
6098.91651	1.37481	0.00788
6097.4164	1.37478	0.00789
6095.91629	1.37477	0.0079
6094.41618	1.37475	0.00792
6092.91607	1.37475	0.00792
6091.41595	1.37476	0.00792
6089.91584	1.37477	0.00791
6088.41573	1.37477	0.00791
6086.91562	1.37478	0.0079
6085.41551	1.37478	0.00789
6083.91539	1.37479	0.00787
6082.41528	1.37479	0.00785
6080.91517	1.37477	0.00783
6079.41506	1.37475	0.0078
6077.91495	1.37472	0.0078
6076.41484	1.37469	0.00779
6074.91472	1.37469	0.00778
6073.41461	1.37468	0.00776
6071.9145	1.37468	0.00775
6070.41439	1.37467	0.00773
6068.91428	1.37466	0.00772
6067.41416	1.37465	0.00769
6065.91405	1.37465	0.00767
6064.41394	1.37462	0.00765
6062.91383	1.37458	0.00762
6061.41372	1.37454	0.00761
6059.91361	1.37449	0.00759
6058.41349	1.37445	0.00759
6056.91338	1.37442	0.00759
6055.41327	1.37437	0.00759
6053.91316	1.37433	0.00761
6052.41305	1.3743	0.00762
6050.91293	1.37428	0.00764
6049.41282	1.37426	0.00766
6047.91271	1.37426	0.00767
6046.4126	1.37425	0.00769
6044.91249	1.37425	0.0077
6043.41238	1.37426	0.0077
6041.91226	1.37427	0.0077
6040.41215	1.37428	0.0077
6038.91204	1.37428	0.0077
6037.41193	1.37427	0.00769
6035.91182	1.37425	0.00768
6034.4117	1.37424	0.00768
6032.91159	1.37422	0.00768
6031.41148	1.37421	0.00768
6029.91137	1.37421	0.00767
6028.41126	1.37421	0.00767
6026.91115	1.37423	0.00766
6025.41103	1.37424	0.00764
6023.91092	1.37426	0.00762
6022.41081	1.37427	0.00759
6020.9107	1.37427	0.00756
6019.41059	1.37426	0.00752
6017.91047	1.37421	0.00749
6016.41036	1.37417	0.00745
6014.91025	1.37412	0.00743
6013.41014	1.37405	0.00742
6011.91003	1.374	0.00742
6010.40992	1.37395	0.00743
6008.9098	1.37392	0.00744
6007.40969	1.3739	0.00745
6005.90958	1.37389	0.00747
6004.40947	1.37389	0.00748
6002.90936	1.37389	0.00748
6001.40924	1.37389	0.00749
5999.90913	1.37389	0.00748
5998.40902	1.37388	0.00747
5996.90891	1.37387	0.00746
5995.4088	1.37384	0.00744
5993.90869	1.37382	0.00744
5992.40857	1.37379	0.00743
5990.90846	1.37377	0.00743
5989.40835	1.37373	0.00743
5987.90824	1.3737	0.00743
5986.40813	1.37367	0.00744
5984.90801	1.37365	0.00744
5983.4079	1.37363	0.00746
5981.90779	1.37361	0.00748
5980.40768	1.37361	0.00749
5978.90757	1.37361	0.0075
5977.40746	1.37362	0.00751
5975.90734	1.37362	0.00751
5974.40723	1.37363	0.00751
5972.90712	1.37364	0.00751
5971.40701	1.37364	0.0075
5969.9069	1.37365	0.00748
5968.40678	1.37364	0.00746
5966.90667	1.37362	0.00744
5965.40656	1.3736	0.00743
5963.90645	1.37357	0.00742
5962.40634	1.37355	0.00742
5960.90623	1.37353	0.00741
5959.40611	1.37351	0.0074
5957.906	1.37349	0.0074
5956.40589	1.37347	0.00741
5954.90578	1.37345	0.00742
5953.40567	1.37345	0.00742
5951.90555	1.37345	0.00743
5950.40544	1.37344	0.00743
5948.90533	1.37344	0.00742
5947.40522	1.37343	0.00742
5945.90511	1.37344	0.00742
5944.405	1.37344	0.00742
5942.90488	1.37344	0.00741
5941.40477	1.37345	0.0074
5939.90466	1.37345	0.00739
5938.40455	1.37346	0.00737
5936.90444	1.37347	0.00735
5935.40433	1.37347	0.00731
5933.90421	1.37348	0.00729
5932.4041	1.37348	0.00725
5930.90399	1.37348	0.00721
5929.40388	1.37346	0.00716
5927.90377	1.37343	0.00712
5926.40365	1.37339	0.00708
5924.90354	1.37333	0.00705
5923.40343	1.37327	0.00702
5921.90332	1.37321	0.007
5920.40321	1.37313	0.007
5918.9031	1.37307	0.007
5917.40298	1.37301	0.00701
5915.90287	1.37296	0.00704
5914.40276	1.37292	0.00706
5912.90265	1.3729	0.00709
5911.40254	1.37288	0.00712
5909.90242	1.37287	0.00714
5908.40231	1.37287	0.00718
5906.9022	1.37287	0.00719
5905.40209	1.37289	0.00721
5903.90198	1.3729	0.00721
5902.40187	1.37291	0.00721
5900.90175	1.37292	0.00719
5899.40164	1.37292	0.00719
5897.90153	1.37292	0.00717
5896.40142	1.37291	0.00717
5894.90131	1.3729	0.00715
5893.40119	1.3729	0.00714
5891.90108	1.37288	0.00712
5890.40097	1.37286	0.00711
5888.90086	1.37286	0.00709
5887.40075	1.37284	0.00707
5885.90064	1.37284	0.00706
5884.40052	1.37282	0.00704
5882.90041	1.37281	0.00702
5881.4003	1.37278	0.00699
5879.90019	1.37275	0.00697
5878.40008	1.37272	0.00695
5876.89996	1.37268	0.00694
5875.39985	1.37264	0.00694
5873.89974	1.37261	0.00693
5872.39963	1.37258	0.00693
5870.89952	1.37254	0.00693
5869.39941	1.3725	0.00693
5867.89929	1.37248	0.00694
5866.39918	1.37246	0.00694
5864.89907	1.37243	0.00696
5863.39896	1.37242	0.00697
5861.89885	1.37239	0.00698
5860.39873	1.37237	0.00699
5858.89862	1.37236	0.007
5857.39851	1.37235	0.00701
5855.8984	1.37235	0.00702
5854.39829	1.37236	0.00702
5852.89818	1.37237	0.00701
5851.39806	1.37238	0.007
5849.89795	1.37238	0.00699
5848.39784	1.37237	0.00697
5846.89773	1.37235	0.00695
5845.39762	1.37234	0.00694
5843.8975	1.37232	0.00692
5842.39739	1.37227	0.00691
5840.89728	1.37224	0.00689
5839.39717	1.37222	0.00689
5837.89706	1.3722	0.00689
5836.39695	1.37219	0.00689
5834.89683	1.37217	0.00689
5833.39672	1.37216	0.00689
5831.89661	1.37215	0.00688
5830.3965	1.37214	0.00687
5828.89639	1.37214	0.00686
5827.39627	1.37212	0.00685
5825.89616	1.3721	0.00684
5824.39605	1.37207	0.00682
5822.89594	1.37206	0.00681
5821.39583	1.37203	0.0068
5819.89572	1.372	0.00679
5818.3956	1.37197	0.00679
5816.89549	1.37194	0.00678
5815.39538	1.37191	0.00678
5813.89527	1.37189	0.00679
5812.39516	1.37188	0.00679
5810.89504	1.37186	0.00679
5809.39493	1.37184	0.00678
5807.89482	1.37184	0.00678
5806.39471	1.37182	0.00677
5804.8946	1.37181	0.00676
5803.39449	1.37179	0.00675
5801.89437	1.37177	0.00674
5800.39426	1.37174	0.00673
5798.89415	1.37172	0.00673
5797.39404	1.37169	0.00672
5795.89393	1.37166	0.00671
5794.39381	1.37164	0.00671
5792.8937	1.37161	0.00671
5791.39359	1.37159	0.00671
5789.89348	1.37157	0.00671
5788.39337	1.37154	0.00671
5786.89326	1.37152	0.00671
5785.39314	1.37151	0.00671
5783.89303	1.37149	0.0067
5782.39292	1.37149	0.00669
5780.89281	1.37146	0.00669
5779.3927	1.37144	0.00668
5777.89258	1.37141	0.00668
5776.39247	1.37138	0.00668
5774.89236	1.37134	0.00668
5773.39225	1.3713	0.00669
5771.89214	1.37126	0.00669
5770.39203	1.37122	0.00672
5768.89191	1.3712	0.00674
5767.3918	1.3712	0.00676
5765.89169	1.37121	0.00678
5764.39158	1.37122	0.00679
5762.89147	1.37125	0.00679
5761.39135	1.37126	0.00679
5759.89124	1.37127	0.00677
5758.39113	1.37128	0.00676
5756.89102	1.37128	0.00674
5755.39091	1.37126	0.00671
5753.8908	1.37125	0.00669
5752.39068	1.37122	0.00666
5750.89057	1.3712	0.00664
5749.39046	1.37117	0.00662
5747.89035	1.37115	0.00661
5746.39024	1.37113	0.00659
5744.89013	1.37111	0.00658
5743.39001	1.37109	0.00656
5741.8899	1.37106	0.00654
5740.38979	1.37103	0.00653
5738.88968	1.37098	0.00651
5737.38957	1.37094	0.00651
5735.88945	1.3709	0.0065
5734.38934	1.37085	0.0065
5732.88923	1.37081	0.00651
5731.38912	1.37078	0.00651
5729.88901	1.37074	0.00652
5728.3889	1.37072	0.00653
5726.88878	1.3707	0.00654
5725.38867	1.37068	0.00655
5723.88856	1.37067	0.00655
5722.38845	1.37065	0.00655
5720.88834	1.37062	0.00655
5719.38822	1.3706	0.00655
5717.88811	1.37057	0.00655
5716.388	1.37054	0.00656
5714.88789	1.37051	0.00658
5713.38778	1.37048	0.00658
5711.88767	1.37045	0.0066
5710.38755	1.37043	0.00661
5708.88744	1.37041	0.00663
5707.38733	1.37041	0.00664
5705.88722	1.37041	0.00666
5704.38711	1.37041	0.00667
5702.88699	1.37042	0.00668
5701.38688	1.37043	0.00668
5699.88677	1.37043	0.00666
5698.38666	1.37042	0.00665
5696.88655	1.37041	0.00665
5695.38644	1.37039	0.00664
5693.88632	1.37039	0.00663
5692.38621	1.37036	0.00661
5690.8861	1.37034	0.0066
5689.38599	1.37031	0.00659
5687.88588	1.37029	0.00658
5686.38576	1.37026	0.00658
5684.88565	1.37024	0.00658
5683.38554	1.37022	0.00658
5681.88543	1.37019	0.00658
5680.38532	1.37017	0.00658
5678.88521	1.37015	0.00658
5677.38509	1.37013	0.00659
5675.88498	1.37011	0.0066
5674.38487	1.3701	0.00661
5672.88476	1.37009	0.00661
5671.38465	1.37009	0.00661
5669.88453	1.37008	0.00661
5668.38442	1.37008	0.0066
5666.88431	1.37008	0.0066
5665.3842	1.37007	0.00658
5663.88409	1.37007	0.00657
5662.38398	1.37005	0.00655
5660.88386	1.37002	0.00653
5659.38375	1.37	0.00652
5657.88364	1.36997	0.00651
5656.38353	1.36994	0.00651
5654.88342	1.3699	0.00651
5653.3833	1.36987	0.00651
5651.88319	1.36984	0.00651
5650.38308	1.36983	0.00651
5648.88297	1.36981	0.00652
5647.38286	1.3698	0.00652
5645.88275	1.36979	0.00652
5644.38263	1.36978	0.00652
5642.88252	1.36977	0.00651
5641.38241	1.36976	0.0065
5639.8823	1.36975	0.00649
5638.38219	1.36973	0.00648
5636.88207	1.3697	0.00647
5635.38196	1.36967	0.00646
5633.88185	1.36964	0.00646
5632.38174	1.36961	0.00646
5630.88163	1.36959	0.00646
5629.38152	1.36956	0.00646
5627.8814	1.36953	0.00646
5626.38129	1.36952	0.00647
5624.88118	1.3695	0.00647
5623.38107	1.36949	0.00648
5621.88096	1.36947	0.00648
5620.38084	1.36947	0.00648
5618.88073	1.36945	0.00647
5617.38062	1.36943	0.00647
5615.88051	1.36942	0.00647
5614.3804	1.36939	0.00647
5612.88029	1.36938	0.00647
5611.38017	1.36936	0.00647
5609.88006	1.36935	0.00647
5608.37995	1.36933	0.00646
5606.87984	1.36931	0.00646
5605.37973	1.3693	0.00646
5603.87961	1.36929	0.00646
5602.3795	1.36929	0.00645
5600.87939	1.36929	0.00644
5599.37928	1.36928	0.00642
5597.87917	1.36927	0.0064
5596.37906	1.36927	0.00638
5594.87894	1.36925	0.00635
5593.37883	1.36923	0.00632
5591.87872	1.36919	0.0063
5590.37861	1.36914	0.00627
5588.8785	1.36909	0.00625
5587.37838	1.36902	0.00624
5585.87827	1.36896	0.00624
5584.37816	1.36889	0.00625
5582.87805	1.36882	0.00627
5581.37794	1.36877	0.0063
5579.87783	1.36873	0.00633
5578.37771	1.3687	0.00637
5576.8776	1.36867	0.00641
5575.37749	1.36866	0.00646
5573.87738	1.36866	0.0065
5572.37727	1.36867	0.00653
5570.87715	1.36869	0.00656
5569.37704	1.3687	0.00657
5567.87693	1.36872	0.00659
5566.37682	1.36875	0.00659
5564.87671	1.36878	0.00659
5563.3766	1.36881	0.00657
5561.87648	1.36882	0.00656
5560.37637	1.36883	0.00653
5558.87626	1.36884	0.0065
5557.37615	1.36884	0.00647
5555.87604	1.36882	0.00644
5554.37592	1.36879	0.00641
5552.87581	1.36875	0.00638
5551.3757	1.36871	0.00637
5549.87559	1.36868	0.00636
5548.37548	1.36865	0.00636
5546.87537	1.36861	0.00635
5545.37525	1.36859	0.00634
5543.87514	1.36857	0.00634
5542.37503	1.36856	0.00635
5540.87492	1.36855	0.00634
5539.37481	1.36854	0.00633
5537.8747	1.36853	0.00632
5536.37458	1.3685	0.00631
5534.87447	1.36847	0.0063
5533.37436	1.36843	0.0063
5531.87425	1.36841	0.0063
5530.37414	1.36838	0.0063
5528.87402	1.36836	0.0063
5527.37391	1.36833	0.00629
5525.8738	1.36831	0.0063
5524.37369	1.36829	0.0063
5522.87358	1.36827	0.00631
5521.37347	1.36826	0.00632
5519.87335	1.36824	0.00632
5518.37324	1.36824	0.00632
5516.87313	1.36822	0.00632
5515.37302	1.36821	0.00632
5513.87291	1.36819	0.00632
5512.37279	1.36818	0.00632
5510.87268	1.36818	0.00632
5509.37257	1.36817	0.00632
5507.87246	1.36816	0.00632
5506.37235	1.36815	0.00631
5504.87224	1.36815	0.0063
5503.37212	1.36816	0.00628
5501.87201	1.36817	0.00627
5500.3719	1.36816	0.00624
5498.87179	1.36815	0.00621
5497.37168	1.36814	0.00619
5495.87156	1.36811	0.00616
5494.37145	1.36806	0.00613
5492.87134	1.368	0.00611
5491.37123	1.36793	0.00611
5489.87112	1.36786	0.00613
5488.37101	1.36782	0.00614
5486.87089	1.36779	0.00617
5485.37078	1.36777	0.00619
5483.87067	1.36777	0.00621
5482.37056	1.36778	0.00624
5480.87045	1.36781	0.00625
5479.37033	1.36785	0.00625
5477.87022	1.36788	0.00623
5476.37011	1.36789	0.00621
5474.87	1.36789	0.00618
5473.36989	1.36788	0.00615
5471.86978	1.36786	0.00612
5470.36966	1.36785	0.00609
5468.86955	1.36782	0.00606
5467.36944	1.36778	0.00603
5465.86933	1.36774	0.00601
5464.36922	1.36771	0.006
5462.8691	1.36768	0.00599
5461.36899	1.36766	0.00599
5459.86888	1.36764	0.00598
5458.36877	1.36762	0.00596
5456.86866	1.36762	0.00595
5455.36855	1.36761	0.00593
5453.86843	1.3676	0.00591
5452.36832	1.3676	0.00587
5450.86821	1.36758	0.00584
5449.3681	1.36754	0.00581
5447.86799	1.3675	0.00578
5446.36787	1.36744	0.00575
5444.86776	1.36738	0.00573
5443.36765	1.36731	0.00573
5441.86754	1.36726	0.00572
5440.36743	1.36721	0.00572
5438.86732	1.36717	0.00572
5437.3672	1.36713	0.00572
5435.86709	1.3671	0.00573
5434.36698	1.36706	0.00574
5432.86687	1.36703	0.00576
5431.36676	1.36698	0.00578
5429.86664	1.36694	0.0058
5428.36653	1.36689	0.00583
5426.86642	1.36688	0.00585
5425.36631	1.36688	0.00588
5423.8662	1.36691	0.00589
5422.36609	1.36694	0.00589
5420.86597	1.36698	0.00588
5419.36586	1.36701	0.00585
5417.86575	1.36704	0.00581
5416.36564	1.36704	0.00576
5414.86553	1.36699	0.00571
5413.36541	1.36692	0.00567
5411.8653	1.36681	0.00565
5410.36519	1.36672	0.00566
5408.86508	1.36664	0.00567
5407.36497	1.3666	0.00569
5405.86486	1.36656	0.00571
5404.36474	1.36656	0.00573
5402.86463	1.36657	0.00576
5401.36452	1.36659	0.00578
5399.86441	1.36663	0.00579
5398.3643	1.36666	0.00577
5396.86418	1.36666	0.00574
5395.36407	1.36664	0.0057
5393.86396	1.3666	0.00567
5392.36385	1.36655	0.00566
5390.86374	1.3665	0.00565
5389.36363	1.36648	0.00565
5387.86351	1.36645	0.00563
5386.3634	1.36644	0.00561
5384.86329	1.3664	0.0056
5383.36318	1.36638	0.0056
5381.86307	1.36637	0.0056
5380.36295	1.36637	0.0056
5378.86284	1.36635	0.00558
5377.36273	1.36632	0.00555
5375.86262	1.36628	0.00553
5374.36251	1.36623	0.00552
5372.8624	1.36619	0.00552
5371.36228	1.36616	0.00553
5369.86217	1.36614	0.00553
5368.36206	1.36611	0.00552
5366.86195	1.36609	0.00552
5365.36184	1.36609	0.00551
5363.86172	1.36608	0.00549
5362.36161	1.36607	0.00549
5360.8615	1.36606	0.00547
5359.36139	1.36604	0.00547
5357.86128	1.36602	0.00544
5356.36117	1.36601	0.00541
5354.86105	1.36598	0.00538
5353.36094	1.36595	0.00536
5351.86083	1.36591	0.00534
5350.36072	1.36589	0.00532
5348.86061	1.36588	0.00529
5347.3605	1.36586	0.00526
5345.86038	1.36582	0.00521
5344.36027	1.36575	0.00518
5342.86016	1.36568	0.00517
5341.36005	1.36563	0.00516
5339.85994	1.36558	0.00515
5338.35982	1.36552	0.00513
5336.85971	1.36546	0.00512
5335.3596	1.36539	0.00512
5333.85949	1.36536	0.00512
5332.35938	1.36532	0.00513
5330.85927	1.36529	0.00513
5329.35915	1.36525	0.00513
5327.85904	1.36519	0.00512
5326.35893	1.36513	0.00512
5324.85882	1.36508	0.00514
5323.35871	1.36502	0.00516
5321.85859	1.36498	0.00518
5320.35848	1.36494	0.0052
5318.85837	1.36493	0.0052
5317.35826	1.36492	0.00521
5315.85815	1.36491	0.00522
5314.35804	1.3649	0.00522
5312.85792	1.36489	0.00522
5311.35781	1.36487	0.00521
5309.8577	1.36484	0.00519
5308.35759	1.36479	0.00518
5306.85748	1.36473	0.00518
5305.35736	1.36468	0.00518
5303.85725	1.36464	0.00518
5302.35714	1.36462	0.00518
5300.85703	1.36459	0.00518
5299.35692	1.36457	0.00518
5297.85681	1.36454	0.00518
5296.35669	1.36453	0.00517
5294.85658	1.36451	0.00516
5293.35647	1.36447	0.00514
5291.85636	1.36441	0.00513
5290.35625	1.36434	0.00513
5288.85613	1.36427	0.00514
5287.35602	1.36421	0.00516
5285.85591	1.36416	0.00518
5284.3558	1.36412	0.00519
5282.85569	1.36408	0.00521
5281.35558	1.36406	0.00523
5279.85546	1.36406	0.00526
5278.35535	1.36406	0.00527
5276.85524	1.36406	0.00528
5275.35513	1.36406	0.00527
5273.85502	1.36405	0.00525
5272.3549	1.36403	0.00523
5270.85479	1.364	0.00521
5269.35468	1.36395	0.00519
5267.85457	1.3639	0.00517
5266.35446	1.36385	0.00515
5264.85435	1.36378	0.00514
5263.35423	1.3637	0.00514
5261.85412	1.36362	0.00515
5260.35401	1.36356	0.00517
5258.8539	1.36351	0.00519
5257.35379	1.36347	0.0052
5255.85367	1.36342	0.00522
5254.35356	1.36336	0.00525
5252.85345	1.36331	0.00528
5251.35334	1.36326	0.00533
5249.85323	1.36322	0.00537
5248.35312	1.36317	0.00541
5246.853	1.36311	0.00546
5245.35289	1.36307	0.00552
5243.85278	1.36305	0.00558
5242.35267	1.36307	0.00564
5240.85256	1.36309	0.00568
5239.35244	1.36312	0.00571
5237.85233	1.36316	0.00574
5236.35222	1.3632	0.00575
5234.85211	1.36324	0.00576
5233.352	1.36326	0.00575
5231.85189	1.36327	0.00573
5230.35177	1.36325	0.00571
5228.85166	1.36323	0.00569
5227.35155	1.36321	0.00568
5225.85144	1.36318	0.00566
5224.35133	1.36313	0.00567
5222.85121	1.3631	0.00568
5221.3511	1.36309	0.00568
5219.85099	1.36308	0.00569
5218.35088	1.36308	0.00568
5216.85077	1.36308	0.00568
5215.35066	1.36307	0.00568
5213.85054	1.36306	0.00569
5212.35043	1.36306	0.00568
5210.85032	1.36306	0.00567
5209.35021	1.36303	0.00565
5207.8501	1.363	0.00564
5206.34998	1.36296	0.00563
5204.84987	1.36293	0.00563
5203.34976	1.36291	0.00565
5201.84965	1.3629	0.00565
5200.34954	1.3629	0.00565
5198.84943	1.36289	0.00563
5197.34931	1.36288	0.00562
5195.8492	1.36288	0.00561
5194.34909	1.36287	0.00561
5192.84898	1.36286	0.00559
5191.34887	1.36285	0.00558
5189.84875	1.36282	0.00555
5188.34864	1.36278	0.00553
5186.84853	1.36275	0.00552
5185.34842	1.36271	0.00551
5183.84831	1.36269	0.00551
5182.3482	1.36267	0.00549
5180.84808	1.36265	0.00549
5179.34797	1.36263	0.00547
5177.84786	1.36261	0.00545
5176.34775	1.36259	0.00544
5174.84764	1.36257	0.00542
5173.34752	1.36256	0.0054
5171.84741	1.36253	0.00536
5170.3473	1.36248	0.00534
5168.84719	1.36242	0.00531
5167.34708	1.36238	0.00529
5165.84697	1.36233	0.00527
5164.34685	1.36228	0.00525
5162.84674	1.36221	0.00524
5161.34663	1.36214	0.00524
5159.84652	1.36207	0.00525
5158.34641	1.36201	0.00526
5156.8463	1.36196	0.00527
5155.34618	1.3619	0.00528
5153.84607	1.36185	0.0053
5152.34596	1.3618	0.00532
5150.84585	1.36176	0.00535
5149.34574	1.36173	0.00537
5147.84562	1.36169	0.0054
5146.34551	1.36165	0.00541
5144.8454	1.36162	0.00544
5143.34529	1.36157	0.00547
5141.84518	1.36153	0.00551
5140.34507	1.36151	0.00554
5138.84495	1.36149	0.00557
5137.34484	1.36149	0.0056
5135.84473	1.36147	0.00562
5134.34462	1.36147	0.00565
5132.84451	1.36147	0.00566
5131.34439	1.36148	0.00568
5129.84428	1.36149	0.00569
5128.34417	1.36149	0.00569
5126.84406	1.36148	0.00569
5125.34395	1.36147	0.00568
5123.84384	1.36145	0.00567
5122.34372	1.36144	0.00567
5120.84361	1.36141	0.00567
5119.3435	1.36138	0.00567
5117.84339	1.36134	0.00567
5116.34328	1.36132	0.00567
5114.84316	1.36129	0.00568
5113.34305	1.36126	0.00568
5111.84294	1.36123	0.0057
5110.34283	1.3612	0.00573
5108.84272	1.36119	0.00574
5107.34261	1.36118	0.00576
5105.84249	1.36117	0.00578
5104.34238	1.36116	0.0058
5102.84227	1.36116	0.00581
5101.34216	1.36117	0.00582
5099.84205	1.3612	0.00582
5098.34193	1.36121	0.00581
5096.84182	1.36122	0.00579
5095.34171	1.36121	0.00578
5093.8416	1.3612	0.00577
5092.34149	1.36118	0.00576
5090.84138	1.36114	0.00575
5089.34126	1.36111	0.00575
5087.84115	1.36107	0.00575
5086.34104	1.36104	0.00576
5084.84093	1.36102	0.00578
5083.34082	1.36103	0.00579
5081.8407	1.36106	0.00579
5080.34059	1.3611	0.00578
5078.84048	1.36112	0.00576
5077.34037	1.36115	0.00573
5075.84026	1.36115	0.0057
5074.34015	1.36115	0.00566
5072.84003	1.36113	0.00562
5071.33992	1.36109	0.00557
5069.83981	1.36103	0.00554
5068.3397	1.36097	0.00552
5066.83959	1.36092	0.00551
5065.33947	1.36088	0.00551
5063.83936	1.36084	0.0055
5062.33925	1.36083	0.0055
5060.83914	1.36081	0.0055
5059.33903	1.36079	0.0055
5057.83892	1.36079	0.00549
5056.3388	1.36077	0.00547
5054.83869	1.36075	0.00546
5053.33858	1.36072	0.00544
5051.83847	1.36069	0.00543
5050.33836	1.36065	0.00541
5048.83824	1.36061	0.0054
5047.33813	1.36056	0.0054
5045.83802	1.36052	0.0054
5044.33791	1.36048	0.00541
5042.8378	1.36045	0.00543
5041.33769	1.36041	0.00544
5039.83757	1.36039	0.00547
5038.33746	1.36037	0.00548
5036.83735	1.36037	0.00552
5035.33724	1.36038	0.00553
5033.83713	1.36041	0.00554
5032.33701	1.36044	0.00553
5030.8369	1.36048	0.00551
5029.33679	1.36051	0.00548
5027.83668	1.36054	0.00544
5026.33657	1.36055	0.00539
5024.83646	1.36055	0.00533
5023.33634	1.36051	0.00528
5021.83623	1.36047	0.00522
5020.33612	1.36039	0.00518
5018.83601	1.36032	0.00515
5017.3359	1.36024	0.00514
5015.83578	1.36017	0.00515
5014.33567	1.36011	0.00515
5012.83556	1.36006	0.00518
5011.33545	1.36004	0.00522
5009.83534	1.36003	0.00524
5008.33523	1.36005	0.00526
5006.83511	1.3601	0.00527
5005.335	1.36014	0.00526
5003.83489	1.36018	0.00523
5002.33478	1.36022	0.00519
5000.83467	1.36023	0.00515
4999.33455	1.36024	0.00508
4997.83444	1.36024	0.00502
4996.33433	1.36021	0.00495
4994.83422	1.36015	0.00489
4993.33411	1.36008	0.00483
4991.834	1.36002	0.0048
4990.33388	1.35997	0.00477
4988.83377	1.35993	0.00475
4987.33366	1.35989	0.00472
4985.83355	1.35986	0.00469
4984.33344	1.35982	0.00467
4982.83332	1.35981	0.00463
4981.33321	1.35979	0.0046
4979.8331	1.35977	0.00456
4978.33299	1.35973	0.00452
4976.83288	1.35968	0.00447
4975.33277	1.35963	0.00441
4973.83265	1.35956	0.00438
4972.33254	1.35949	0.00434
4970.83243	1.35941	0.0043
4969.33232	1.35932	0.00428
4967.83221	1.35923	0.00427
4966.3321	1.35915	0.00426
4964.83198	1.35906	0.00426
4963.33187	1.35898	0.00428
4961.83176	1.35889	0.00431
4960.33165	1.35883	0.00434
4958.83154	1.35879	0.00439
4957.33142	1.35875	0.00443
4955.83131	1.35874	0.00447
4954.3312	1.35874	0.00449
4952.83109	1.35876	0.00451
4951.33098	1.3588	0.00451
4949.83087	1.35883	0.0045
4948.33075	1.35886	0.00447
4946.83064	1.35888	0.00442
4945.33053	1.35889	0.00436
4943.83042	1.35887	0.00429
4942.33031	1.35882	0.00423
4940.83019	1.35875	0.00418
4939.33008	1.35868	0.00412
4937.82997	1.3586	0.00409
4936.32986	1.35851	0.00405
4934.82975	1.35841	0.00403
4933.32964	1.35832	0.00403
4931.82952	1.35824	0.00404
4930.32941	1.35818	0.00406
4928.8293	1.35814	0.00407
4927.32919	1.3581	0.00408
4925.82908	1.35807	0.00409
4924.32896	1.35805	0.00409
4922.82885	1.35802	0.0041
4921.32874	1.35799	0.0041
4919.82863	1.35796	0.0041
4918.32852	1.35792	0.00409
4916.82841	1.35787	0.00409
4915.32829	1.35783	0.00409
4913.82818	1.35778	0.00409
4912.32807	1.35775	0.00411
4910.82796	1.35773	0.00411
4909.32785	1.35773	0.00411
4907.82773	1.35774	0.00411
4906.32762	1.35774	0.00408
4904.82751	1.35774	0.00406
4903.3274	1.35774	0.00402
4901.82729	1.35773	0.00398
4900.32718	1.35771	0.00393
4898.82706	1.35767	0.00387
4897.32695	1.35761	0.00381
4895.82684	1.35753	0.00376
4894.32673	1.35744	0.00373
4892.82662	1.35735	0.00371
4891.3265	1.35725	0.00371
4889.82639	1.35716	0.00371
4888.32628	1.35708	0.00373
4886.82617	1.35701	0.00374
4885.32606	1.35696	0.00377
4883.82595	1.35693	0.0038
4882.32583	1.35691	0.00383
4880.82572	1.35691	0.00385
4879.32561	1.35691	0.00386
4877.8255	1.35692	0.00385
4876.32539	1.35692	0.00384
4874.82527	1.35692	0.0038
4873.32516	1.35692	0.00377
4871.82505	1.35691	0.00373
4870.32494	1.3569	0.0037
4868.82483	1.35687	0.00364
4867.32472	1.35683	0.00358
4865.8246	1.35678	0.00352
4864.32449	1.35672	0.00347
4862.82438	1.35664	0.00341
4861.32427	1.35655	0.00338
4859.82416	1.35646	0.00336
4858.32404	1.35637	0.00334
4856.82393	1.35629	0.00332
4855.32382	1.35621	0.00331
4853.82371	1.35613	0.0033
4852.3236	1.35605	0.00331
4850.82349	1.35599	0.00332
4849.32337	1.35593	0.00333
4847.82326	1.35589	0.00334
4846.32315	1.35582	0.00334
4844.82304	1.35576	0.00334
4843.32293	1.3557	0.00334
4841.82281	1.35564	0.00336
4840.3227	1.35558	0.00338
4838.82259	1.35552	0.0034
4837.32248	1.35548	0.00342
4835.82237	1.35543	0.00344
4834.32226	1.3554	0.00346
4832.82214	1.35539	0.00347
4831.32203	1.35538	0.00348
4829.82192	1.35538	0.00349
4828.32181	1.35538	0.00348
4826.8217	1.35538	0.00345
4825.32158	1.35538	0.00342
4823.82147	1.35535	0.00338
4822.32136	1.35532	0.00334
4820.82125	1.35527	0.00329
4819.32114	1.35522	0.00325
4817.82103	1.35515	0.00321
4816.32091	1.35506	0.00318
4814.8208	1.35498	0.00315
4813.32069	1.3549	0.00314
4811.82058	1.35482	0.00313
4810.32047	1.35474	0.00312
4808.82035	1.35468	0.00312
4807.32024	1.3546	0.00313
4805.82013	1.35453	0.00313
4804.32002	1.35447	0.00315
4802.81991	1.35442	0.00316
4801.3198	1.35436	0.00316
4799.81968	1.35431	0.00317
4798.31957	1.35424	0.00318
4796.81946	1.35418	0.0032
4795.31935	1.35413	0.00322
4793.81924	1.35409	0.00324
4792.31912	1.35405	0.00325
4790.81901	1.35402	0.00326
4789.3189	1.35399	0.00326
4787.81879	1.35396	0.00326
4786.31868	1.35393	0.00326
4784.81857	1.3539	0.00326
4783.31845	1.35387	0.00324
4781.81834	1.35382	0.00323
4780.31823	1.35377	0.00322
4778.81812	1.3537	0.00321
4777.31801	1.35363	0.00321
4775.81789	1.35356	0.00321
4774.31778	1.35349	0.00323
4772.81767	1.35341	0.00325
4771.31756	1.35334	0.00329
4769.81745	1.35329	0.00332
4768.31734	1.35326	0.00337
4766.81722	1.35324	0.0034
4765.31711	1.35324	0.00342
4763.817	1.35323	0.00345
4762.31689	1.35323	0.00347
4760.81678	1.35324	0.00348
4759.31667	1.35324	0.00348
4757.81655	1.35324	0.00348
4756.31644	1.35322	0.00346
4754.81633	1.35322	0.00346
4753.31622	1.3532	0.00344
4751.81611	1.35319	0.00343
4750.31599	1.35318	0.0034
4748.81588	1.35316	0.00339
4747.31577	1.35316	0.00336
4745.81566	1.35315	0.00333
4744.31555	1.35314	0.00329
4742.81544	1.35312	0.00325
4741.31532	1.3531	0.00321
4739.81521	1.35308	0.00316
4738.3151	1.35305	0.00312
4736.81499	1.35301	0.00307
4735.31488	1.35296	0.00301
4733.81476	1.35292	0.00296
4732.31465	1.35285	0.00291
4730.81454	1.35279	0.00287
4729.31443	1.35273	0.00284
4727.81432	1.35267	0.00279
4726.31421	1.35261	0.00275
4724.81409	1.35253	0.00272
4723.31398	1.35246	0.00269
4721.81387	1.35238	0.00266
4720.31376	1.35231	0.00264
4718.81365	1.35223	0.00262
4717.31353	1.35215	0.0026
4715.81342	1.35206	0.00259
4714.31331	1.35198	0.00258
4712.8132	1.35191	0.00257
4711.31309	1.35183	0.00258
4709.81298	1.35176	0.00258
4708.31286	1.3517	0.00259
4706.81275	1.35163	0.00259
4705.31264	1.35156	0.00261
4703.81253	1.35151	0.00261
4702.31242	1.35145	0.00264
4700.8123	1.3514	0.00265
4699.31219	1.35135	0.00266
4697.81208	1.35132	0.00267
4696.31197	1.35129	0.00268
4694.81186	1.35126	0.00268
4693.31175	1.35124	0.00268
4691.81163	1.35122	0.00268
4690.31152	1.35122	0.00267
4688.81141	1.3512	0.00264
4687.3113	1.35117	0.00261
4685.81119	1.35114	0.00257
4684.31107	1.35111	0.00254
4682.81096	1.35107	0.0025
4681.31085	1.35103	0.00246
4679.81074	1.351	0.00242
4678.31063	1.35094	0.00236
4676.81052	1.35088	0.0023
4675.3104	1.35081	0.00226
4673.81029	1.35074	0.00221
4672.31018	1.35066	0.00217
4670.81007	1.35057	0.00214
4669.30996	1.35046	0.0021
4667.80984	1.35035	0.00208
4666.30973	1.35025	0.00207
4664.80962	1.35015	0.00206
4663.30951	1.35007	0.00206
4661.8094	1.34998	0.00207
4660.30929	1.3499	0.00208
4658.80917	1.34982	0.00209
4657.30906	1.34975	0.00211
4655.80895	1.34969	0.00213
4654.30884	1.34964	0.00214
4652.80873	1.3496	0.00214
4651.30861	1.34954	0.00214
4649.8085	1.34949	0.00214
4648.30839	1.34946	0.00213
4646.80828	1.34943	0.00212
4645.30817	1.34939	0.0021
4643.80806	1.34933	0.00207
4642.30794	1.34927	0.00205
4640.80783	1.3492	0.00202
4639.30772	1.34912	0.00201
4637.80761	1.34905	0.00198
4636.3075	1.34897	0.00197
4634.80738	1.34888	0.00195
4633.30727	1.34879	0.00194
4631.80716	1.34872	0.00194
4630.30705	1.34865	0.00194
4628.80694	1.34858	0.00193
4627.30683	1.3485	0.00192
4625.80671	1.34842	0.00192
4624.3066	1.34835	0.00192
4622.80649	1.34828	0.00193
4621.30638	1.3482	0.00193
4619.80627	1.34812	0.00193
4618.30615	1.34805	0.00193
4616.80604	1.34797	0.00194
4615.30593	1.34789	0.00195
4613.80582	1.34783	0.00197
4612.30571	1.34775	0.00198
4610.8056	1.34769	0.002
4609.30548	1.34762	0.00201
4607.80537	1.34757	0.00203
4606.30526	1.34751	0.00204
4604.80515	1.34746	0.00205
4603.30504	1.34742	0.00206
4601.80492	1.34737	0.00206
4600.30481	1.34732	0.00207
4598.8047	1.34728	0.00207
4597.30459	1.34723	0.00207
4595.80448	1.34718	0.00206
4594.30437	1.34713	0.00205
4592.80425	1.34708	0.00204
4591.30414	1.34702	0.00203
4589.80403	1.34697	0.00202
4588.30392	1.34692	0.00201
4586.80381	1.34686	0.00199
4585.30369	1.34679	0.00198
4583.80358	1.34672	0.00196
4582.30347	1.34666	0.00195
4580.80336	1.34658	0.00194
4579.30325	1.3465	0.00193
4577.80314	1.34642	0.00193
4576.30302	1.34635	0.00193
4574.80291	1.34628	0.00193
4573.3028	1.34621	0.00193
4571.80269	1.34614	0.00193
4570.30258	1.34607	0.00193
4568.80247	1.34602	0.00193
4567.30235	1.34596	0.00193
4565.80224	1.3459	0.00192
4564.30213	1.34583	0.00191
4562.80202	1.34576	0.00191
4561.30191	1.34567	0.00191
4559.80179	1.34559	0.00191
4558.30168	1.34551	0.00191
4556.80157	1.34543	0.00192
4555.30146	1.34535	0.00193
4553.80135	1.34527	0.00195
4552.30124	1.34521	0.00196
4550.80112	1.34515	0.00198
4549.30101	1.3451	0.002
4547.8009	1.34505	0.002
4546.30079	1.345	0.00201
4544.80068	1.34495	0.00201
4543.30056	1.34489	0.00201
4541.80045	1.34483	0.00201
4540.30034	1.34477	0.00201
4538.80023	1.34469	0.00201
4537.30012	1.34461	0.00201
4535.80001	1.34455	0.00201
4534.29989	1.34448	0.00203
4532.79978	1.34441	0.00205
4531.29967	1.34435	0.00205
4529.79956	1.34429	0.00207
4528.29945	1.34423	0.00208
4526.79933	1.34419	0.00209
4525.29922	1.34414	0.0021
4523.79911	1.3441	0.00211
4522.299	1.34407	0.00211
4520.79889	1.34404	0.0021
4519.29878	1.344	0.00208
4517.79866	1.34395	0.00207
4516.29855	1.3439	0.00205
4514.79844	1.34384	0.00203
4513.29833	1.34378	0.002
4511.79822	1.3437	0.00199
4510.2981	1.34363	0.00196
4508.79799	1.34355	0.00195
4507.29788	1.34347	0.00193
4505.79777	1.34339	0.00192
4504.29766	1.34331	0.00191
4502.79755	1.34322	0.00191
4501.29743	1.34313	0.00191
4499.79732	1.34304	0.00193
4498.29721	1.34295	0.00193
4496.7971	1.34286	0.00195
4495.29699	1.34279	0.00197
4493.79687	1.34272	0.00199
4492.29676	1.34265	0.00201
4490.79665	1.3426	0.00204
4489.29654	1.34256	0.00206
4487.79643	1.34252	0.00207
4486.29632	1.34248	0.00207
4484.7962	1.34243	0.00207
4483.29609	1.34237	0.00208
4481.79598	1.34232	0.00208
4480.29587	1.34227	0.00208
4478.79576	1.34222	0.00207
4477.29564	1.34216	0.00207
4475.79553	1.3421	0.00206
4474.29542	1.34205	0.00206
4472.79531	1.34201	0.00205
4471.2952	1.34196	0.00204
4469.79509	1.34192	0.00202
4468.29497	1.34187	0.002
4466.79486	1.34182	0.00197
4465.29475	1.34176	0.00195
4463.79464	1.34169	0.00192
4462.29453	1.34162	0.00189
4460.79441	1.34154	0.00185
4459.2943	1.34145	0.00182
4457.79419	1.34135	0.0018
4456.29408	1.34125	0.00178
4454.79397	1.34115	0.00178
4453.29386	1.34104	0.00177
4451.79374	1.34093	0.00178
4450.29363	1.34082	0.00179
4448.79352	1.34071	0.00181
4447.29341	1.34061	0.00184
4445.7933	1.34052	0.00188
4444.29318	1.34045	0.00192
4442.79307	1.34039	0.00195
4441.29296	1.34033	0.00198
4439.79285	1.34028	0.00202
4438.29274	1.34025	0.00205
4436.79263	1.34022	0.00206
4435.29251	1.3402	0.00208
4433.7924	1.34018	0.00208
4432.29229	1.34014	0.00206
4430.79218	1.34009	0.00206
4429.29207	1.34005	0.00204
4427.79195	1.34002	0.00203
4426.29184	1.33997	0.002
4424.79173	1.33991	0.00197
4423.29162	1.33984	0.00194
4421.79151	1.33978	0.00191
4420.2914	1.33972	0.00187
4418.79128	1.33965	0.00185
4417.29117	1.33957	0.00182
4415.79106	1.33947	0.0018
4414.29095	1.33937	0.00179
4412.79084	1.33928	0.00177
4411.29072	1.33918	0.00176
4409.79061	1.33908	0.00176
4408.2905	1.33898	0.00178
4406.79039	1.33889	0.00179
4405.29028	1.33882	0.00181
4403.79017	1.33876	0.00182
4402.29005	1.3387	0.00184
4400.78994	1.33865	0.00184
4399.28983	1.33862	0.00184
4397.78972	1.33858	0.00183
4396.28961	1.33854	0.00182
4394.78949	1.3385	0.00179
4393.28938	1.33845	0.00175
4391.78927	1.33838	0.00171
4390.28916	1.3383	0.00168
4388.78905	1.33821	0.00164
4387.28894	1.33812	0.00161
4385.78882	1.33803	0.00159
4384.28871	1.33792	0.00156
4382.7886	1.33781	0.00154
4381.28849	1.3377	0.00153
4379.78838	1.3376	0.00153
4378.28827	1.33751	0.00153
4376.78815	1.33742	0.00153
4375.28804	1.33733	0.00153
4373.78793	1.33724	0.00153
4372.28782	1.33716	0.00153
4370.78771	1.33707	0.00153
4369.28759	1.33699	0.00153
4367.78748	1.33691	0.00153
4366.28737	1.33683	0.00153
4364.78726	1.33674	0.00153
4363.28715	1.33666	0.00152
4361.78704	1.33658	0.00152
4360.28692	1.33651	0.00151
4358.78681	1.33642	0.00151
4357.2867	1.33632	0.0015
4355.78659	1.33623	0.0015
4354.28648	1.33614	0.00151
4352.78636	1.33604	0.00151
4351.28625	1.33595	0.00152
4349.78614	1.33587	0.00153
4348.28603	1.33579	0.00153
4346.78592	1.33572	0.00154
4345.28581	1.33566	0.00154
4343.78569	1.3356	0.00153
4342.28558	1.33553	0.00153
4340.78547	1.33546	0.00151
4339.28536	1.33538	0.00149
4337.78525	1.33528	0.00147
4336.28513	1.33518	0.00146
4334.78502	1.33507	0.00146
4333.28491	1.33497	0.00146
4331.7848	1.33486	0.00146
4330.28469	1.33476	0.00148
4328.78458	1.33467	0.00149
4327.28446	1.33458	0.00151
4325.78435	1.33452	0.00152
4324.28424	1.33446	0.00153
4322.78413	1.33441	0.00154
4321.28402	1.33436	0.00153
4319.7839	1.33431	0.00152
4318.28379	1.33425	0.00149
4316.78368	1.33418	0.00147
4315.28357	1.3341	0.00143
4313.78346	1.334	0.0014
4312.28335	1.33389	0.00138
4310.78323	1.33377	0.00136
4309.28312	1.33365	0.00135
4307.78301	1.33353	0.00134
4306.2829	1.33342	0.00135
4304.78279	1.33331	0.00135
4303.28267	1.33321	0.00137
4301.78256	1.33313	0.00138
4300.28245	1.33304	0.0014
4298.78234	1.33297	0.00141
4297.28223	1.3329	0.00142
4295.78212	1.33282	0.00142
4294.282	1.33275	0.00142
4292.78189	1.33268	0.00141
4291.28178	1.33261	0.0014
4289.78167	1.33253	0.00139
4288.28156	1.33246	0.00138
4286.78144	1.33238	0.00135
4285.28133	1.3323	0.00133
4283.78122	1.33223	0.0013
4282.28111	1.33213	0.00128
4280.781	1.33204	0.00125
4279.28089	1.33195	0.00121
4277.78077	1.33184	0.00118
4276.28066	1.33173	0.00115
4274.78055	1.3316	0.00113
4273.28044	1.33147	0.00111
4271.78033	1.33135	0.00111
4270.28021	1.33122	0.0011
4268.7801	1.33108	0.0011
4267.27999	1.33094	0.00111
4265.77988	1.33082	0.00113
4264.27977	1.3307	0.00116
4262.77966	1.3306	0.00119
4261.27954	1.33051	0.00122
4259.77943	1.33042	0.00124
4258.27932	1.33036	0.00125
4256.77921	1.3303	0.00126
4255.2791	1.33023	0.00127
4253.77898	1.33017	0.00126
4252.27887	1.3301	0.00125
4250.77876	1.33004	0.00123
4249.27865	1.32995	0.0012
4247.77854	1.32986	0.00116
4246.27843	1.32975	0.00113
4244.77831	1.32964	0.0011
4243.2782	1.32952	0.00108
4241.77809	1.32941	0.00106
4240.27798	1.32929	0.00104
4238.77787	1.32917	0.00101
4237.27775	1.32904	1.00E-03
4235.77764	1.32892	9.90E-04
4234.27753	1.3288	9.80E-04
4232.77742	1.32868	9.70E-04
4231.27731	1.32855	9.60E-04
4229.7772	1.32842	9.50E-04
4228.27708	1.32829	9.50E-04
4226.77697	1.32815	9.50E-04
4225.27686	1.32802	9.60E-04
4223.77675	1.32789	9.70E-04
4222.27664	1.32776	9.80E-04
4220.77652	1.32763	9.90E-04
4219.27641	1.32752	0.00101
4217.7763	1.32739	0.00103
4216.27619	1.32728	0.00105
4214.77608	1.32717	0.00106
4213.27597	1.32706	0.00108
4211.77585	1.32695	0.0011
4210.27574	1.32684	0.00111
4208.77563	1.32672	0.00113
4207.27552	1.32662	0.00115
4205.77541	1.3265	0.00117
4204.27529	1.3264	0.00118
4202.77518	1.32629	0.00121
4201.27507	1.32618	0.00122
4199.77496	1.32608	0.00124
4198.27485	1.32599	0.00126
4196.77474	1.3259	0.00127
4195.27462	1.32583	0.00127
4193.77451	1.32574	0.00127
4192.2744	1.32564	0.00127
4190.77429	1.32555	0.00126
4189.27418	1.32545	0.00125
4187.77407	1.32534	0.00124
4186.27395	1.32522	0.00123
4184.77384	1.3251	0.00122
4183.27373	1.32497	0.00122
4181.77362	1.32485	0.00121
4180.27351	1.32472	0.00121
4178.77339	1.32461	0.00122
4177.27328	1.32449	0.00122
4175.77317	1.32437	0.00122
4174.27306	1.32426	0.00122
4172.77295	1.32415	0.00122
4171.27284	1.32403	0.00122
4169.77272	1.3239	0.00122
4168.27261	1.32376	0.00122
4166.7725	1.32362	0.00123
4165.27239	1.32349	0.00125
4163.77228	1.32335	0.00126
4162.27216	1.32322	0.00128
4160.77205	1.32309	0.0013
4159.27194	1.32297	0.00133
4157.77183	1.32285	0.00136
4156.27172	1.32275	0.00139
4154.77161	1.32265	0.00141
4153.27149	1.32255	0.00142
4151.77138	1.32244	0.00144
4150.27127	1.32235	0.00145
4148.77116	1.32225	0.00147
4147.27105	1.32215	0.00147
4145.77093	1.32206	0.00147
4144.27082	1.32196	0.00145
4142.77071	1.32185	0.00145
4141.2706	1.32174	0.00143
4139.77049	1.32162	0.00143
4138.27038	1.3215	0.00142
4136.77026	1.32136	0.00141
4135.27015	1.32122	0.00141
4133.77004	1.32108	0.00141
4132.26993	1.32094	0.00141
4130.76982	1.3208	0.00143
4129.2697	1.32067	0.00144
4127.76959	1.32055	0.00147
4126.26948	1.32043	0.00148
4124.76937	1.32032	0.0015
4123.26926	1.32022	0.0015
4121.76915	1.32011	0.00151
4120.26903	1.32	0.00151
4118.76892	1.31989	0.00152
4117.26881	1.31978	0.00151
4115.7687	1.31967	0.0015
4114.26859	1.31955	0.00148
4112.76847	1.31943	0.00147
4111.26836	1.3193	0.00144
4109.76825	1.31916	0.00143
4108.26814	1.31902	0.00141
4106.76803	1.31886	0.00139
4105.26792	1.3187	0.00139
4103.7678	1.31853	0.00139
4102.26769	1.31836	0.0014
4100.76758	1.31819	0.00141
4099.26747	1.31804	0.00143
4097.76736	1.31788	0.00146
4096.26724	1.31772	0.00148
4094.76713	1.31758	0.00151
4093.26702	1.31745	0.00154
4091.76691	1.31732	0.00156
4090.2668	1.31718	0.00159
4088.76669	1.31705	0.00161
4087.26657	1.31691	0.00164
4085.76646	1.31677	0.00166
4084.26635	1.31664	0.00169
4082.76624	1.3165	0.00171
4081.26613	1.31637	0.00174
4079.76601	1.31623	0.00176
4078.2659	1.31611	0.00179
4076.76579	1.316	0.00181
4075.26568	1.31589	0.00182
4073.76557	1.31577	0.00183
4072.26546	1.31565	0.00183
4070.76534	1.31553	0.00183
4069.26523	1.3154	0.00183
4067.76512	1.31527	0.00183
4066.26501	1.31513	0.00181
4064.7649	1.31499	0.00181
4063.26478	1.31483	0.0018
4061.76467	1.31467	0.0018
4060.26456	1.3145	0.00181
4058.76445	1.31433	0.00181
4057.26434	1.31415	0.00184
4055.76423	1.31398	0.00186
4054.26411	1.3138	0.00189
4052.764	1.31364	0.00192
4051.26389	1.31348	0.00196
4049.76378	1.31333	0.00201
4048.26367	1.31318	0.00205
4046.76355	1.31304	0.00209
4045.26344	1.31292	0.00214
4043.76333	1.3128	0.00217
4042.26322	1.31266	0.0022
4040.76311	1.31254	0.00223
4039.263	1.31241	0.00225
4037.76288	1.31228	0.00228
4036.26277	1.31214	0.0023
4034.76266	1.31201	0.00232
4033.26255	1.31188	0.00234
4031.76244	1.31174	0.00235
4030.26232	1.31159	0.00238
4028.76221	1.31146	0.0024
4027.2621	1.31133	0.00242
4025.76199	1.3112	0.00244
4024.26188	1.31108	0.00244
4022.76177	1.31095	0.00245
4021.26165	1.31081	0.00245
4019.76154	1.31067	0.00246
4018.26143	1.31052	0.00246
4016.76132	1.31037	0.00247
4015.26121	1.31021	0.00247
4013.76109	1.31005	0.00247
4012.26098	1.30988	0.00248
4010.76087	1.30972	0.0025
4009.26076	1.30957	0.00252
4007.76065	1.30942	0.00253
4006.26054	1.30928	0.00254
4004.76042	1.30912	0.00254
4003.26031	1.30896	0.00255
4001.7602	1.30879	0.00256
4000.26009	1.30861	0.00259
3998.75998	1.30843	0.0026
3997.25986	1.30824	0.00263
3995.75975	1.30806	0.00266
3994.25964	1.30788	0.00269
3992.75953	1.30771	0.00274
3991.25942	1.30755	0.00279
3989.75931	1.30741	0.00284
3988.25919	1.30727	0.00287
3986.75908	1.30714	0.00291
3985.25897	1.307	0.00293
3983.75886	1.30686	0.00296
3982.25875	1.30671	0.00298
3980.75864	1.30656	0.003
3979.25852	1.30641	0.00302
3977.75841	1.30625	0.00303
3976.2583	1.30608	0.00305
3974.75819	1.30591	0.00307
3973.25808	1.30574	0.0031
3971.75796	1.30558	0.00313
3970.25785	1.30541	0.00316
3968.75774	1.30525	0.00319
3967.25763	1.30508	0.00322
3965.75752	1.30493	0.00326
3964.25741	1.30477	0.00331
3962.75729	1.30463	0.00334
3961.25718	1.30449	0.00337
3959.75707	1.30436	0.0034
3958.25696	1.30423	0.00341
3956.75685	1.30408	0.00343
3955.25673	1.30394	0.00344
3953.75662	1.3038	0.00345
3952.25651	1.30366	0.00345
3950.7564	1.3035	0.00344
3949.25629	1.30332	0.00344
3947.75618	1.30313	0.00345
3946.25606	1.30294	0.00347
3944.75595	1.30276	0.00348
3943.25584	1.30257	0.0035
3941.75573	1.30239	0.00353
3940.25562	1.30219	0.00355
3938.7555	1.30201	0.0036
3937.25539	1.30184	0.00365
3935.75528	1.30169	0.00369
3934.25517	1.30156	0.00372
3932.75506	1.3014	0.00374
3931.25495	1.30123	0.00377
3929.75483	1.30107	0.00379
3928.25472	1.30093	0.00382
3926.75461	1.30078	0.00382
3925.2545	1.30064	0.00382
3923.75439	1.30046	0.00382
3922.25427	1.30025	0.00383
3920.75416	1.30005	0.00385
3919.25405	1.29982	0.00391
3917.75394	1.2996	0.00399
3916.25383	1.29938	0.00406
3914.75372	1.29918	0.00416
3913.2536	1.29904	0.00425
3911.75349	1.29895	0.00434
3910.25338	1.29892	0.0044
3908.75327	1.29892	0.00443
3907.25316	1.29895	0.00442
3905.75304	1.29895	0.00438
3904.25293	1.29893	0.00429
3902.75282	1.29884	0.00415
3901.25271	1.29867	0.00402
3899.7526	1.29843	0.0039
3898.25249	1.29813	0.00381
3896.75237	1.29782	0.00375
3895.25226	1.29753	0.00372
3893.75215	1.29725	0.00371
3892.25204	1.29702	0.0037
3890.75193	1.29679	0.00371
3889.25181	1.29658	0.00374
3887.7517	1.29641	0.00379
3886.25159	1.29624	0.00382
3884.75148	1.29606	0.00385
3883.25137	1.29587	0.00386
3881.75126	1.29568	0.00386
3880.25114	1.29548	0.00385
3878.75103	1.29528	0.00386
3877.25092	1.29512	0.00388
3875.75081	1.29497	0.00388
3874.2507	1.29485	0.00385
3872.75058	1.2947	0.0038
3871.25047	1.29453	0.00376
3869.75036	1.29431	0.00371
3868.25025	1.29405	0.00372
3866.75014	1.29381	0.00374
3865.25003	1.2936	0.00373
3863.74991	1.29343	0.0037
3862.2498	1.29326	0.00364
3860.74969	1.2931	0.0036
3859.24958	1.29295	0.00357
3857.74947	1.29284	0.00352
3856.24935	1.29273	0.00345
3854.74924	1.29258	0.00334
3853.24913	1.29232	0.0032
3851.74902	1.29196	0.00309
3850.24891	1.29158	0.00305
3848.7488	1.29126	0.00304
3847.24868	1.29099	0.00302
3845.74857	1.29077	0.003
3844.24846	1.29058	0.00294
3842.74835	1.29041	0.00287
3841.24824	1.29025	0.00278
3839.74812	1.29011	0.00268
3838.24801	1.2899	0.00256
3836.7479	1.28959	0.00244
3835.24779	1.2892	0.00234
3833.74768	1.28875	0.00226
3832.24757	1.28833	0.00219
3830.74745	1.28793	0.00216
3829.24734	1.28757	0.00216
3827.74723	1.28727	0.00215
3826.24712	1.28705	0.00214
3824.74701	1.28687	0.0021
3823.24689	1.2867	0.00204
3821.74678	1.28646	0.00193
3820.24667	1.28613	0.00181
3818.74656	1.28572	0.00171
3817.24645	1.28527	0.00162
3815.74634	1.28477	0.00157
3814.24622	1.28425	0.00157
3812.74611	1.28375	0.0016
3811.246	1.28334	0.00165
3809.74589	1.28301	0.00171
3808.24578	1.28277	0.00175
3806.74566	1.28255	0.00176
3805.24555	1.28233	0.00172
3803.74544	1.28209	0.00166
3802.24533	1.2818	0.00156
3800.74522	1.28141	0.00145
3799.24511	1.28092	0.00134
3797.74499	1.28035	0.00127
3796.24488	1.27974	0.00123
3794.74477	1.2791	0.00126
3793.24466	1.27849	0.00136
3791.74455	1.27791	0.00151
3790.24444	1.27741	0.00169
3788.74432	1.27698	0.00189
3787.24421	1.27662	0.0021
3785.7441	1.27629	0.00231
3784.24399	1.27596	0.0025
3782.74388	1.27566	0.00269
3781.24376	1.27539	0.00285
3779.74365	1.27512	0.00297
3778.24354	1.27482	0.00306
3776.74343	1.27449	0.00315
3775.24332	1.27416	0.00327
3773.74321	1.27384	0.00339
3772.24309	1.27355	0.00351
3770.74298	1.27326	0.0036
3769.24287	1.27294	0.00368
3767.74276	1.2726	0.00379
3766.24265	1.27226	0.00393
3764.74253	1.27195	0.0041
3763.24242	1.27168	0.00426
3761.74231	1.27149	0.00439
3760.2422	1.27133	0.00447
3758.74209	1.27119	0.00452
3757.24198	1.27108	0.00455
3755.74186	1.27102	0.00454
3754.24175	1.271	0.00444
3752.74164	1.27094	0.00428
3751.24153	1.27077	0.00407
3749.74142	1.27047	0.00383
3748.2413	1.27009	0.0036
3746.74119	1.26969	0.00339
3745.24108	1.26928	0.00315
3743.74097	1.2688	0.00291
3742.24086	1.26827	0.0027
3740.74075	1.26776	0.00252
3739.24063	1.26727	0.00235
3737.74052	1.26682	0.0022
3736.24041	1.26635	0.00201
3734.7403	1.2658	0.0018
3733.24019	1.26515	0.0016
3731.74007	1.26446	0.00145
3730.23996	1.26371	0.00135
3728.73985	1.26295	0.00129
3727.23974	1.26214	0.00127
3725.73963	1.26133	0.00131
3724.23952	1.26054	0.00139
3722.7394	1.25983	0.0015
3721.23929	1.25919	0.00164
3719.73918	1.2586	0.00178
3718.23907	1.25804	0.00192
3716.73896	1.25751	0.00204
3715.23884	1.25699	0.00214
3713.73873	1.2565	0.00219
3712.23862	1.25598	0.00219
3710.73851	1.25538	0.00216
3709.2384	1.25468	0.00215
3707.73829	1.25393	0.00219
3706.23817	1.25316	0.00226
3704.73806	1.25239	0.00237
3703.23795	1.25161	0.0025
3701.73784	1.25084	0.00263
3700.23773	1.25009	0.00278
3698.73761	1.24941	0.00295
3697.2375	1.24878	0.00314
3695.73739	1.24818	0.00331
3694.23728	1.24756	0.00346
3692.73717	1.24692	0.0036
3691.23706	1.24623	0.00373
3689.73694	1.24548	0.00385
3688.23683	1.24469	0.00399
3686.73672	1.24389	0.00415
3685.23661	1.2431	0.00433
3683.7365	1.24234	0.00453
3682.23638	1.24163	0.00472
3680.73627	1.24096	0.00488
3679.23616	1.2403	0.005
3677.73605	1.23964	0.00509
3676.23594	1.23892	0.00516
3674.73583	1.23807	0.00523
3673.23571	1.2371	0.00532
3671.7356	1.23605	0.00547
3670.23549	1.23491	0.00565
3668.73538	1.2337	0.00591
3667.23527	1.23245	0.00626
3665.73515	1.23123	0.00672
3664.23504	1.23007	0.00728
3662.73493	1.22903	0.00792
3661.23482	1.22813	0.00859
3659.73471	1.22734	0.00923
3658.2346	1.22665	0.00982
3656.73448	1.226	0.01036
3655.23437	1.22536	0.01086
3653.73426	1.2247	0.01133
3652.23415	1.224	0.01175
3650.73404	1.22322	0.0121
3649.23392	1.2223	0.01244
3647.73381	1.22123	0.01283
3646.2337	1.22004	0.01329
3644.73359	1.21883	0.01387
3643.23348	1.21763	0.01456
3641.73337	1.21649	0.01532
3640.23325	1.21542	0.01612
3638.73314	1.21445	0.01696
3637.23303	1.21358	0.01783
3635.73292	1.21281	0.01872
3634.23281	1.21211	0.01961
3632.73269	1.21145	0.02047
3631.23258	1.2108	0.02128
3629.73247	1.21013	0.02202
3628.23236	1.20939	0.02274
3626.73225	1.20858	0.02345
3625.23214	1.20773	0.02421
3623.73202	1.20688	0.02499
3622.23191	1.20603	0.02578
3620.7318	1.20517	0.02661
3619.23169	1.20428	0.02743
3617.73158	1.2034	0.02831
3616.23146	1.20254	0.02923
3614.73135	1.2017	0.03019
3613.23124	1.20088	0.03117
3611.73113	1.20006	0.03216
3610.23102	1.19925	0.03319
3608.73091	1.19846	0.03423
3607.23079	1.19767	0.03528
3605.73068	1.19691	0.03638
3604.23057	1.19617	0.03749
3602.73046	1.19546	0.03864
3601.23035	1.19477	0.0398
3599.73024	1.1941	0.04098
3598.23012	1.1935	0.04216
3596.73001	1.19293	0.04333
3595.2299	1.19239	0.0445
3593.72979	1.19187	0.04566
3592.22968	1.19135	0.04682
3590.72956	1.19086	0.04799
3589.22945	1.19036	0.04913
3587.72934	1.18984	0.05027
3586.22923	1.18928	0.05141
3584.72912	1.18868	0.05258
3583.22901	1.18809	0.0538
3581.72889	1.18751	0.05507
3580.22878	1.18695	0.05637
3578.72867	1.18644	0.05769
3577.22856	1.18597	0.05903
3575.72845	1.18558	0.06038
3574.22833	1.18524	0.06174
3572.72822	1.18495	0.06311
3571.22811	1.18471	0.06447
3569.728	1.18451	0.0658
3568.22789	1.18432	0.0671
3566.72778	1.18412	0.06835
3565.22766	1.18388	0.0696
3563.72755	1.18362	0.07085
3562.22744	1.18335	0.07211
3560.72733	1.18308	0.07339
3559.22722	1.18281	0.07468
3557.7271	1.18254	0.07599
3556.22699	1.1823	0.07731
3554.72688	1.18208	0.07864
3553.22677	1.18189	0.08
3551.72666	1.18173	0.08137
3550.22655	1.18159	0.08276
3548.72643	1.18148	0.08414
3547.22632	1.18139	0.08552
3545.72621	1.18131	0.0869
3544.2261	1.18123	0.08829
3542.72599	1.18117	0.08968
3541.22587	1.18115	0.09108
3539.72576	1.18114	0.09249
3538.22565	1.18117	0.09389
3536.72554	1.18123	0.09529
3535.22543	1.18129	0.09669
3533.72532	1.18139	0.09808
3532.2252	1.18151	0.09948
3530.72509	1.18166	0.10086
3529.22498	1.18182	0.10223
3527.72487	1.18199	0.10359
3526.22476	1.18217	0.10493
3524.72464	1.18235	0.10627
3523.22453	1.18254	0.10762
3521.72442	1.18272	0.10896
3520.22431	1.18293	0.11031
3518.7242	1.18314	0.11165
3517.22409	1.18336	0.113
3515.72397	1.18359	0.11436
3514.22386	1.18385	0.11572
3512.72375	1.18413	0.11709
3511.22364	1.18445	0.11845
3509.72353	1.18479	0.1198
3508.22341	1.18514	0.12116
3506.7233	1.18551	0.1225
3505.22319	1.18589	0.12385
3503.72308	1.1863	0.12519
3502.22297	1.18673	0.12651
3500.72286	1.18716	0.12781
3499.22274	1.18759	0.12911
3497.72263	1.18804	0.13041
3496.22252	1.1885	0.13171
3494.72241	1.18896	0.13302
3493.2223	1.18946	0.13431
3491.72218	1.18995	0.1356
3490.22207	1.19046	0.13688
3488.72196	1.19099	0.13817
3487.22185	1.19153	0.13946
3485.72174	1.19211	0.14076
3484.22163	1.1927	0.14205
3482.72151	1.19333	0.14331
3481.2214	1.19396	0.14457
3479.72129	1.19461	0.14582
3478.22118	1.19527	0.14706
3476.72107	1.19596	0.1483
3475.22095	1.19666	0.14952
3473.72084	1.19738	0.15072
3472.22073	1.19811	0.15192
3470.72062	1.19885	0.1531
3469.22051	1.1996	0.15426
3467.7204	1.20038	0.15543
3466.22028	1.20118	0.15656
3464.72017	1.20197	0.15768
3463.22006	1.20276	0.15879
3461.71995	1.20357	0.15989
3460.21984	1.20437	0.16099
3458.71972	1.20518	0.16208
3457.21961	1.206	0.16317
3455.7195	1.20683	0.16424
3454.21939	1.20769	0.16531
3452.71928	1.20855	0.16637
3451.21917	1.20944	0.16743
3449.71905	1.21035	0.16848
3448.21894	1.21128	0.16951
3446.71883	1.21222	0.17052
3445.21872	1.21318	0.17151
3443.71861	1.21413	0.17249
3442.21849	1.21508	0.17345
3440.71838	1.21605	0.17441
3439.21827	1.21702	0.17535
3437.71816	1.21802	0.17628
3436.21805	1.21901	0.17719
3434.71794	1.22002	0.17809
3433.21782	1.22103	0.17897
3431.71771	1.22206	0.17985
3430.2176	1.2231	0.18071
3428.71749	1.22415	0.18156
3427.21738	1.22521	0.18238
3425.71726	1.22627	0.18319
3424.21715	1.22734	0.18399
3422.71704	1.22841	0.18477
3421.21693	1.22949	0.18553
3419.71682	1.23058	0.18629
3418.21671	1.23167	0.18702
3416.71659	1.23277	0.18774
3415.21648	1.23386	0.18846
3413.71637	1.23496	0.18916
3412.21626	1.23607	0.18984
3410.71615	1.23719	0.19053
3409.21604	1.23831	0.19118
3407.71592	1.23945	0.19184
3406.21581	1.24058	0.19247
3404.7157	1.24175	0.1931
3403.21559	1.24291	0.1937
3401.71548	1.24409	0.19429
3400.21536	1.24528	0.19486
3398.71525	1.24648	0.1954
3397.21514	1.24767	0.19592
3395.71503	1.24887	0.19642
3394.21492	1.25008	0.1969
3392.71481	1.25128	0.19735
3391.21469	1.25247	0.19779
3389.71458	1.25367	0.19821
3388.21447	1.25486	0.19862
3386.71436	1.25604	0.199
3385.21425	1.25723	0.19937
3383.71413	1.2584	0.19972
3382.21402	1.2596	0.20006
3380.71391	1.26078	0.20039
3379.2138	1.26198	0.20071
3377.71369	1.26317	0.20099
3376.21358	1.26437	0.20125
3374.71346	1.26556	0.2015
3373.21335	1.26674	0.20173
3371.71324	1.26793	0.20195
3370.21313	1.26911	0.20214
3368.71302	1.27028	0.20232
3367.2129	1.27143	0.20247
3365.71279	1.27258	0.20261
3364.21268	1.27373	0.20274
3362.71257	1.27486	0.20285
3361.21246	1.276	0.20296
3359.71235	1.27713	0.20305
3358.21223	1.27826	0.20312
3356.71212	1.27938	0.20316
3355.21201	1.2805	0.2032
3353.7119	1.28162	0.20322
3352.21179	1.28272	0.20322
3350.71167	1.2838	0.2032
3349.21156	1.28488	0.20316
3347.71145	1.28593	0.20311
3346.21134	1.28697	0.20305
3344.71123	1.28798	0.20298
3343.21112	1.28899	0.20291
3341.711	1.28999	0.20282
3340.21089	1.29097	0.20273
3338.71078	1.29194	0.20264
3337.21067	1.29289	0.20254
3335.71056	1.29385	0.20245
3334.21044	1.29479	0.20234
3332.71033	1.29573	0.20223
3331.21022	1.29667	0.20211
3329.71011	1.29759	0.20198
3328.21	1.29852	0.20184
3326.70989	1.29943	0.2017
3325.20977	1.30033	0.20155
3323.70966	1.30121	0.20138
3322.20955	1.30207	0.20123
3320.70944	1.30292	0.20107
3319.20933	1.30375	0.20092
3317.70921	1.30458	0.20077
3316.2091	1.30542	0.20062
3314.70899	1.30625	0.20046
3313.20888	1.30709	0.20031
3311.70877	1.30793	0.20015
3310.20866	1.30878	0.19998
3308.70854	1.30963	0.19981
3307.20843	1.31048	0.19961
3305.70832	1.31131	0.1994
3304.20821	1.31212	0.19918
3302.7081	1.3129	0.19896
3301.20798	1.31366	0.19872
3299.70787	1.31442	0.1985
3298.20776	1.31517	0.19827
3296.70765	1.31591	0.19804
3295.20754	1.31663	0.19781
3293.70743	1.31735	0.19758
3292.20731	1.31807	0.19736
3290.7072	1.31878	0.19715
3289.20709	1.31948	0.19693
3287.70698	1.32017	0.19672
3286.20687	1.32085	0.19652
3284.70675	1.32154	0.19632
3283.20664	1.32223	0.19612
3281.70653	1.32293	0.19593
3280.20642	1.32363	0.19573
3278.70631	1.32434	0.19553
3277.2062	1.32507	0.19532
3275.70608	1.32579	0.1951
3274.20597	1.32651	0.19487
3272.70586	1.32721	0.19463
3271.20575	1.3279	0.19438
3269.70564	1.32858	0.19413
3268.20552	1.32923	0.19389
3266.70541	1.32989	0.19364
3265.2053	1.33054	0.19339
3263.70519	1.33119	0.19315
3262.20508	1.33184	0.19291
3260.70497	1.33251	0.19267
3259.20485	1.33317	0.19244
3257.70474	1.33384	0.19219
3256.20463	1.33452	0.19194
3254.70452	1.3352	0.19169
3253.20441	1.33587	0.19143
3251.70429	1.33654	0.19115
3250.20418	1.3372	0.19088
3248.70407	1.33787	0.1906
3247.20396	1.33854	0.1903
3245.70385	1.33919	0.19
3244.20374	1.33985	0.18969
3242.70362	1.34049	0.18938
3241.20351	1.34114	0.18906
3239.7034	1.34179	0.18874
3238.20329	1.34244	0.1884
3236.70318	1.34308	0.18805
3235.20306	1.3437	0.1877
3233.70295	1.34433	0.18734
3232.20284	1.34494	0.18697
3230.70273	1.34554	0.1866
3229.20262	1.34614	0.18622
3227.70251	1.34671	0.18585
3226.20239	1.34729	0.18547
3224.70228	1.34787	0.18509
3223.20217	1.34844	0.18471
3221.70206	1.34902	0.18431
3220.20195	1.34959	0.18392
3218.70183	1.35017	0.18351
3217.20172	1.35073	0.1831
3215.70161	1.3513	0.18267
3214.2015	1.35185	0.18224
3212.70139	1.35239	0.18179
3211.20128	1.3529	0.18134
3209.70116	1.35341	0.18088
3208.20105	1.35389	0.18042
3206.70094	1.35436	0.17997
3205.20083	1.35482	0.17951
3203.70072	1.35528	0.17905
3202.20061	1.35572	0.1786
3200.70049	1.35616	0.17815
3199.20038	1.3566	0.1777
3197.70027	1.35704	0.17725
3196.20016	1.35746	0.1768
3194.70005	1.35789	0.17634
3193.19993	1.3583	0.17589
3191.69982	1.3587	0.17543
3190.19971	1.3591	0.17496
3188.6996	1.35948	0.17451
3187.19949	1.35986	0.17405
3185.69938	1.36022	0.17358
3184.19926	1.36059	0.17312
3182.69915	1.36095	0.17266
3181.19904	1.3613	0.1722
3179.69893	1.36165	0.17174
3178.19882	1.362	0.17127
3176.6987	1.36234	0.1708
3175.19859	1.36266	0.17033
3173.69848	1.36297	0.16986
3172.19837	1.36326	0.16939
3170.69826	1.36354	0.16892
3169.19815	1.36381	0.16846
3167.69803	1.36407	0.16801
3166.19792	1.36432	0.16755
3164.69781	1.36457	0.16712
3163.1977	1.36482	0.16668
3161.69759	1.36508	0.16625
3160.19747	1.36534	0.16581
3158.69736	1.3656	0.16539
3157.19725	1.36586	0.16495
3155.69714	1.36612	0.16451
3154.19703	1.36637	0.16408
3152.69692	1.3666	0.16362
3151.1968	1.36682	0.16317
3149.69669	1.36703	0.16272
3148.19658	1.36721	0.16228
3146.69647	1.3674	0.16184
3145.19636	1.36758	0.16141
3143.69624	1.36775	0.16098
3142.19613	1.36792	0.16056
3140.69602	1.36809	0.16014
3139.19591	1.36826	0.15972
3137.6958	1.36842	0.15931
3136.19569	1.36858	0.1589
3134.69557	1.36873	0.1585
3133.19546	1.36887	0.15811
3131.69535	1.36901	0.15771
3130.19524	1.36915	0.15732
3128.69513	1.36929	0.15693
3127.19501	1.36943	0.15654
3125.6949	1.36957	0.15615
3124.19479	1.36972	0.15576
3122.69468	1.36986	0.15537
3121.19457	1.37001	0.15498
3119.69446	1.37014	0.15457
3118.19434	1.37027	0.15418
3116.69423	1.37037	0.15378
3115.19412	1.37047	0.15337
3113.69401	1.37054	0.15298
3112.1939	1.37061	0.15258
3110.69378	1.37067	0.1522
3109.19367	1.37073	0.15183
3107.69356	1.37079	0.15145
3106.19345	1.37084	0.15109
3104.69334	1.37088	0.15074
3103.19323	1.37093	0.15039
3101.69311	1.37098	0.15005
3100.193	1.37102	0.14972
3098.69289	1.37106	0.14938
3097.19278	1.3711	0.14907
3095.69267	1.37114	0.14874
3094.19255	1.37118	0.14843
3092.69244	1.37123	0.14812
3091.19233	1.37128	0.14782
3089.69222	1.37133	0.14751
3088.19211	1.3714	0.14718
3086.692	1.37145	0.14687
3085.19188	1.37151	0.14654
3083.69177	1.37155	0.14623
3082.19166	1.37158	0.1459
3080.69155	1.3716	0.14557
3079.19144	1.37161	0.14526
3077.69132	1.3716	0.14494
3076.19121	1.37159	0.14463
3074.6911	1.37156	0.14433
3073.19099	1.37155	0.14404
3071.69088	1.37153	0.14376
3070.19077	1.37151	0.14349
3068.69065	1.37151	0.14322
3067.19054	1.37151	0.14295
3065.69043	1.3715	0.14268
3064.19032	1.37148	0.14242
3062.69021	1.37145	0.14216
3061.19009	1.37143	0.14191
3059.68998	1.3714	0.14167
3058.18987	1.37137	0.14142
3056.68976	1.37133	0.14119
3055.18965	1.37129	0.14096
3053.68954	1.37126	0.14074
3052.18942	1.37124	0.14052
3050.68931	1.37122	0.14031
3049.1892	1.37121	0.1401
3047.68909	1.37119	0.1399
3046.18898	1.37117	0.13969
3044.68886	1.37116	0.13948
3043.18875	1.37114	0.13928
3041.68864	1.37113	0.13906
3040.18853	1.3711	0.13886
3038.68842	1.37107	0.13865
3037.18831	1.37104	0.13845
3035.68819	1.37102	0.13825
3034.18808	1.37098	0.13806
3032.68797	1.37094	0.13786
3031.18786	1.37089	0.13767
3029.68775	1.37082	0.1375
3028.18763	1.37077	0.13734
3026.68752	1.37072	0.1372
3025.18741	1.37068	0.13704
3023.6873	1.37064	0.13691
3022.18719	1.37063	0.13677
3020.68708	1.37061	0.13663
3019.18696	1.37062	0.13649
3017.68685	1.37063	0.13634
3016.18674	1.37065	0.13619
3014.68663	1.37065	0.13603
3013.18652	1.37063	0.13586
3011.68641	1.3706	0.1357
3010.18629	1.37057	0.13555
3008.68618	1.37052	0.13539
3007.18607	1.37045	0.13525
3005.68596	1.3704	0.13513
3004.18585	1.37035	0.13501
3002.68573	1.37032	0.1349
3001.18562	1.37029	0.1348
2999.68551	1.37028	0.1347
2998.1854	1.37028	0.1346
2996.68529	1.3703	0.13449
2995.18518	1.3703	0.13438
2993.68506	1.37031	0.13427
2992.18495	1.37032	0.13415
2990.68484	1.37032	0.13404
2989.18473	1.37031	0.13391
2987.68462	1.3703	0.1338
2986.1845	1.37027	0.13368
2984.68439	1.37025	0.13357
2983.18428	1.37022	0.13347
2981.68417	1.37021	0.13338
2980.18406	1.37018	0.13328
2978.68395	1.37016	0.1332
2977.18383	1.37015	0.13312
2975.68372	1.37015	0.13305
2974.18361	1.37015	0.13298
2972.6835	1.37017	0.13291
2971.18339	1.37018	0.13285
2969.68327	1.37021	0.13278
2968.18316	1.37025	0.1327
2966.68305	1.37029	0.13262
2965.18294	1.37034	0.13254
2963.68283	1.37038	0.13244
2962.18272	1.37042	0.13234
2960.6826	1.37045	0.13224
2959.18249	1.37049	0.13213
2957.68238	1.3705	0.13203
2956.18227	1.37051	0.13192
2954.68216	1.37052	0.13182
2953.18204	1.37052	0.13171
2951.68193	1.37051	0.13162
2950.18182	1.3705	0.13154
2948.68171	1.37049	0.13147
2947.1816	1.37048	0.13141
2945.68149	1.37047	0.13136
2944.18137	1.37047	0.13132
2942.68126	1.37047	0.13129
2941.18115	1.37049	0.13128
2939.68104	1.37053	0.13128
2938.18093	1.37058	0.13128
2936.68081	1.37067	0.13128
2935.1807	1.37078	0.13128
2933.68059	1.37092	0.13128
2932.18048	1.37109	0.13126
2930.68037	1.37129	0.13122
2929.18026	1.37152	0.13115
2927.68014	1.37176	0.13105
2926.18003	1.37202	0.1309
2924.67992	1.37229	0.1307
2923.17981	1.37255	0.13046
2921.6797	1.37278	0.13017
2920.17958	1.37298	0.12985
2918.67947	1.37312	0.12948
2917.17936	1.37318	0.12909
2915.67925	1.37317	0.12869
2914.17914	1.37308	0.12832
2912.67903	1.3729	0.12797
2911.17891	1.37269	0.12766
2909.6788	1.37244	0.12741
2908.17869	1.37219	0.1272
2906.67858	1.37195	0.12704
2905.17847	1.37172	0.12692
2903.67835	1.37154	0.12685
2902.17824	1.37137	0.1268
2900.67813	1.37125	0.12678
2899.17802	1.37115	0.12676
2897.67791	1.37107	0.12674
2896.1778	1.37101	0.12672
2894.67768	1.37093	0.1267
2893.17757	1.37087	0.12669
2891.67746	1.37082	0.12667
2890.17735	1.37076	0.12666
2888.67724	1.37071	0.12665
2887.17712	1.37066	0.12666
2885.67701	1.37062	0.12666
2884.1769	1.37059	0.12668
2882.67679	1.37059	0.12669
2881.17668	1.3706	0.12671
2879.67657	1.37062	0.12672
2878.17645	1.37065	0.12674
2876.67634	1.3707	0.12674
2875.17623	1.37077	0.12674
2873.67612	1.37082	0.12674
2872.17601	1.37087	0.12672
2870.67589	1.37092	0.12671
2869.17578	1.37096	0.12671
2867.67567	1.37103	0.1267
2866.17556	1.37109	0.1267
2864.67545	1.37117	0.1267
2863.17534	1.37128	0.12669
2861.67522	1.37143	0.12667
2860.17511	1.37161	0.12663
2858.675	1.37183	0.12656
2857.17489	1.37205	0.12644
2855.67478	1.37227	0.12628
2854.17466	1.37249	0.12608
2852.67455	1.37265	0.12585
2851.17444	1.37278	0.12558
2849.67433	1.37284	0.12529
2848.17422	1.37282	0.12499
2846.67411	1.37273	0.12471
2845.17399	1.37258	0.12446
2843.67388	1.37241	0.12425
2842.17377	1.37222	0.12408
2840.67366	1.37204	0.12396
2839.17355	1.37187	0.12386
2837.67343	1.37171	0.12381
2836.17332	1.37159	0.12378
2834.67321	1.37149	0.12377
2833.1731	1.37142	0.12378
2831.67299	1.37137	0.1238
2830.17288	1.37133	0.12382
2828.67276	1.37131	0.12383
2827.17265	1.3713	0.12385
2825.67254	1.3713	0.12386
2824.17243	1.37133	0.12388
2822.67232	1.37136	0.12389
2821.17221	1.37141	0.12389
2819.67209	1.37147	0.12389
2818.17198	1.37154	0.12386
2816.67187	1.37161	0.12383
2815.17176	1.37168	0.12379
2813.67165	1.37175	0.12374
2812.17153	1.37181	0.12368
2810.67142	1.37187	0.12362
2809.17131	1.37192	0.12355
2807.6712	1.37197	0.12349
2806.17109	1.37201	0.12341
2804.67098	1.37206	0.12334
2803.17086	1.37211	0.12327
2801.67075	1.37215	0.12321
2800.17064	1.37221	0.12313
2798.67053	1.37227	0.12305
2797.17042	1.37232	0.12296
2795.6703	1.37237	0.12288
2794.17019	1.37243	0.12279
2792.67008	1.37248	0.12269
2791.16997	1.37253	0.1226
2789.66986	1.37257	0.12249
2788.16975	1.3726	0.12239
2786.66963	1.37263	0.12228
2785.16952	1.37266	0.12218
2783.66941	1.3727	0.12208
2782.1693	1.37272	0.12199
2780.66919	1.37275	0.12188
2779.16907	1.37278	0.12178
2777.66896	1.37281	0.12167
2776.16885	1.37284	0.12157
2774.66874	1.37286	0.12146
2773.16863	1.37289	0.12135
2771.66852	1.37291	0.12124
2770.1684	1.37294	0.12114
2768.66829	1.37295	0.12103
2767.16818	1.37296	0.12092
2765.66807	1.37297	0.12081
2764.16796	1.37299	0.1207
2762.66784	1.373	0.1206
2761.16773	1.37303	0.12049
2759.66762	1.37305	0.12037
2758.16751	1.37307	0.12025
2756.6674	1.37311	0.12014
2755.16729	1.37313	0.12001
2753.66717	1.37316	0.11988
2752.16706	1.37318	0.11974
2750.66695	1.37318	0.11959
2749.16684	1.37319	0.11944
2747.66673	1.37317	0.11929
2746.16661	1.37315	0.11914
2744.6665	1.37312	0.11899
2743.16639	1.37308	0.11885
2741.66628	1.37303	0.11871
2740.16617	1.37298	0.11858
2738.66606	1.37292	0.11844
2737.16594	1.37287	0.11832
2735.66583	1.37281	0.1182
2734.16572	1.37277	0.11809
2732.66561	1.37271	0.11798
2731.1655	1.37265	0.11787
2729.66538	1.3726	0.11777
2728.16527	1.37255	0.11767
2726.66516	1.37249	0.11757
2725.16505	1.37244	0.11746
2723.66494	1.37238	0.11736
2722.16483	1.37232	0.11727
2720.66471	1.37226	0.11717
2719.1646	1.3722	0.11708
2717.66449	1.37214	0.11699
2716.16438	1.37208	0.1169
2714.66427	1.37202	0.11681
2713.16415	1.37195	0.11673
2711.66404	1.37189	0.11665
2710.16393	1.37183	0.11657
2708.66382	1.37176	0.11649
2707.16371	1.37169	0.11642
2705.6636	1.37163	0.11635
2704.16348	1.37157	0.11628
2702.66337	1.37152	0.11622
2701.16326	1.37146	0.11615
2699.66315	1.3714	0.11608
2698.16304	1.37136	0.11603
2696.66292	1.37131	0.11597
2695.16281	1.37126	0.11591
2693.6627	1.37122	0.11583
2692.16259	1.37116	0.11578
2690.66248	1.37111	0.11572
2689.16237	1.37107	0.11566
2687.66225	1.37103	0.1156
2686.16214	1.37099	0.11553
2684.66203	1.37096	0.11547
2683.16192	1.37093	0.1154
2681.66181	1.3709	0.11533
2680.16169	1.37088	0.11525
2678.66158	1.37085	0.11518
2677.16147	1.37081	0.11509
2675.66136	1.37077	0.115
2674.16125	1.37072	0.11491
2672.66114	1.37066	0.11482
2671.16102	1.3706	0.11474
2669.66091	1.37054	0.11466
2668.1608	1.37048	0.11457
2666.66069	1.3704	0.11449
2665.16058	1.37034	0.11442
2663.66046	1.37028	0.11436
2662.16035	1.37022	0.11429
2660.66024	1.37015	0.11421
2659.16013	1.3701	0.11415
2657.66002	1.37005	0.11408
2656.15991	1.37	0.11401
2654.65979	1.36995	0.11393
2653.15968	1.36991	0.11385
2651.65957	1.36985	0.11377
2650.15946	1.3698	0.11369
2648.65935	1.36974	0.11359
2647.15923	1.36967	0.1135
2645.65912	1.36959	0.1134
2644.15901	1.36951	0.11332
2642.6589	1.36943	0.11323
2641.15879	1.36933	0.11314
2639.65868	1.36924	0.11306
2638.15856	1.36915	0.11298
2636.65845	1.36904	0.11291
2635.15834	1.36895	0.11284
2633.65823	1.36885	0.11276
2632.15812	1.36874	0.1127
2630.658	1.36865	0.11264
2629.15789	1.36855	0.11258
2627.65778	1.36845	0.11252
2626.15767	1.36835	0.11247
2624.65756	1.36825	0.11241
2623.15745	1.36815	0.11236
2621.65733	1.36805	0.11231
2620.15722	1.36795	0.11226
2618.65711	1.36785	0.11221
2617.157	1.36776	0.11217
2615.65689	1.36767	0.11212
2614.15678	1.36756	0.11207
2612.65666	1.36747	0.11202
2611.15655	1.36737	0.11197
2609.65644	1.36726	0.11192
2608.15633	1.36716	0.11188
2606.65622	1.36705	0.11183
2605.1561	1.36694	0.11178
2603.65599	1.36681	0.11175
2602.15588	1.3667	0.11172
2600.65577	1.36657	0.11169
2599.15566	1.36646	0.11167
2597.65555	1.36635	0.11164
2596.15543	1.36623	0.11163
2594.65532	1.36612	0.11161
2593.15521	1.36602	0.1116
2591.6551	1.36592	0.11159
2590.15499	1.36583	0.11158
2588.65487	1.36574	0.11156
2587.15476	1.36563	0.11155
2585.65465	1.36553	0.11154
2584.15454	1.36544	0.11153
2582.65443	1.36534	0.11152
2581.15432	1.36525	0.1115
2579.6542	1.36516	0.11149
2578.15409	1.36505	0.11148
2576.65398	1.36496	0.11148
2575.15387	1.36488	0.11147
2573.65376	1.36479	0.11146
2572.15364	1.3647	0.11145
2570.65353	1.36461	0.11144
2569.15342	1.36452	0.11143
2567.65331	1.36444	0.11142
2566.1532	1.36436	0.11142
2564.65309	1.36427	0.11141
2563.15297	1.36419	0.1114
2561.65286	1.36411	0.11138
2560.15275	1.36403	0.11136
2558.65264	1.36395	0.11135
2557.15253	1.36388	0.11133
2555.65241	1.36381	0.1113
2554.1523	1.36373	0.11128
2552.65219	1.36365	0.11125
2551.15208	1.36356	0.11121
2549.65197	1.36348	0.11118
2548.15186	1.36339	0.11115
2546.65174	1.36329	0.11111
2545.15163	1.36319	0.11107
2543.65152	1.36308	0.11104
2542.15141	1.36298	0.111
2540.6513	1.36287	0.11096
2539.15118	1.36277	0.11093
2537.65107	1.36265	0.11089
2536.15096	1.36254	0.11085
2534.65085	1.36244	0.11082
2533.15074	1.36231	0.11078
2531.65063	1.3622	0.11074
2530.15051	1.36206	0.1107
2528.6504	1.36192	0.11066
2527.15029	1.36178	0.11062
2525.65018	1.36163	0.11059
2524.15007	1.36147	0.11057
2522.64995	1.36131	0.11054
2521.14984	1.36115	0.11052
2519.64973	1.36098	0.11051
2518.14962	1.3608	0.11051
2516.64951	1.36064	0.11052
2515.1494	1.36047	0.11053
2513.64928	1.36031	0.11054
2512.14917	1.36015	0.11055
2510.64906	1.35998	0.11058
2509.14895	1.35983	0.1106
2507.64884	1.35967	0.11063
2506.14872	1.35952	0.11065
2504.64861	1.35935	0.11068
2503.1485	1.35919	0.11071
2501.64839	1.35903	0.11075
2500.14828	1.35886	0.11079
2498.64817	1.35869	0.11083
2497.14805	1.35852	0.11089
2495.64794	1.35835	0.11094
2494.14783	1.35819	0.111
2492.64772	1.35803	0.11106
2491.14761	1.35786	0.11114
2489.64749	1.35771	0.11122
2488.14738	1.35755	0.1113
2486.64727	1.3574	0.11138
2485.14716	1.35726	0.11147
2483.64705	1.35712	0.11157
2482.14694	1.35699	0.11166
2480.64682	1.35686	0.11175
2479.14671	1.35675	0.11186
2477.6466	1.35664	0.11194
2476.14649	1.35654	0.11203
2474.64638	1.35643	0.11213
2473.14626	1.35633	0.1122
2471.64615	1.35624	0.11228
2470.14604	1.35613	0.11236
2468.64593	1.35602	0.11244
2467.14582	1.35591	0.11251
2465.64571	1.35581	0.11259
2464.14559	1.3557	0.11266
2462.64548	1.35558	0.11275
2461.14537	1.35547	0.11283
2459.64526	1.35536	0.1129
2458.14515	1.35526	0.11299
2456.64503	1.35515	0.11308
2455.14492	1.35506	0.11316
2453.64481	1.35497	0.11324
2452.1447	1.35488	0.11332
2450.64459	1.3548	0.11339
2449.14448	1.35471	0.11346
2447.64436	1.3546	0.11352
2446.14425	1.3545	0.11359
2444.64414	1.3544	0.11367
2443.14403	1.35429	0.11373
2441.64392	1.35417	0.1138
2440.1438	1.35405	0.11386
2438.64369	1.35394	0.11394
2437.14358	1.35382	0.11402
2435.64347	1.35371	0.1141
2434.14336	1.35359	0.11419
2432.64325	1.35348	0.11426
2431.14313	1.35337	0.11435
2429.64302	1.35325	0.11444
2428.14291	1.35314	0.11452
2426.6428	1.35302	0.1146
2425.14269	1.35291	0.11469
2423.64258	1.35279	0.11478
2422.14246	1.35267	0.11487
2420.64235	1.35256	0.11496
2419.14224	1.35243	0.11505
2417.64213	1.3523	0.11515
2416.14202	1.35217	0.11524
2414.6419	1.35203	0.11535
2413.14179	1.35189	0.11546
2411.64168	1.35175	0.11557
2410.14157	1.35161	0.1157
2408.64146	1.35146	0.11583
2407.14135	1.35132	0.11597
2405.64123	1.35119	0.11613
2404.14112	1.35107	0.11629
2402.64101	1.35096	0.11645
2401.1409	1.35085	0.11662
2399.64079	1.35076	0.11679
2398.14067	1.35068	0.11697
2396.64056	1.35061	0.11714
2395.14045	1.35055	0.11731
2393.64034	1.35049	0.11747
2392.14023	1.35043	0.11764
2390.64012	1.35039	0.11779
2389.14	1.35035	0.11795
2387.63989	1.3503	0.11809
2386.13978	1.35027	0.11824
2384.63967	1.35022	0.11838
2383.13956	1.35019	0.11853
2381.63944	1.35015	0.11866
2380.13933	1.35011	0.1188
2378.63922	1.35007	0.11893
2377.13911	1.35004	0.11906
2375.639	1.35	0.11919
2374.13889	1.34997	0.11931
2372.63877	1.34994	0.11945
2371.13866	1.34991	0.11957
2369.63855	1.34987	0.11969
2368.13844	1.34983	0.11981
2366.63833	1.3498	0.11994
2365.13821	1.34977	0.12005
2363.6381	1.34974	0.12018
2362.13799	1.34971	0.12029
2360.63788	1.34968	0.12041
2359.13777	1.34965	0.12053
2357.63766	1.34962	0.12064
2356.13754	1.3496	0.12076
2354.63743	1.34956	0.12086
2353.13732	1.34953	0.12098
2351.63721	1.3495	0.12109
2350.1371	1.34948	0.1212
2348.63698	1.34945	0.12131
2347.13687	1.34942	0.12142
2345.63676	1.3494	0.12153
2344.13665	1.34937	0.12164
2342.63654	1.34934	0.12175
2341.13643	1.34931	0.12185
2339.63631	1.34928	0.12196
2338.1362	1.34926	0.12206
2336.63609	1.34923	0.12217
2335.13598	1.34921	0.12227
2333.63587	1.34918	0.12238
2332.13575	1.34916	0.12248
2330.63564	1.34913	0.12259
2329.13553	1.34911	0.12268
2327.63542	1.34907	0.12279
2326.13531	1.34905	0.12289
2324.6352	1.34903	0.12299
2323.13508	1.349	0.12309
2321.63497	1.34898	0.12319
2320.13486	1.34895	0.12329
2318.63475	1.34893	0.12339
2317.13464	1.34891	0.12349
2315.63452	1.34888	0.12358
2314.13441	1.34885	0.12369
2312.6343	1.34883	0.12378
2311.13419	1.34881	0.12387
2309.63408	1.34879	0.12397
2308.13397	1.34876	0.12407
2306.63385	1.34874	0.12416
2305.13374	1.34872	0.12426
2303.63363	1.3487	0.12435
2302.13352	1.34868	0.12444
2300.63341	1.34865	0.12454
2299.13329	1.34863	0.12463
2297.63318	1.34861	0.12472
2296.13307	1.34859	0.12482
2294.63296	1.34856	0.1249
2293.13285	1.34854	0.12499
2291.63274	1.34852	0.12509
2290.13262	1.3485	0.12517
2288.63251	1.34848	0.12526
2287.1324	1.34846	0.12535
2285.63229	1.34844	0.12544
2284.13218	1.34842	0.12552
2282.63206	1.3484	0.1256
2281.13195	1.34838	0.12568
2279.63184	1.34836	0.12577
2278.13173	1.34835	0.12585
2276.63162	1.34832	0.12591
2275.13151	1.3483	0.12599
2273.63139	1.34827	0.12606
2272.13128	1.34824	0.12613
2270.63117	1.3482	0.12621
2269.13106	1.34816	0.12627
2267.63095	1.34811	0.12635
2266.13083	1.34806	0.12643
2264.63072	1.34801	0.12652
2263.13061	1.34795	0.1266
2261.6305	1.3479	0.12669
2260.13039	1.34785	0.1268
2258.63028	1.3478	0.1269
2257.13016	1.34776	0.12701
2255.63005	1.34773	0.12712
2254.12994	1.3477	0.12723
2252.62983	1.34768	0.12735
2251.12972	1.34767	0.12746
2249.6296	1.34766	0.12757
2248.12949	1.34765	0.12767
2246.62938	1.34765	0.12778
2245.12927	1.34765	0.12787
2243.62916	1.34766	0.12796
2242.12905	1.34766	0.12806
2240.62893	1.34766	0.12814
2239.12882	1.34765	0.12824
2237.62871	1.34765	0.12832
2236.1286	1.34766	0.1284
2234.62849	1.34766	0.12848
2233.12838	1.34766	0.12856
2231.62826	1.34767	0.12863
2230.12815	1.34768	0.12871
2228.62804	1.34768	0.12878
2227.12793	1.3477	0.12885
2225.62782	1.34772	0.12891
2224.1277	1.34773	0.12896
2222.62759	1.34775	0.12902
2221.12748	1.34776	0.12907
2219.62737	1.34778	0.12911
2218.12726	1.34779	0.12916
2216.62715	1.34782	0.12919
2215.12703	1.34783	0.1292
2213.62692	1.34784	0.12922
2212.12681	1.34785	0.12923
2210.6267	1.34785	0.12924
2209.12659	1.34784	0.12923
2207.62647	1.34783	0.12923
2206.12636	1.34779	0.12922
2204.62625	1.34776	0.12922
2203.12614	1.34771	0.12921
2201.62603	1.34766	0.12921
2200.12592	1.34761	0.1292
2198.6258	1.34755	0.1292
2197.12569	1.34748	0.1292
2195.62558	1.34742	0.1292
2194.12547	1.34735	0.12921
2192.62536	1.34729	0.12922
2191.12524	1.34722	0.12922
2189.62513	1.34714	0.12922
2188.12502	1.34706	0.12923
2186.62491	1.34698	0.12924
2185.1248	1.34689	0.12925
2183.62469	1.3468	0.12926
2182.12457	1.34672	0.12927
2180.62446	1.34661	0.12928
2179.12435	1.34651	0.12929
2177.62424	1.34641	0.12931
2176.12413	1.34631	0.12934
2174.62401	1.34619	0.12936
2173.1239	1.34608	0.12939
2171.62379	1.34596	0.12942
2170.12368	1.34584	0.12945
2168.62357	1.34572	0.1295
2167.12346	1.34561	0.12955
2165.62334	1.3455	0.12959
2164.12323	1.3454	0.12964
2162.62312	1.34529	0.12969
2161.12301	1.3452	0.12974
2159.6229	1.3451	0.12977
2158.12278	1.34499	0.12982
2156.62267	1.34488	0.12986
2155.12256	1.34476	0.1299
2153.62245	1.34464	0.12995
2152.12234	1.34453	0.12999
2150.62223	1.34439	0.13004
2149.12211	1.34426	0.13009
2147.622	1.34413	0.13015
2146.12189	1.344	0.13022
2144.62178	1.34387	0.13029
2143.12167	1.34376	0.13036
2141.62155	1.34364	0.13044
2140.12144	1.34353	0.13051
2138.62133	1.34343	0.13058
2137.12122	1.34334	0.13064
2135.62111	1.34324	0.13072
2134.121	1.34315	0.13077
2132.62088	1.34306	0.13082
2131.12077	1.34296	0.13087
2129.62066	1.34286	0.13091
2128.12055	1.34275	0.13096
2126.62044	1.34263	0.131
2125.12032	1.34251	0.13105
2123.62021	1.3424	0.13108
2122.1201	1.34228	0.13112
2120.61999	1.34215	0.13117
2119.11988	1.34202	0.1312
2117.61977	1.34189	0.13125
2116.11965	1.34177	0.13129
2114.61954	1.34164	0.13133
2113.11943	1.34151	0.13138
2111.61932	1.34138	0.13141
2110.11921	1.34126	0.13144
2108.61909	1.34113	0.13147
2107.11898	1.34099	0.1315
2105.61887	1.34085	0.13152
2104.11876	1.3407	0.13154
2102.61865	1.34054	0.13155
2101.11854	1.34038	0.13157
2099.61842	1.34021	0.13159
2098.11831	1.34003	0.13161
2096.6182	1.33984	0.13163
2095.11809	1.33965	0.13166
2093.61798	1.33944	0.13168
2092.11786	1.33924	0.13171
2090.61775	1.33904	0.13174
2089.11764	1.33883	0.13177
2087.61753	1.33862	0.13181
2086.11742	1.3384	0.13186
2084.61731	1.33817	0.13189
2083.11719	1.33794	0.13194
2081.61708	1.33771	0.132
2080.11697	1.33746	0.13205
2078.61686	1.33721	0.13211
2077.11675	1.33696	0.13218
2075.61663	1.33671	0.13226
2074.11652	1.33646	0.13233
2072.61641	1.33623	0.13241
2071.1163	1.33598	0.13249
2069.61619	1.33573	0.13257
2068.11608	1.33548	0.13266
2066.61596	1.33522	0.13274
2065.11585	1.33495	0.13282
2063.61574	1.33467	0.13292
2062.11563	1.33439	0.13301
2060.61552	1.33409	0.13312
2059.1154	1.3338	0.13323
2057.61529	1.3335	0.13336
2056.11518	1.3332	0.13349
2054.61507	1.33291	0.13364
2053.11496	1.33262	0.13378
2051.61485	1.33234	0.13394
2050.11473	1.33206	0.13409
2048.61462	1.33178	0.13425
2047.11451	1.33151	0.13441
2045.6144	1.33123	0.13458
2044.11429	1.33096	0.13474
2042.61418	1.33068	0.1349
2041.11406	1.33039	0.13508
2039.61395	1.33009	0.13525
2038.11384	1.3298	0.13543
2036.61373	1.32951	0.13561
2035.11362	1.32922	0.1358
2033.6135	1.32892	0.13601
2032.11339	1.32862	0.13621
2030.61328	1.32834	0.13642
2029.11317	1.32806	0.13664
2027.61306	1.32779	0.13685
2026.11295	1.32753	0.13707
2024.61283	1.32727	0.13728
2023.11272	1.32701	0.13749
2021.61261	1.32675	0.1377
2020.1125	1.32649	0.13791
2018.61239	1.32623	0.13811
2017.11227	1.32596	0.1383
2015.61216	1.32568	0.1385
2014.11205	1.32539	0.1387
2012.61194	1.32509	0.1389
2011.11183	1.32478	0.13911
2009.61172	1.32447	0.13932
2008.1116	1.32415	0.13954
2006.61149	1.32382	0.13977
2005.11138	1.3235	0.14001
2003.61127	1.32318	0.14026
2002.11116	1.32287	0.14051
2000.61104	1.32257	0.14076
1999.11093	1.32226	0.14102
1997.61082	1.32197	0.14127
1996.11071	1.32168	0.14152
1994.6106	1.32139	0.14177
1993.11049	1.3211	0.14201
1991.61037	1.32079	0.14223
1990.11026	1.32045	0.14247
1988.61015	1.3201	0.14271
1987.11004	1.31973	0.14296
1985.60993	1.31934	0.14321
1984.10981	1.31894	0.14347
1982.6097	1.31853	0.14377
1981.10959	1.31811	0.14407
1979.60948	1.31771	0.1444
1978.10937	1.3173	0.14474
1976.60926	1.31691	0.1451
1975.10914	1.31654	0.14546
1973.60903	1.31617	0.14583
1972.10892	1.3158	0.14621
1970.60881	1.31544	0.14658
1969.1087	1.31508	0.14696
1967.60858	1.31473	0.14734
1966.10847	1.31435	0.14772
1964.60836	1.31396	0.1481
1963.10825	1.31357	0.1485
1961.60814	1.31317	0.14891
1960.10803	1.31276	0.14933
1958.60791	1.31234	0.14977
1957.1078	1.31193	0.15024
1955.60769	1.31151	0.15072
1954.10758	1.31112	0.1512
1952.60747	1.31075	0.15171
1951.10735	1.31039	0.15222
1949.60724	1.31004	0.15274
1948.10713	1.3097	0.15325
1946.60702	1.30936	0.15377
1945.10691	1.30904	0.15429
1943.6068	1.3087	0.15481
1942.10668	1.30835	0.15531
1940.60657	1.30798	0.15584
1939.10646	1.30759	0.15638
1937.60635	1.3072	0.15695
1936.10624	1.3068	0.15754
1934.60612	1.30642	0.15815
1933.10601	1.30604	0.15877
1931.6059	1.30568	0.15943
1930.10579	1.30534	0.16009
1928.60568	1.30505	0.16078
1927.10557	1.30479	0.16145
1925.60545	1.30454	0.16214
1924.10534	1.3043	0.16281
1922.60523	1.30407	0.16347
1921.10512	1.30384	0.16413
1919.60501	1.30361	0.16478
1918.10489	1.30337	0.16543
1916.60478	1.30312	0.16607
1915.10467	1.30284	0.16672
1913.60456	1.30256	0.16739
1912.10445	1.30229	0.16808
1910.60434	1.30203	0.16877
1909.10422	1.30176	0.16948
1907.60411	1.30148	0.1702
1906.104	1.30121	0.17094
1904.60389	1.30095	0.17171
1903.10378	1.3007	0.1725
1901.60366	1.30047	0.17331
1900.10355	1.30026	0.17412
1898.60344	1.30007	0.17495
1897.10333	1.29991	0.17577
1895.60322	1.29977	0.17661
1894.10311	1.29965	0.17743
1892.60299	1.29955	0.17826
1891.10288	1.29946	0.17908
1889.60277	1.29937	0.17988
1888.10266	1.29927	0.18068
1886.60255	1.29914	0.18149
1885.10243	1.29899	0.18232
1883.60232	1.29883	0.18316
1882.10221	1.29867	0.18405
1880.6021	1.29853	0.18497
1879.10199	1.29843	0.18591
1877.60188	1.29839	0.18685
1876.10176	1.29838	0.1878
1874.60165	1.29844	0.18875
1873.10154	1.29852	0.18968
1871.60143	1.29865	0.19061
1870.10132	1.2988	0.19149
1868.6012	1.29895	0.19233
1867.10109	1.29904	0.19314
1865.60098	1.29908	0.19394
1864.10087	1.29908	0.19476
1862.60076	1.29906	0.1956
1861.10065	1.29901	0.19648
1859.60053	1.29895	0.19738
1858.10042	1.29889	0.19834
1856.60031	1.29886	0.19934
1855.1002	1.29889	0.20038
1853.60009	1.29901	0.20142
1852.09997	1.29919	0.20248
1850.59986	1.29942	0.20353
1849.09975	1.29968	0.20458
1847.59964	1.29999	0.20559
1846.09953	1.30032	0.20657
1844.59942	1.30064	0.20752
1843.0993	1.30091	0.20845
1841.59919	1.30114	0.20938
1840.09908	1.30136	0.21034
1838.59897	1.3016	0.2113
1837.09886	1.30187	0.21228
1835.59875	1.30216	0.21325
1834.09863	1.30249	0.21423
1832.59852	1.30285	0.21521
1831.09841	1.30328	0.21619
1829.5983	1.30374	0.21713
1828.09819	1.30417	0.21805
1826.59807	1.30459	0.21895
1825.09796	1.30495	0.21985
1823.59785	1.3053	0.22075
1822.09774	1.30562	0.22166
1820.59763	1.30592	0.2226
1819.09752	1.30624	0.22355
1817.5974	1.30657	0.22454
1816.09729	1.30694	0.22556
1814.59718	1.30734	0.22663
1813.09707	1.30779	0.22772
1811.59696	1.30829	0.22881
1810.09684	1.30884	0.22989
1808.59673	1.30942	0.23098
1807.09662	1.31001	0.23205
1805.59651	1.31063	0.23316
1804.0964	1.3113	0.23426
1802.59629	1.31204	0.23533
1801.09617	1.31285	0.23635
1799.59606	1.31366	0.23732
1798.09595	1.31449	0.23826
1796.59584	1.31531	0.23919
1795.09573	1.31616	0.2401
1793.59561	1.31702	0.241
1792.0955	1.31785	0.24183
1790.59539	1.31861	0.24262
1789.09528	1.3193	0.24344
1787.59517	1.31997	0.24432
1786.09506	1.32065	0.24527
1784.59494	1.32137	0.24628
1783.09483	1.32216	0.24731
1781.59472	1.32304	0.24832
1780.09461	1.324	0.24932
1778.5945	1.32507	0.25031
1777.09438	1.32622	0.25129
1775.59427	1.32745	0.25224
1774.09416	1.32873	0.25312
1772.59405	1.33004	0.25389
1771.09394	1.33128	0.25456
1769.59383	1.33242	0.25518
1768.09371	1.3335	0.25579
1766.5936	1.33454	0.25643
1765.09349	1.33555	0.2571
1763.59338	1.33657	0.25783
1762.09327	1.3376	0.25856
1760.59315	1.33868	0.2593
1759.09304	1.33984	0.26005
1757.59293	1.34111	0.26083
1756.09282	1.34246	0.26161
1754.59271	1.34389	0.26235
1753.0926	1.34539	0.26307
1751.59248	1.34695	0.26371
1750.09237	1.34854	0.26425
1748.59226	1.35012	0.26471
1747.09215	1.35166	0.26515
1745.59204	1.35319	0.26556
1744.09192	1.35479	0.26592
1742.59181	1.35646	0.2662
1741.0917	1.35815	0.26638
1739.59159	1.35982	0.26646
1738.09148	1.36145	0.26647
1736.59137	1.36309	0.26644
1735.09125	1.36472	0.26635
1733.59114	1.36624	0.26617
1732.09103	1.36757	0.26598
1730.59092	1.36874	0.26583
1729.09081	1.36985	0.26575
1727.59069	1.37101	0.26572
1726.09058	1.37227	0.26571
1724.59047	1.37361	0.2657
1723.09036	1.37502	0.26566
1721.59025	1.37654	0.26561
1720.09014	1.37819	0.26554
1718.59002	1.37993	0.26541
1717.08991	1.38163	0.26512
1715.5898	1.38318	0.26471
1714.08969	1.38456	0.26428
1712.58958	1.38584	0.26388
1711.08946	1.38712	0.26352
1709.58935	1.38846	0.26314
1708.08924	1.3899	0.26271
1706.58913	1.39144	0.26219
1705.08902	1.39304	0.26156
1703.58891	1.39471	0.26086
1702.08879	1.39642	0.2601
1700.58868	1.39807	0.2592
1699.08857	1.39951	0.25815
1697.58846	1.40068	0.25707
1696.08835	1.40164	0.25595
1694.58823	1.40244	0.25482
1693.08812	1.40316	0.25373
1691.58801	1.40385	0.25272
1690.0879	1.40454	0.25181
1688.58779	1.40524	0.25095
1687.08768	1.40604	0.25016
1685.58756	1.40697	0.24936
1684.08745	1.40789	0.2485
1682.58734	1.40867	0.24758
1681.08723	1.40935	0.24668
1679.58712	1.41	0.24582
1678.087	1.41065	0.24496
1676.58689	1.41129	0.2441
1675.08678	1.41186	0.24321
1673.58667	1.41236	0.24231
1672.08656	1.41287	0.24145
1670.58645	1.41341	0.24065
1669.08633	1.41389	0.23992
1667.58622	1.41425	0.23929
1666.08611	1.41454	0.2388
1664.586	1.41495	0.23836
1663.08589	1.41554	0.23791
1661.58577	1.41625	0.23745
1660.08566	1.41704	0.23703
1658.58555	1.41801	0.2366
1657.08544	1.41927	0.23609
1655.58533	1.4208	0.23543
1654.08522	1.42242	0.2345
1652.5851	1.42382	0.23327
1651.08499	1.42488	0.23191
1649.58488	1.42576	0.23057
1648.08477	1.42656	0.22921
1646.58466	1.42725	0.22773
1645.08455	1.42775	0.22617
1643.58443	1.42803	0.22462
1642.08432	1.42823	0.22317
1640.58421	1.42852	0.22185
1639.0841	1.42896	0.22062
1637.58399	1.42951	0.21939
1636.08387	1.43001	0.21803
1634.58376	1.43038	0.21656
1633.08365	1.43066	0.2151
1631.58354	1.4309	0.21372
1630.08343	1.43112	0.21237
1628.58332	1.43134	0.21097
1627.0832	1.43154	0.20947
1625.58309	1.43169	0.20791
1624.08298	1.43179	0.2063
1622.58287	1.43185	0.20469
1621.08276	1.43188	0.2031
1619.58264	1.43185	0.20152
1618.08253	1.43176	0.19986
1616.58242	1.43151	0.19813
1615.08231	1.43104	0.19637
1613.5822	1.4304	0.19468
1612.08209	1.42966	0.19308
1610.58197	1.42889	0.19157
1609.08186	1.42808	0.19013
1607.58175	1.42719	0.18875
1606.08164	1.42623	0.18744
1604.58153	1.42527	0.18621
1603.08141	1.42434	0.18505
1601.5813	1.42342	0.18398
1600.08119	1.42246	0.18295
1598.58108	1.4215	0.18196
1597.08097	1.4205	0.181
1595.58086	1.41949	0.18009
1594.08074	1.41844	0.17924
1592.58063	1.41736	0.17846
1591.08052	1.41624	0.17775
1589.58041	1.4151	0.17713
1588.0803	1.41402	0.17658
1586.58018	1.41299	0.17607
1585.08007	1.41202	0.1756
1583.57996	1.41107	0.17517
1582.07985	1.41017	0.17479
1580.57974	1.40935	0.17443
1579.07963	1.40862	0.17405
1577.57951	1.40792	0.17364
1576.0794	1.40715	0.17318
1574.57929	1.40624	0.17276
1573.07918	1.40523	0.17248
1571.57907	1.40428	0.17231
1570.07895	1.40348	0.17212
1568.57884	1.40279	0.17187
1567.07873	1.40215	0.17157
1565.57862	1.40156	0.17124
1564.07851	1.40108	0.17093
1562.5784	1.40071	0.17057
1561.07828	1.40043	0.17013
1559.57817	1.40004	0.1695
1558.07806	1.3993	0.16872
1556.57795	1.39819	0.168
1555.07784	1.39689	0.16749
1553.57772	1.39551	0.16717
1552.07761	1.39418	0.16698
1550.5775	1.39297	0.16683
1549.07739	1.39187	0.16672
1547.57728	1.3909	0.16669
1546.07717	1.39018	0.16673
1544.57705	1.38973	0.16678
1543.07694	1.38941	0.16673
1541.57683	1.38905	0.1665
1540.07672	1.38846	0.16611
1538.57661	1.38756	0.16568
1537.07649	1.38642	0.16532
1535.57638	1.3852	0.16512
1534.07627	1.38395	0.165
1532.57616	1.38267	0.16494
1531.07605	1.38142	0.16497
1529.57594	1.3803	0.16512
1528.07582	1.37939	0.16536
1526.57571	1.3787	0.16563
1525.0756	1.37814	0.1659
1523.57549	1.3776	0.1661
1522.07538	1.377	0.16624
1520.57526	1.37631	0.16634
1519.07515	1.37558	0.16645
1517.57504	1.37487	0.16651
1516.07493	1.37417	0.16652
1514.57482	1.37343	0.16652
1513.07471	1.37269	0.16656
1511.57459	1.37197	0.16663
1510.07448	1.37134	0.16672
1508.57437	1.3708	0.16675
1507.07426	1.37024	0.16667
1505.57415	1.36947	0.16652
1504.07403	1.36851	0.16645
1502.57392	1.36749	0.1665
1501.07381	1.3665	0.16663
1499.5737	1.36556	0.16676
1498.07359	1.36464	0.16687
1496.57348	1.36368	0.16698
1495.07336	1.36269	0.16714
1493.57325	1.36179	0.1674
1492.07314	1.36102	0.16775
1490.57303	1.36027	0.16811
1489.07292	1.35944	0.16841
1487.5728	1.35851	0.16872
1486.07269	1.35754	0.16908
1484.57258	1.35662	0.16952
1483.07247	1.35582	0.17
1481.57236	1.35514	0.17049
1480.07225	1.3545	0.17097
1478.57213	1.35392	0.17144
1477.07202	1.35344	0.17188
1475.57191	1.35302	0.17229
1474.0718	1.35263	0.17262
1472.57169	1.35214	0.1729
1471.07157	1.35151	0.17317
1469.57146	1.35081	0.17349
1468.07135	1.35016	0.17382
1466.57124	1.34958	0.17413
1465.07113	1.34905	0.17438
1463.57102	1.34849	0.1746
1462.0709	1.34793	0.17484
1460.57079	1.34745	0.17509
1459.07068	1.34707	0.1753
1457.57057	1.34667	0.17541
1456.07046	1.34607	0.17541
1454.57035	1.34525	0.17541
1453.07023	1.3443	0.17547
1451.57012	1.3433	0.17565
1450.07001	1.34227	0.17592
1448.5699	1.34123	0.17624
1447.06979	1.34018	0.17659
1445.56967	1.33917	0.17702
1444.06956	1.33827	0.17755
1442.56945	1.33749	0.17816
1441.06934	1.3368	0.17878
1439.56923	1.3362	0.17939
1438.06912	1.33564	0.17992
1436.569	1.33505	0.18041
1435.06889	1.33441	0.18086
1433.56878	1.33372	0.18134
1432.06867	1.33304	0.18185
1430.56856	1.33238	0.18236
1429.06844	1.33172	0.18284
1427.56833	1.33106	0.18331
1426.06822	1.33042	0.18377
1424.56811	1.32982	0.18424
1423.068	1.32925	0.18471
1421.56789	1.32872	0.18517
1420.06777	1.32817	0.18559
1418.56766	1.32755	0.18596
1417.06755	1.32684	0.18632
1415.56744	1.32607	0.18672
1414.06733	1.32526	0.18716
1412.56721	1.32442	0.18763
1411.0671	1.32359	0.18815
1409.56699	1.32276	0.18871
1408.06688	1.32198	0.1893
1406.56677	1.32127	0.18992
1405.06666	1.32064	0.19055
1403.56654	1.32006	0.19116
1402.06643	1.31948	0.19176
1400.56632	1.31892	0.19234
1399.06621	1.31836	0.19288
1397.5661	1.31778	0.19338
1396.06598	1.31717	0.19384
1394.56587	1.31649	0.19429
1393.06576	1.31576	0.19472
1391.56565	1.31499	0.1952
1390.06554	1.31419	0.19572
1388.56543	1.31338	0.19625
1387.06531	1.31254	0.19681
1385.5652	1.31169	0.19739
1384.06509	1.31084	0.19801
1382.56498	1.31002	0.19867
1381.06487	1.30923	0.19937
1379.56475	1.30847	0.20008
1378.06464	1.30773	0.20081
1376.56453	1.307	0.20153
1375.06442	1.30629	0.20225
1373.56431	1.30559	0.20297
1372.0642	1.30489	0.20368
1370.56408	1.30418	0.2044
1369.06397	1.30347	0.20512
1367.56386	1.30276	0.20584
1366.06375	1.30205	0.20658
1364.56364	1.30135	0.2073
1363.06352	1.30063	0.20801
1361.56341	1.2999	0.20873
1360.0633	1.29915	0.20945
1358.56319	1.29839	0.21022
1357.06308	1.29763	0.21099
1355.56297	1.29686	0.21179
1354.06285	1.2961	0.21259
1352.56274	1.29533	0.21343
1351.06263	1.29457	0.21427
1349.56252	1.29384	0.21514
1348.06241	1.29315	0.21602
1346.56229	1.29248	0.2169
1345.06218	1.29184	0.21778
1343.56207	1.29121	0.21865
1342.06196	1.29059	0.21951
1340.56185	1.28999	0.22036
1339.06174	1.28937	0.22119
1337.56162	1.28874	0.22199
1336.06151	1.2881	0.22279
1334.5614	1.28744	0.2236
1333.06129	1.28677	0.22441
1331.56118	1.2861	0.22522
1330.06106	1.28544	0.22603
1328.56095	1.28477	0.22682
1327.06084	1.28412	0.22761
1325.56073	1.28347	0.22839
1324.06062	1.28282	0.22917
1322.56051	1.28218	0.22993
1321.06039	1.28153	0.23066
1319.56028	1.28085	0.23136
1318.06017	1.28014	0.23204
1316.56006	1.2794	0.23271
1315.05995	1.27863	0.23336
1313.55983	1.27781	0.23399
1312.05972	1.27696	0.23461
1310.55961	1.27606	0.23524
1309.0595	1.27511	0.23587
1307.55939	1.27412	0.2365
1306.05928	1.2731	0.23714
1304.55916	1.27203	0.23777
1303.05905	1.27092	0.23843
1301.55894	1.26976	0.23909
1300.05883	1.26856	0.23976
1298.55872	1.26732	0.24046
1297.0586	1.26602	0.24118
1295.55849	1.26467	0.24191
1294.05838	1.26326	0.24265
1292.55827	1.26181	0.24343
1291.05816	1.26028	0.24424
1289.55805	1.25872	0.24508
1288.05793	1.25708	0.24597
1286.55782	1.25539	0.24688
1285.05771	1.25363	0.24786
1283.5576	1.25181	0.24888
1282.05749	1.24991	0.24997
1280.55737	1.24797	0.25112
1279.05726	1.24595	0.25235
1277.55715	1.24388	0.25366
1276.05704	1.24175	0.25506
1274.55693	1.23957	0.25655
1273.05682	1.23734	0.25814
1271.5567	1.23507	0.25983
1270.05659	1.23276	0.26163
1268.55648	1.23041	0.26355
1267.05637	1.22802	0.26559
1265.55626	1.22561	0.26776
1264.05615	1.22317	0.27008
1262.55603	1.22072	0.27254
1261.05592	1.21826	0.27514
1259.55581	1.21579	0.2779
1258.0557	1.21334	0.28083
1256.55559	1.21093	0.28394
1255.05547	1.20855	0.28721
1253.55536	1.20624	0.29065
1252.05525	1.20398	0.29428
1250.55514	1.2018	0.29807
1249.05503	1.19974	0.30204
1247.55492	1.19779	0.30618
1246.0548	1.19596	0.31047
1244.55469	1.19428	0.31492
1243.05458	1.19276	0.3195
1241.55447	1.19141	0.32422
1240.05436	1.19025	0.32905
1238.55424	1.18927	0.33398
1237.05413	1.18849	0.33898
1235.55402	1.18791	0.34405
1234.05391	1.18755	0.34916
1232.5538	1.18739	0.35429
1231.05369	1.18742	0.35943
1229.55357	1.18765	0.36457
1228.05346	1.18807	0.36967
1226.55335	1.18867	0.37474
1225.05324	1.18943	0.37975
1223.55313	1.19035	0.38469
1222.05301	1.1914	0.38956
1220.5529	1.19258	0.39436
1219.05279	1.19388	0.39906
1217.55268	1.19527	0.40369
1216.05257	1.19674	0.40822
1214.55246	1.19828	0.41269
1213.05234	1.19988	0.41706
1211.55223	1.20151	0.42138
1210.05212	1.20318	0.42564
1208.55201	1.20488	0.42986
1207.0519	1.2066	0.43403
1205.55178	1.20836	0.4382
1204.05167	1.21014	0.44234
1202.55156	1.21196	0.44649
1201.05145	1.21381	0.45064
1199.55134	1.2157	0.45481
1198.05123	1.21767	0.459
1196.55111	1.21968	0.46323
1195.051	1.22177	0.46749
1193.55089	1.22395	0.47178
1192.05078	1.22623	0.47611
1190.55067	1.22863	0.48046
1189.05055	1.23116	0.48485
1187.55044	1.23384	0.48926
1186.05033	1.23668	0.49368
1184.55022	1.23969	0.49808
1183.05011	1.24288	0.50246
1181.55	1.24626	0.5068
1180.04988	1.24982	0.51108
1178.54977	1.25359	0.51527
1177.04966	1.25754	0.51937
1175.54955	1.26167	0.52333
1174.04944	1.26597	0.52716
1172.54932	1.27043	0.53082
1171.04921	1.27503	0.5343
1169.5491	1.27976	0.5376
1168.04899	1.28459	0.54069
1166.54888	1.28951	0.54358
1165.04877	1.2945	0.54625
1163.54865	1.29952	0.54869
1162.04854	1.30458	0.55094
1160.54843	1.30965	0.55296
1159.04832	1.31471	0.55477
1157.54821	1.31973	0.55638
1156.04809	1.32471	0.55778
1154.54798	1.32963	0.559
1153.04787	1.33449	0.56004
1151.54776	1.33925	0.56091
1150.04765	1.34393	0.56162
1148.54754	1.34849	0.5622
1147.04742	1.35293	0.56264
1145.54731	1.35725	0.56298
1144.0472	1.36145	0.56322
1142.54709	1.36551	0.56338
1141.04698	1.36945	0.56347
1139.54686	1.37325	0.56352
1138.04675	1.37692	0.56353
1136.54664	1.38047	0.56353
1135.04653	1.3839	0.56352
1133.54642	1.38722	0.56352
1132.04631	1.39043	0.56355
1130.54619	1.39355	0.56361
1129.04608	1.39658	0.56371
1127.54597	1.39955	0.56387
1126.04586	1.40246	0.5641
1124.54575	1.40533	0.56439
1123.04563	1.4082	0.56474
1121.54552	1.41104	0.56517
1120.04541	1.4139	0.56567
1118.5453	1.41679	0.56621
1117.04519	1.41972	0.56682
1115.54508	1.4227	0.56746
1114.04496	1.42574	0.56813
1112.54485	1.42884	0.56883
1111.04474	1.43202	0.56951
1109.54463	1.43528	0.5702
1108.04452	1.43861	0.57085
1106.5444	1.44201	0.57147
1105.04429	1.44548	0.57203
1103.54418	1.449	0.57252
1102.04407	1.45257	0.57293
1100.54396	1.45617	0.57325
1099.04385	1.45979	0.57347
1097.54373	1.4634	0.5736
1096.04362	1.467	0.57363
1094.54351	1.47057	0.57356
1093.0434	1.47408	0.5734
1091.54329	1.47752	0.57316
1090.04317	1.48087	0.57285
1088.54306	1.48413	0.57249
1087.04295	1.48726	0.5721
1085.54284	1.49029	0.57169
1084.04273	1.4932	0.5713
1082.54262	1.49598	0.57094
1081.0425	1.49864	0.57064
1079.54239	1.50119	0.57044
1078.04228	1.50364	0.57036
1076.54217	1.506	0.57045
1075.04206	1.50829	0.57071
1073.54194	1.51056	0.57119
1072.04183	1.51285	0.57191
1070.54172	1.5152	0.5729
1069.04161	1.51769	0.57416
1067.5415	1.52038	0.57569
1066.04139	1.52335	0.57745
1064.54127	1.5267	0.57943
1063.04116	1.53046	0.58156
1061.54105	1.53471	0.58377
1060.04094	1.5395	0.58597
1058.54083	1.54482	0.58809
1057.04072	1.55069	0.59001
1055.5406	1.55706	0.59166
1054.04049	1.5639	0.59292
1052.54038	1.57112	0.59374
1051.04027	1.57866	0.59404
1049.54016	1.58639	0.5938
1048.04004	1.59426	0.59298
1046.53993	1.60218	0.59157
1045.03982	1.61003	0.58959
1043.53971	1.61775	0.58704
1042.0396	1.62529	0.58398
1040.53949	1.63259	0.58044
1039.03937	1.63961	0.57648
1037.53926	1.64633	0.57212
1036.03915	1.65273	0.56742
1034.53904	1.6588	0.56242
1033.03893	1.66455	0.55715
1031.53881	1.66997	0.55165
1030.0387	1.67506	0.54595
1028.53859	1.67984	0.54006
1027.03848	1.68428	0.53402
1025.53837	1.6884	0.52784
1024.03826	1.69218	0.52152
1022.53814	1.69562	0.51512
1021.03803	1.69872	0.50861
1019.53792	1.70147	0.50205
1018.03781	1.70386	0.49544
1016.5377	1.7059	0.48881
1015.03758	1.70758	0.48217
1013.53747	1.70893	0.47556
1012.03736	1.70992	0.46899
1010.53725	1.71057	0.46247
1009.03714	1.71087	0.45602
1007.53703	1.7108	0.44968
1006.03691	1.71038	0.44348
1004.5368	1.70958	0.43745
1003.03669	1.70841	0.43165
1001.53658	1.70687	0.42611
1000.03647	1.70498	0.4209
998.53635	1.70278	0.41607
997.03624	1.70034	0.41168
995.53613	1.69774	0.40776
994.03602	1.69508	0.40434
992.53591	1.69249	0.4014
991.0358	1.69009	0.39892
989.53568	1.68798	0.39684
988.03557	1.68625	0.39508
986.53546	1.68496	0.39355
985.03535	1.68413	0.39213
983.53524	1.68374	0.39073
982.03512	1.68372	0.38924
980.53501	1.684	0.38758
979.0349	1.68446	0.38569
977.53479	1.68501	0.38355
976.03468	1.68554	0.38114
974.53457	1.68599	0.37849
973.03445	1.68629	0.3756
971.53434	1.68639	0.37255
970.03423	1.68627	0.36935
968.53412	1.68592	0.36607
967.03401	1.68535	0.36275
965.53389	1.68456	0.35942
964.03378	1.68357	0.35613
962.53367	1.68238	0.35289
961.03356	1.68102	0.34973
959.53345	1.6795	0.34666
958.03334	1.67785	0.3437
956.53322	1.67605	0.34086
955.03311	1.67413	0.33814
953.533	1.67211	0.33557
952.03289	1.66998	0.33313
950.53278	1.66776	0.33084
949.03266	1.66548	0.32869
947.53255	1.6631	0.3267
946.03244	1.66068	0.32487
944.53233	1.6582	0.32321
943.03222	1.65568	0.32172
941.53211	1.65313	0.3204
940.03199	1.65055	0.31926
938.53188	1.64796	0.31831
937.03177	1.64537	0.31754
935.53166	1.6428	0.31697
934.03155	1.64026	0.31659
932.53143	1.63777	0.31641
931.03132	1.63535	0.31642
929.53121	1.63301	0.31662
928.0311	1.63078	0.31701
926.53099	1.62867	0.31758
925.03088	1.62669	0.31834
923.53076	1.62488	0.31925
922.03065	1.62324	0.32033
920.53054	1.6218	0.32154
919.03043	1.62058	0.32288
917.53032	1.61959	0.32433
916.0302	1.61885	0.32585
914.53009	1.61838	0.32744
913.02998	1.61818	0.32906
911.52987	1.61827	0.33066
910.02976	1.61865	0.33223
908.52965	1.61932	0.33372
907.02953	1.62027	0.33511
905.52942	1.62147	0.33634
904.02931	1.62293	0.33738
902.5292	1.62458	0.3382
901.02909	1.62642	0.3388
899.52897	1.62839	0.33912
898.02886	1.63046	0.33916
896.52875	1.63258	0.33891
895.02864	1.6347	0.33837
893.52853	1.63679	0.33754
892.02842	1.6388	0.33644
890.5283	1.64069	0.33508
889.02819	1.64242	0.33348
887.52808	1.64399	0.33167
886.02797	1.64536	0.32967
884.52786	1.64651	0.32755
883.02774	1.64743	0.32529
881.52763	1.64812	0.32297
880.02752	1.64861	0.32059
878.52741	1.64888	0.31819
877.0273	1.64895	0.31579
875.52719	1.64884	0.31342
874.02707	1.64857	0.31108
872.52696	1.64817	0.3088
871.02685	1.64763	0.30657
869.52674	1.64698	0.30441
868.02663	1.64623	0.30232
866.52652	1.64537	0.30028
865.0264	1.64445	0.29833
863.52629	1.64343	0.29644
862.02618	1.64235	0.29463
860.52607	1.64119	0.29288
859.02596	1.63995	0.29121
857.52584	1.63867	0.28962
856.02573	1.63734	0.28811
854.52562	1.63595	0.28667
853.02551	1.63454	0.28532
851.5254	1.63308	0.28405
850.02529	1.63161	0.28284
848.52517	1.63014	0.28172
847.02506	1.62865	0.28067
845.52495	1.62717	0.27967
844.02484	1.62568	0.27871
842.52473	1.6242	0.2778
841.02461	1.62272	0.27693
839.5245	1.6212	0.27608
838.02439	1.61965	0.27528
836.52428	1.61804	0.27452
835.02417	1.61637	0.27382
833.52406	1.61463	0.27319
832.02394	1.61283	0.27266
830.52383	1.61098	0.27223
829.02372	1.6091	0.27193
827.52361	1.60724	0.27173
826.0235	1.60542	0.27167
824.52338	1.60367	0.27171
823.02327	1.60202	0.27185
821.52316	1.60047	0.27206
820.02305	1.59905	0.27231
818.52294	1.59771	0.27258
817.02283	1.59646	0.27286
815.52271	1.59525	0.27312
814.0226	1.5941	0.27338
812.52249	1.59297	0.27362
811.02238	1.59183	0.27384
809.52227	1.59068	0.27403
808.02215	1.58951	0.27422
806.52204	1.58832	0.27441
805.02193	1.58713	0.2746
803.52182	1.58591	0.27483
802.02171	1.58466	0.27508
800.5216	1.5834	0.27536
799.02148	1.58211	0.27569
797.52137	1.58082	0.27605
796.02126	1.57952	0.27647
794.52115	1.57824	0.27695
793.02104	1.57696	0.27746
791.52092	1.5757	0.27804
790.02081	1.57447	0.27866
788.5207	1.57328	0.27933
787.02059	1.57213	0.28004
785.52048	1.57101	0.28079
784.02037	1.56991	0.28156
782.52025	1.56884	0.28235
781.02014	1.56781	0.28319
779.52003	1.5668	0.28405
778.01992	1.56582	0.28494
776.51981	1.56487	0.28585
775.01969	1.56395	0.28678
773.51958	1.56306	0.28775
772.01947	1.56222	0.28874
770.51936	1.5614	0.28975
769.01925	1.56064	0.29078
767.51914	1.55991	0.29182
766.01902	1.55922	0.29287
764.51891	1.55857	0.29394
763.0188	1.55797	0.295
761.51869	1.55741	0.29608
760.01858	1.55687	0.29715
758.51846	1.55638	0.29823
757.01835	1.55591	0.2993
755.51824	1.55548	0.30037
754.01813	1.55507	0.30142
752.51802	1.55469	0.30248
751.01791	1.55434	0.30353
749.51779	1.55402	0.30457
748.01768	1.55374	0.30559
746.51757	1.55348	0.3066
745.01746	1.55324	0.30759
743.51735	1.55302	0.30855
742.01723	1.55282	0.3095
740.51712	1.55262	0.31042
739.01701	1.55242	0.31132
737.5169	1.55222	0.31221
736.01679	1.55201	0.31307
734.51668	1.55179	0.31394
733.01656	1.55157	0.31479
731.51645	1.55135	0.31564
730.01634	1.55115	0.31645
728.51623	1.55095	0.31725
727.01612	1.55073	0.31804
725.516	1.55049	0.31881
724.01589	1.55024	0.31958
722.51578	1.54998	0.32033
721.01567	1.5497	0.32107
719.51556	1.54936	0.32179
718.01545	1.54897	0.32251
716.51533	1.54851	0.32325
715.01522	1.54803	0.32403
713.51511	1.54752	0.32483
712.015	1.54699	0.32566
710.51489	1.54643	0.32652
709.01477	1.54585	0.32742
707.51466	1.54527	0.32835
706.01455	1.54469	0.32934
704.51444	1.5441	0.33037
703.01433	1.54351	0.33142
701.51422	1.54292	0.33252
700.0141	1.54233	0.33363
698.51399	1.54173	0.33477
697.01388	1.54113	0.33595
695.51377	1.54052	0.33717
694.01366	1.5399	0.33844
692.51354	1.53931	0.33974
691.01343	1.53873	0.34107
689.51332	1.53815	0.34242
688.01321	1.53757	0.34378
686.5131	1.53701	0.34517
685.01299	1.53645	0.34659
683.51287	1.53588	0.34806
682.01276	1.53528	0.34956
680.51265	1.53469	0.35108
679.01254	1.53412	0.35258
677.51243	1.53355	0.35406
676.01232	1.53293	0.35556
674.5122	1.53222	0.3571
673.01209	1.53145	0.3587
671.51198	1.53063	0.36037
670.01187	1.52978	0.36209
668.51176	1.52881	0.36384
667.01164	1.52764	0.36568
665.51153	1.52632	0.36771
664.01142	1.525	0.36999
662.51131	1.52372	0.37247
661.0112	1.52248	0.37514
659.51109	1.52128	0.37796
658.01097	1.52014	0.38094
656.51086	1.51909	0.3841
655.01075	1.51819	0.38746
653.51064	1.5174	0.39101
652.01053	1.51669	0.39469
650.51041	1.51605	0.3985
649.0103	1.51547	0.40246
647.51019	1.51497	0.4066
646.01008	1.51458	0.41093
644.50997	1.51433	0.41547
643.00986	1.51427	0.42021
641.50974	1.51441	0.42513
640.00963	1.51478	0.43024
638.50952	1.5154	0.43553
637.00941	1.51629	0.44099
635.5093	1.5175	0.4466
634.00918	1.51902	0.45233
632.50907	1.52086	0.45817
631.00896	1.52303	0.46409
629.50885	1.52556	0.4701
628.00874	1.52847	0.47615
626.50863	1.5318	0.48221
625.00851	1.53554	0.48827
623.5084	1.5397	0.49426
622.00829	1.54429	0.50017
620.50818	1.54932	0.50597
619.00807	1.5548	0.51163
617.50795	1.56072	0.51707
616.00784	1.56703	0.52225
614.50773	1.57373	0.52717
613.00762	1.5808	0.53179
611.50751	1.58824	0.53608
610.0074	1.59603	0.54
608.50728	1.60416	0.54351
607.00717	1.61257	0.54658
605.50706	1.62125	0.54918
604.00695	1.63017	0.5513
602.50684	1.63931	0.5529
601.00672	1.64861	0.55395
599.50661	1.65801	0.55445
598.0065	1.66746	0.55438
596.50639	1.67692	0.55375
595.00628	1.68637	0.55256
593.50617	1.69578	0.55079
592.00605	1.70512	0.54843
590.50594	1.71435	0.54548
589.00583	1.72344	0.54191
587.50572	1.73235	0.53774
586.00561	1.74104	0.53292
584.50549	1.74943	0.52747
583.00538	1.75742	0.52136
581.50527	1.7649	0.51465
580.00516	1.77175	0.50735
578.50505	1.77786	0.49955
577.00494	1.78314	0.49134
575.50482	1.7875	0.48283
574.00471	1.79088	0.47415
572.5046	1.7933	0.46545
571.00449	1.79478	0.45688
569.50438	1.79539	0.44855
568.00426	1.79524	0.44057
566.50415	1.79442	0.43305
565.00404	1.79309	0.42602
563.50393	1.79136	0.41955
562.00382	1.78935	0.41363
560.50371	1.78716	0.40825
559.00359	1.78489	0.40338
557.50348	1.78258	0.39898
556.00337	1.78028	0.395
554.50326	1.77804	0.39139
553.00315	1.77585	0.38811
551.50303	1.77372	0.38512
550.00292	1.77165	0.3824
548.50281	1.76965	0.3799
547.0027	1.7677	0.3776
545.50259	1.7658	0.37549
544.00248	1.76396	0.37357
542.50236	1.76217	0.37182
541.00225	1.76044	0.37022
539.50214	1.75878	0.3688
538.00203	1.75722	0.3675
536.50192	1.75578	0.36632
535.0018	1.75445	0.36523
533.50169	1.75321	0.36423
532.00158	1.75207	0.36329
530.50147	1.75102	0.36242
529.00136	1.75006	0.36158
527.50125	1.74921	0.36074
526.00113	1.74838	0.35989
524.50102	1.74758	0.35903
523.00091	1.74675	0.35817
521.5008	1.74593	0.35736
520.00069	1.74513	0.35657
518.50057	1.74432	0.35578
517.00046	1.74348	0.355
515.50035	1.74259	0.35426
514.00024	1.74168	0.35355
512.50013	1.74079	0.3529
511.00002	1.73991	0.3523
509.4999	1.73905	0.35175
507.99979	1.73816	0.35123
506.49968	1.73725	0.35074
504.99957	1.73633	0.3503
503.49946	1.73542	0.34992
501.99934	1.73447	0.3496
500.49923	1.73348	0.34933
498.99912	1.73245	0.34915
497.49901	1.73141	0.34908
495.9989	1.73041	0.3491
494.49879	1.72945	0.3492
492.99867	1.72853	0.34937
491.49856	1.72765	0.34961
489.99845	1.72681	0.34994
488.49834	1.72602	0.35037
486.99823	1.72531	0.35089
485.49812	1.72465	0.35147
483.998	1.72408	0.35211
482.49789	1.72359	0.35277
480.99778	1.72317	0.35346
479.49767	1.72287	0.35419
477.99756	1.72266	0.35494
476.49744	1.72255	0.35571
474.99733	1.72252	0.35647
473.49722	1.72256	0.35722
471.99711	1.72259	0.35795
470.497	1.72261	0.35869
468.99689	1.72267	0.35946
467.49677	1.7228	0.36025
465.99666	1.72299	0.36103
464.49655	1.72323	0.36185
462.99644	1.72352	0.36268
461.49633	1.7239	0.36355
459.99621	1.7244	0.36444
458.4961	1.72503	0.36533
456.99599	1.72572	0.36619
455.49588	1.72644	0.36705
453.99577	1.72727	0.36793
452.49566	1.72827	0.36878
450.99554	1.72943	0.36957
449.49543	1.73078	0.37026
447.99532	1.73227	0.37082
446.49521	1.73391	0.37121
444.9951	1.7357	0.37142
443.49498	1.7376	0.37141
441.99487	1.73952	0.37114
440.49476	1.74136	0.37058
438.99465	1.74303	0.36977
437.49454	1.74452	0.36878
435.99443	1.74578	0.36761
434.49431	1.74678	0.36632
432.9942	1.74752	0.36493
431.49409	1.74799	0.3635
429.99398	1.74817	0.3621
428.49387	1.74813	0.36078
426.99375	1.74794	0.35959
425.49364	1.74766	0.3585
423.99353	1.74729	0.35752
422.49342	1.74686	0.35663
420.99331	1.74639	0.35583
419.4932	1.74589	0.35513
417.99308	1.74539	0.35453
416.49297	1.74487	0.35401
414.99286	1.74429	0.35355
413.49275	1.74363	0.35315
411.99264	1.74292	0.35283
410.49252	1.74215	0.35259
408.99241	1.74136	0.35245
407.4923	1.74054	0.35242
405.99219	1.73974	0.35247
404.49208	1.73895	0.35263
402.99197	1.7382	0.35286
401.49185	1.73751	0.35317
399.99174	1.73684	0.35354
