#SUBSTANCE=Sulphuric acid
#DESCRIPTION=Refractive indices of 38 wt% sulphuric acid from 400 to 7500 cm-1 at 213 K
#TEMPERATURE=213 K
#CONCENTRATION=38 wt%
#DOI=10.1021/jp026576n
#REFERENCE=Spectroscopic Study of Aqueous H2SO4 at Different Temperatures and Compositions:  Variations in Dissociation and Optical Properties
##Cathrine E. Lund Myhre,†, Daniel H. Christensen,‡, Flemming M. Nicolaisen,‡ and, and Claus J. Nielsen*,†
##The Journal of Physical Chemistry A 2003 107 (12), 1979-1991 
#FORMAT=WAVN N K
7498.52083	1.39033	0.0141
7497.02072	1.39039	0.01411
7495.52061	1.39047	0.01412
7494.0205	1.39053	0.01411
7492.52039	1.39058	0.01409
7491.02027	1.39063	0.01405
7489.52016	1.39067	0.014
7488.02005	1.3907	0.01396
7486.51994	1.3907	0.01391
7485.01983	1.3907	0.01386
7483.51971	1.3907	0.01383
7482.0196	1.39068	0.01379
7480.51949	1.39067	0.01377
7479.01938	1.39065	0.01375
7477.51927	1.39064	0.01375
7476.01916	1.39063	0.01375
7474.51904	1.39063	0.01376
7473.01893	1.39065	0.01377
7471.51882	1.39066	0.01377
7470.01871	1.3907	0.01377
7468.5186	1.39073	0.01376
7467.01848	1.39077	0.01374
7465.51837	1.39081	0.01371
7464.01826	1.39085	0.01366
7462.51815	1.39087	0.01359
7461.01804	1.39088	0.01353
7459.51793	1.39087	0.01346
7458.01781	1.39086	0.0134
7456.5177	1.39083	0.01334
7455.01759	1.3908	0.0133
7453.51748	1.39076	0.01325
7452.01737	1.39072	0.01323
7450.51725	1.39067	0.01322
7449.01714	1.39063	0.01321
7447.51703	1.3906	0.0132
7446.01692	1.39057	0.0132
7444.51681	1.39055	0.0132
7443.0167	1.39053	0.01319
7441.51658	1.3905	0.0132
7440.01647	1.39049	0.0132
7438.51636	1.39047	0.01321
7437.01625	1.39047	0.01322
7435.51614	1.39047	0.01323
7434.01602	1.39047	0.01323
7432.51591	1.39049	0.01323
7431.0158	1.3905	0.01321
7429.51569	1.39051	0.0132
7428.01558	1.3905	0.01317
7426.51547	1.3905	0.01314
7425.01535	1.39048	0.0131
7423.51524	1.39046	0.01308
7422.01513	1.39043	0.01305
7420.51502	1.3904	0.01305
7419.01491	1.39037	0.01305
7417.51479	1.39034	0.01307
7416.01468	1.39032	0.01308
7414.51457	1.39031	0.01311
7413.01446	1.39032	0.01313
7411.51435	1.39034	0.01315
7410.01424	1.39036	0.01315
7408.51412	1.39039	0.01314
7407.01401	1.3904	0.01312
7405.5139	1.39042	0.01309
7404.01379	1.39044	0.01306
7402.51368	1.39045	0.01302
7401.01356	1.39045	0.01297
7399.51345	1.39043	0.01292
7398.01334	1.39041	0.01288
7396.51323	1.39036	0.01285
7395.01312	1.39033	0.01283
7393.51301	1.39029	0.01282
7392.01289	1.39026	0.0128
7390.51278	1.39023	0.0128
7389.01267	1.3902	0.0128
7387.51256	1.39017	0.0128
7386.01245	1.39014	0.0128
7384.51233	1.39011	0.0128
7383.01222	1.39009	0.01281
7381.51211	1.39007	0.01282
7380.012	1.39006	0.01282
7378.51189	1.39004	0.01282
7377.01178	1.39001	0.01283
7375.51166	1.38999	0.01284
7374.01155	1.38998	0.01287
7372.51144	1.38998	0.01289
7371.01133	1.38999	0.0129
7369.51122	1.39	0.0129
7368.0111	1.39	0.0129
7366.51099	1.38999	0.0129
7365.01088	1.38999	0.0129
7363.51077	1.39	0.0129
7362.01066	1.39	0.01289
7360.51055	1.39	0.01289
7359.01043	1.39	0.01289
7357.51032	1.39	0.01289
7356.01021	1.39001	0.01289
7354.5101	1.39003	0.01289
7353.00999	1.39005	0.01288
7351.50987	1.39007	0.01285
7350.00976	1.39008	0.0128
7348.50965	1.39007	0.01274
7347.00954	1.39003	0.01269
7345.50943	1.38998	0.01266
7344.00932	1.38994	0.01262
7342.5092	1.38989	0.01261
7341.00909	1.38983	0.01261
7339.50898	1.38977	0.01263
7338.00887	1.38972	0.01267
7336.50876	1.38969	0.01272
7335.00864	1.38968	0.01277
7333.50853	1.3897	0.01281
7332.00842	1.38971	0.01283
7330.50831	1.38973	0.01285
7329.0082	1.38974	0.01285
7327.50809	1.38975	0.01285
7326.00797	1.38976	0.01285
7324.50786	1.38978	0.01286
7323.00775	1.38981	0.01285
7321.50764	1.38983	0.01284
7320.00753	1.38984	0.01282
7318.50741	1.38985	0.01281
7317.0073	1.38985	0.01277
7315.50719	1.38985	0.01274
7314.00708	1.38985	0.0127
7312.50697	1.38984	0.01266
7311.00686	1.38981	0.01262
7309.50674	1.38977	0.01259
7308.00663	1.38973	0.01258
7306.50652	1.38969	0.01258
7305.00641	1.38965	0.01259
7303.5063	1.38962	0.0126
7302.00619	1.3896	0.0126
7300.50607	1.38958	0.01262
7299.00596	1.38957	0.01262
7297.50585	1.38955	0.01262
7296.00574	1.38952	0.01261
7294.50563	1.3895	0.01262
7293.00551	1.38947	0.01263
7291.5054	1.38944	0.01264
7290.00529	1.38941	0.01268
7288.50518	1.3894	0.01271
7287.00507	1.38939	0.01275
7285.50496	1.38939	0.01279
7284.00484	1.38942	0.01283
7282.50473	1.38945	0.01287
7281.00462	1.38949	0.01288
7279.50451	1.38954	0.01287
7278.0044	1.38959	0.01286
7276.50428	1.38962	0.01282
7275.00417	1.38964	0.01278
7273.50406	1.38965	0.01272
7272.00395	1.38965	0.01267
7270.50384	1.38962	0.01262
7269.00373	1.38958	0.01259
7267.50361	1.38955	0.01256
7266.0035	1.38951	0.01256
7264.50339	1.38946	0.01256
7263.00328	1.38943	0.01257
7261.50317	1.3894	0.01258
7260.00305	1.38938	0.0126
7258.50294	1.38938	0.01261
7257.00283	1.38938	0.01263
7255.50272	1.3894	0.01263
7254.00261	1.38941	0.01262
7252.5025	1.3894	0.0126
7251.00238	1.38938	0.01258
7249.50227	1.38936	0.01256
7248.00216	1.38935	0.01255
7246.50205	1.38934	0.01254
7245.00194	1.38933	0.01253
7243.50182	1.3893	0.01251
7242.00171	1.38925	0.0125
7240.5016	1.38921	0.0125
7239.00149	1.38917	0.01253
7237.50138	1.38916	0.01254
7236.00127	1.38915	0.01255
7234.50115	1.38914	0.01255
7233.00104	1.38911	0.01256
7231.50093	1.38908	0.01257
7230.00082	1.38905	0.01259
7228.50071	1.38904	0.01262
7227.00059	1.38904	0.01263
7225.50048	1.38903	0.01264
7224.00037	1.38903	0.01265
7222.50026	1.389	0.01267
7221.00015	1.38899	0.01269
7219.50004	1.38899	0.01272
7217.99992	1.38899	0.01275
7216.49981	1.38902	0.01276
7214.9997	1.38904	0.01277
7213.49959	1.38906	0.01277
7211.99948	1.38906	0.01275
7210.49936	1.38906	0.01274
7208.99925	1.38905	0.01272
7207.49914	1.38904	0.01271
7205.99903	1.38902	0.01269
7204.49892	1.38899	0.01268
7202.99881	1.38895	0.01269
7201.49869	1.38892	0.01272
7199.99858	1.3889	0.01276
7198.49847	1.38889	0.01281
7196.99836	1.38891	0.01286
7195.49825	1.38893	0.0129
7193.99813	1.38897	0.01291
7192.49802	1.389	0.01293
7190.99791	1.38903	0.01292
7189.4978	1.38906	0.0129
7187.99769	1.38909	0.01288
7186.49758	1.3891	0.01285
7184.99746	1.3891	0.01282
7183.49735	1.3891	0.01279
7181.99724	1.38908	0.01278
7180.49713	1.38908	0.01277
7178.99702	1.38907	0.01277
7177.4969	1.38908	0.01277
7175.99679	1.38908	0.01275
7174.49668	1.38909	0.01273
7172.99657	1.38909	0.01271
7171.49646	1.38908	0.01267
7169.99635	1.38905	0.01261
7168.49623	1.38901	0.01256
7166.99612	1.38897	0.01253
7165.49601	1.38889	0.01251
7163.9959	1.38883	0.01251
7162.49579	1.38874	0.01252
7160.99567	1.38866	0.01257
7159.49556	1.38861	0.01265
7157.99545	1.38857	0.01273
7156.49534	1.38857	0.01283
7154.99523	1.3886	0.01291
7153.49512	1.38863	0.01298
7151.995	1.38869	0.01303
7150.49489	1.38876	0.01306
7148.99478	1.38882	0.01306
7147.49467	1.38888	0.01303
7145.99456	1.38892	0.01298
7144.49444	1.38894	0.01294
7142.99433	1.38894	0.01289
7141.49422	1.38892	0.01286
7139.99411	1.3889	0.01284
7138.494	1.38887	0.01283
7136.99389	1.38884	0.01284
7135.49377	1.38883	0.01287
7133.99366	1.38882	0.01289
7132.49355	1.38883	0.01291
7130.99344	1.38885	0.01293
7129.49333	1.38886	0.01293
7127.99321	1.38888	0.01292
7126.4931	1.38889	0.01291
7124.99299	1.38889	0.01288
7123.49288	1.38889	0.01286
7121.99277	1.38888	0.01285
7120.49266	1.38886	0.01283
7118.99254	1.38884	0.01283
7117.49243	1.3888	0.01284
7115.99232	1.38879	0.01286
7114.49221	1.38877	0.01289
7112.9921	1.38877	0.01293
7111.49198	1.38879	0.01296
7109.99187	1.38882	0.01299
7108.49176	1.38885	0.01299
7106.99165	1.38888	0.013
7105.49154	1.38891	0.01299
7103.99143	1.38894	0.01297
7102.49131	1.38898	0.01294
7100.9912	1.389	0.01291
7099.49109	1.38901	0.01287
7097.99098	1.38901	0.01284
7096.49087	1.389	0.01281
7094.99076	1.38899	0.01278
7093.49064	1.38897	0.01275
7091.99053	1.38896	0.01273
7090.49042	1.38893	0.0127
7088.99031	1.38892	0.01268
7087.4902	1.38887	0.01266
7085.99008	1.38884	0.01266
7084.48997	1.38881	0.01266
7082.98986	1.38878	0.01266
7081.48975	1.38876	0.01268
7079.98964	1.38874	0.01269
7078.48953	1.38874	0.01271
7076.98941	1.38873	0.01273
7075.4893	1.38873	0.01274
7073.98919	1.38873	0.01274
7072.48908	1.38873	0.01274
7070.98897	1.38873	0.01273
7069.48885	1.38873	0.01271
7067.98874	1.38872	0.0127
7066.48863	1.3887	0.01269
7064.98852	1.38868	0.01268
7063.48841	1.38865	0.01268
7061.9883	1.38863	0.01269
7060.48818	1.38861	0.01271
7058.98807	1.3886	0.01272
7057.48796	1.38858	0.01274
7055.98785	1.38856	0.01276
7054.48774	1.38855	0.01277
7052.98762	1.38853	0.01279
7051.48751	1.38853	0.01281
7049.9874	1.38853	0.01284
7048.48729	1.38853	0.01286
7046.98718	1.38854	0.01288
7045.48707	1.38854	0.0129
7043.98695	1.38856	0.01293
7042.48684	1.38858	0.01295
7040.98673	1.38861	0.01296
7039.48662	1.38864	0.01296
7037.98651	1.38867	0.01295
7036.48639	1.3887	0.01293
7034.98628	1.38871	0.01291
7033.48617	1.38871	0.01288
7031.98606	1.38871	0.01286
7030.48595	1.38869	0.01283
7028.98584	1.38868	0.01281
7027.48572	1.38866	0.01281
7025.98561	1.38864	0.01281
7024.4855	1.38862	0.01281
7022.98539	1.38859	0.01283
7021.48528	1.38859	0.01285
7019.98516	1.38858	0.01287
7018.48505	1.38858	0.01288
7016.98494	1.38858	0.01289
7015.48483	1.38859	0.01291
7013.98472	1.38859	0.01291
7012.48461	1.38859	0.01293
7010.98449	1.38859	0.01294
7009.48438	1.38861	0.01297
7007.98427	1.38862	0.01298
7006.48416	1.38865	0.01301
7004.98405	1.38868	0.01302
7003.48393	1.38872	0.01302
7001.98382	1.38876	0.01302
7000.48371	1.38879	0.01301
6998.9836	1.38883	0.01298
6997.48349	1.38886	0.01294
6995.98338	1.38889	0.0129
6994.48326	1.38889	0.01284
6992.98315	1.38888	0.01278
6991.48304	1.38885	0.01275
6989.98293	1.38882	0.01272
6988.48282	1.38879	0.0127
6986.9827	1.38876	0.01269
6985.48259	1.38873	0.0127
6983.98248	1.38871	0.01271
6982.48237	1.38869	0.01274
6980.98226	1.38869	0.01276
6979.48215	1.3887	0.01278
6977.98203	1.38871	0.01278
6976.48192	1.38873	0.01278
6974.98181	1.38873	0.01278
6973.4817	1.38875	0.01276
6971.98159	1.38876	0.01274
6970.48147	1.38876	0.01273
6968.98136	1.38876	0.01271
6967.48125	1.38876	0.01271
6965.98114	1.38875	0.0127
6964.48103	1.38875	0.0127
6962.98092	1.38876	0.01269
6961.4808	1.38877	0.01268
6959.98069	1.38877	0.01266
6958.48058	1.38877	0.01264
6956.98047	1.38877	0.01262
6955.48036	1.38875	0.01259
6953.98024	1.38875	0.01257
6952.48013	1.38873	0.01255
6950.98002	1.3887	0.01254
6949.47991	1.38867	0.01252
6947.9798	1.38864	0.01253
6946.47969	1.38861	0.01253
6944.97957	1.38858	0.01256
6943.47946	1.38857	0.01259
6941.97935	1.38858	0.01263
6940.47924	1.38859	0.01265
6938.97913	1.38861	0.01267
6937.47901	1.38863	0.0127
6935.9789	1.38867	0.0127
6934.47879	1.38871	0.0127
6932.97868	1.38875	0.01268
6931.47857	1.38879	0.01264
6929.97846	1.38881	0.01259
6928.47834	1.38881	0.01255
6926.97823	1.38881	0.0125
6925.47812	1.38879	0.01245
6923.97801	1.38877	0.01242
6922.4779	1.38874	0.01239
6920.97778	1.38871	0.01238
6919.47767	1.38868	0.01239
6917.97756	1.38866	0.01239
6916.47745	1.38865	0.0124
6914.97734	1.38865	0.01241
6913.47723	1.38866	0.01241
6911.97711	1.38867	0.0124
6910.477	1.38868	0.01239
6908.97689	1.3887	0.01236
6907.47678	1.3887	0.01233
6905.97667	1.38869	0.0123
6904.47656	1.38868	0.01227
6902.97644	1.38867	0.01224
6901.47633	1.38864	0.0122
6899.97622	1.38862	0.01218
6898.47611	1.3886	0.01216
6896.976	1.38857	0.01215
6895.47588	1.38854	0.01213
6893.97577	1.38851	0.01212
6892.47566	1.38848	0.01212
6890.97555	1.38846	0.01211
6889.47544	1.38844	0.01211
6887.97533	1.38841	0.0121
6886.47521	1.38838	0.0121
6884.9751	1.38836	0.0121
6883.47499	1.38833	0.0121
6881.97488	1.38831	0.0121
6880.47477	1.38829	0.0121
6878.97465	1.38827	0.01211
6877.47454	1.38825	0.01211
6875.97443	1.38822	0.01211
6874.47432	1.3882	0.01211
6872.97421	1.38817	0.01212
6871.4741	1.38815	0.01213
6869.97398	1.38813	0.01214
6868.47387	1.38811	0.01216
6866.97376	1.38808	0.01218
6865.47365	1.38807	0.01221
6863.97354	1.38807	0.01224
6862.47342	1.38807	0.01228
6860.97331	1.38808	0.0123
6859.4732	1.38808	0.01231
6857.97309	1.3881	0.01233
6856.47298	1.38811	0.01234
6854.97287	1.38814	0.01234
6853.47275	1.38816	0.01233
6851.97264	1.38817	0.01232
6850.47253	1.38816	0.0123
6848.97242	1.38816	0.01229
6847.47231	1.38815	0.01228
6845.97219	1.38815	0.01228
6844.47208	1.38814	0.01227
6842.97197	1.38814	0.01227
6841.47186	1.38813	0.01227
6839.97175	1.38811	0.01228
6838.47164	1.38811	0.01229
6836.97152	1.38812	0.0123
6835.47141	1.38813	0.0123
6833.9713	1.38814	0.01229
6832.47119	1.38814	0.01229
6830.97108	1.38814	0.01227
6829.47096	1.38814	0.01227
6827.97085	1.38814	0.01226
6826.47074	1.38814	0.01224
6824.97063	1.38814	0.01224
6823.47052	1.38813	0.01222
6821.97041	1.38813	0.01222
6820.47029	1.38812	0.01221
6818.97018	1.38811	0.01221
6817.47007	1.38811	0.01219
6815.96996	1.3881	0.01218
6814.46985	1.38809	0.01216
6812.96973	1.38806	0.01215
6811.46962	1.38805	0.01215
6809.96951	1.38803	0.01215
6808.4694	1.38801	0.01215
6806.96929	1.38799	0.01216
6805.46918	1.38797	0.01216
6803.96906	1.38795	0.01219
6802.46895	1.38794	0.01221
6800.96884	1.38794	0.01223
6799.46873	1.38795	0.01225
6797.96862	1.38796	0.01227
6796.4685	1.38797	0.01228
6794.96839	1.38798	0.0123
6793.46828	1.38802	0.01231
6791.96817	1.38804	0.01231
6790.46806	1.38807	0.0123
6788.96795	1.3881	0.01228
6787.46783	1.38811	0.01226
6785.96772	1.38813	0.01224
6784.46761	1.38814	0.01221
6782.9675	1.38815	0.01218
6781.46739	1.38815	0.01214
6779.96727	1.38814	0.0121
6778.46716	1.38814	0.01207
6776.96705	1.38811	0.01205
6775.46694	1.3881	0.01202
6773.96683	1.38807	0.01201
6772.46672	1.38805	0.012
6770.9666	1.38804	0.01199
6769.46649	1.38802	0.01199
6767.96638	1.388	0.01198
6766.46627	1.38798	0.01198
6764.96616	1.38797	0.01198
6763.46604	1.38797	0.01198
6761.96593	1.38797	0.01198
6760.46582	1.38796	0.01197
6758.96571	1.38795	0.01195
6757.4656	1.38794	0.01195
6755.96549	1.38793	0.01194
6754.46537	1.38792	0.01194
6752.96526	1.38793	0.01194
6751.46515	1.38793	0.01193
6749.96504	1.38793	0.01191
6748.46493	1.38793	0.0119
6746.96481	1.38791	0.01187
6745.4647	1.38791	0.01185
6743.96459	1.3879	0.01183
6742.46448	1.38789	0.0118
6740.96437	1.38786	0.01176
6739.46426	1.38783	0.01174
6737.96414	1.38778	0.01173
6736.46403	1.38774	0.01172
6734.96392	1.38771	0.01172
6733.46381	1.38768	0.01172
6731.9637	1.38764	0.01173
6730.46358	1.38761	0.01174
6728.96347	1.38758	0.01176
6727.46336	1.38755	0.01179
6725.96325	1.38754	0.01181
6724.46314	1.38754	0.01182
6722.96303	1.38753	0.01183
6721.46291	1.38751	0.01184
6719.9628	1.38751	0.01186
6718.46269	1.3875	0.01187
6716.96258	1.3875	0.01188
6715.46247	1.3875	0.01188
6713.96236	1.3875	0.01188
6712.46224	1.38748	0.01189
6710.96213	1.38747	0.01189
6709.46202	1.38746	0.01191
6707.96191	1.38746	0.01191
6706.4618	1.38745	0.01193
6704.96168	1.38745	0.01195
6703.46157	1.38745	0.01196
6701.96146	1.38747	0.01198
6700.46135	1.38748	0.01199
6698.96124	1.38751	0.012
6697.46113	1.38753	0.012
6695.96101	1.38755	0.01198
6694.4609	1.38757	0.01196
6692.96079	1.38758	0.01194
6691.46068	1.38758	0.0119
6689.96057	1.38757	0.01187
6688.46045	1.38755	0.01183
6686.96034	1.38753	0.01181
6685.46023	1.3875	0.0118
6683.96012	1.38746	0.01179
6682.46001	1.38742	0.01179
6680.9599	1.38739	0.01181
6679.45978	1.38737	0.01182
6677.95967	1.38736	0.01185
6676.45956	1.38736	0.01187
6674.95945	1.38736	0.01189
6673.45934	1.38735	0.01189
6671.95922	1.38735	0.01191
6670.45911	1.38736	0.01192
6668.959	1.38738	0.01194
6667.45889	1.3874	0.01193
6665.95878	1.38741	0.01193
6664.45867	1.38741	0.01192
6662.95855	1.38741	0.01192
6661.45844	1.38741	0.01192
6659.95833	1.38742	0.01192
6658.45822	1.38744	0.01191
6656.95811	1.38745	0.0119
6655.45799	1.38746	0.01188
6653.95788	1.38747	0.01188
6652.45777	1.38747	0.01186
6650.95766	1.38748	0.01183
6649.45755	1.38748	0.01181
6647.95744	1.38748	0.01178
6646.45732	1.38748	0.01174
6644.95721	1.38746	0.01171
6643.4571	1.38743	0.01167
6641.95699	1.3874	0.01165
6640.45688	1.38736	0.01163
6638.95676	1.38732	0.01163
6637.45665	1.38728	0.01163
6635.95654	1.38725	0.01164
6634.45643	1.38721	0.01166
6632.95632	1.3872	0.01169
6631.45621	1.38718	0.01172
6629.95609	1.38717	0.01175
6628.45598	1.38718	0.01178
6626.95587	1.3872	0.0118
6625.45576	1.38722	0.01181
6623.95565	1.38725	0.0118
6622.45553	1.38726	0.0118
6620.95542	1.38727	0.01178
6619.45531	1.38728	0.01177
6617.9552	1.38728	0.01175
6616.45509	1.38728	0.01174
6614.95498	1.38728	0.01172
6613.45486	1.38727	0.0117
6611.95475	1.38726	0.0117
6610.45464	1.38726	0.0117
6608.95453	1.38726	0.0117
6607.45442	1.38727	0.0117
6605.9543	1.38727	0.0117
6604.45419	1.38728	0.01169
6602.95408	1.38729	0.01168
6601.45397	1.38731	0.01166
6599.95386	1.38732	0.01163
6598.45375	1.38733	0.0116
6596.95363	1.38733	0.01157
6595.45352	1.38732	0.01153
6593.95341	1.38731	0.01149
6592.4533	1.3873	0.01145
6590.95319	1.38727	0.0114
6589.45307	1.38723	0.01137
6587.95296	1.38718	0.01134
6586.45285	1.38713	0.01133
6584.95274	1.38709	0.01133
6583.45263	1.38705	0.01134
6581.95252	1.38702	0.01134
6580.4524	1.38698	0.01137
6578.95229	1.38697	0.01139
6577.45218	1.38695	0.01142
6575.95207	1.38695	0.01143
6574.45196	1.38696	0.01143
6572.95184	1.38696	0.01143
6571.45173	1.38696	0.01142
6569.95162	1.38695	0.0114
6568.45151	1.38694	0.0114
6566.9514	1.38693	0.01138
6565.45129	1.38691	0.01137
6563.95117	1.38689	0.01136
6562.45106	1.38687	0.01136
6560.95095	1.38684	0.01136
6559.45084	1.38682	0.01137
6557.95073	1.38681	0.01137
6556.45061	1.38679	0.01138
6554.9505	1.38678	0.01139
6553.45039	1.38677	0.0114
6551.95028	1.38677	0.01141
6550.45017	1.38677	0.01143
6548.95006	1.38677	0.01143
6547.44994	1.38678	0.01143
6545.94983	1.38679	0.01143
6544.44972	1.38679	0.01142
6542.94961	1.3868	0.0114
6541.4495	1.38679	0.01138
6539.94938	1.38678	0.01135
6538.44927	1.38676	0.01134
6536.94916	1.38673	0.01132
6535.44905	1.38671	0.01131
6533.94894	1.38669	0.01131
6532.44883	1.38666	0.01131
6530.94871	1.38664	0.01132
6529.4486	1.38661	0.01134
6527.94849	1.38661	0.01135
6526.44838	1.3866	0.01137
6524.94827	1.38659	0.01137
6523.44816	1.38659	0.01139
6521.94804	1.38659	0.0114
6520.44793	1.38661	0.01141
6518.94782	1.38663	0.01141
6517.44771	1.38664	0.01141
6515.9476	1.38665	0.01139
6514.44748	1.38665	0.01137
6512.94737	1.38665	0.01135
6511.44726	1.38665	0.01132
6509.94715	1.38665	0.01129
6508.44704	1.38663	0.01126
6506.94693	1.3866	0.01123
6505.44681	1.38656	0.01123
6503.9467	1.38652	0.01123
6502.44659	1.3865	0.01125
6500.94648	1.38649	0.01126
6499.44637	1.38647	0.01127
6497.94625	1.38647	0.01128
6496.44614	1.38646	0.0113
6494.94603	1.38646	0.01131
6493.44592	1.38648	0.01131
6491.94581	1.3865	0.01131
6490.4457	1.38651	0.01129
6488.94558	1.38651	0.01126
6487.44547	1.38651	0.01124
6485.94536	1.3865	0.01121
6484.44525	1.38649	0.01119
6482.94514	1.38646	0.01116
6481.44502	1.38644	0.01114
6479.94491	1.3864	0.01113
6478.4448	1.38637	0.01112
6476.94469	1.38634	0.01112
6475.44458	1.3863	0.01113
6473.94447	1.38628	0.01114
6472.44435	1.38625	0.01117
6470.94424	1.38625	0.01119
6469.44413	1.38624	0.01121
6467.94402	1.38625	0.01122
6466.44391	1.38626	0.01124
6464.94379	1.38628	0.01124
6463.44368	1.38629	0.01124
6461.94357	1.3863	0.01122
6460.44346	1.38631	0.0112
6458.94335	1.38631	0.01117
6457.44324	1.38631	0.01115
6455.94312	1.3863	0.01112
6454.44301	1.38627	0.0111
6452.9429	1.38626	0.01108
6451.44279	1.38624	0.01107
6449.94268	1.38622	0.01106
6448.44256	1.3862	0.01104
6446.94245	1.38619	0.01103
6445.44234	1.38616	0.01102
6443.94223	1.38613	0.01101
6442.44212	1.3861	0.01099
6440.94201	1.38607	0.01098
6439.44189	1.38604	0.01098
6437.94178	1.386	0.01098
6436.44167	1.38597	0.01099
6434.94156	1.38594	0.01101
6433.44145	1.38592	0.01102
6431.94133	1.38589	0.01105
6430.44122	1.38587	0.01107
6428.94111	1.38586	0.01109
6427.441	1.38585	0.01111
6425.94089	1.38585	0.01113
6424.44078	1.38586	0.01114
6422.94066	1.38586	0.01114
6421.44055	1.38586	0.01115
6419.94044	1.38586	0.01116
6418.44033	1.38586	0.01116
6416.94022	1.38586	0.01116
6415.4401	1.38586	0.01116
6413.93999	1.38585	0.01116
6412.43988	1.38585	0.01116
6410.93977	1.38584	0.01117
6409.43966	1.38583	0.01117
6407.93955	1.38584	0.01119
6406.43943	1.38584	0.01119
6404.93932	1.38586	0.01121
6403.43921	1.38587	0.01121
6401.9391	1.3859	0.01121
6400.43899	1.38592	0.0112
6398.93887	1.38595	0.01117
6397.43876	1.38596	0.01113
6395.93865	1.38596	0.01109
6394.43854	1.38595	0.01105
6392.93843	1.38595	0.011
6391.43832	1.38592	0.01096
6389.9382	1.38589	0.01092
6388.43809	1.38585	0.0109
6386.93798	1.38581	0.01087
6385.43787	1.38575	0.01086
6383.93776	1.3857	0.01086
6382.43764	1.38565	0.01086
6380.93753	1.3856	0.01088
6379.43742	1.38555	0.0109
6377.93731	1.38552	0.01093
6376.4372	1.38549	0.01097
6374.93709	1.38547	0.01101
6373.43697	1.38545	0.01105
6371.93686	1.38545	0.0111
6370.43675	1.38548	0.01115
6368.93664	1.38551	0.01118
6367.43653	1.38555	0.01119
6365.93641	1.38559	0.01119
6364.4363	1.38561	0.01118
6362.93619	1.38564	0.01118
6361.43608	1.38567	0.01115
6359.93597	1.3857	0.01112
6358.43586	1.38571	0.01108
6356.93574	1.38571	0.01105
6355.43563	1.38571	0.01101
6353.93552	1.38569	0.01098
6352.43541	1.38567	0.01095
6350.9353	1.38565	0.01092
6349.43518	1.38564	0.0109
6347.93507	1.38561	0.01087
6346.43496	1.38559	0.01085
6344.93485	1.38556	0.01083
6343.43474	1.38552	0.01081
6341.93463	1.38548	0.01081
6340.43451	1.38545	0.01081
6338.9344	1.38541	0.01081
6337.43429	1.38538	0.01081
6335.93418	1.38536	0.01082
6334.43407	1.38533	0.01083
6332.93395	1.38531	0.01084
6331.43384	1.38528	0.01086
6329.93373	1.38526	0.01088
6328.43362	1.38526	0.01089
6326.93351	1.38525	0.01091
6325.4334	1.38525	0.01091
6323.93328	1.38524	0.01092
6322.43317	1.38524	0.01093
6320.93306	1.38523	0.01094
6319.43295	1.38522	0.01095
6317.93284	1.38523	0.01096
6316.43273	1.38523	0.01096
6314.93261	1.38523	0.01095
6313.4325	1.38523	0.01095
6311.93239	1.38522	0.01095
6310.43228	1.38522	0.01096
6308.93217	1.38522	0.01096
6307.43205	1.38523	0.01096
6305.93194	1.38523	0.01096
6304.43183	1.38524	0.01094
6302.93172	1.38523	0.01093
6301.43161	1.38523	0.01093
6299.9315	1.38523	0.01091
6298.43138	1.38523	0.0109
6296.93127	1.38522	0.01088
6295.43116	1.38521	0.01086
6293.93105	1.38518	0.01085
6292.43094	1.38517	0.01084
6290.93082	1.38515	0.01084
6289.43071	1.38512	0.01083
6287.9306	1.38511	0.01083
6286.43049	1.38509	0.01084
6284.93038	1.38507	0.01084
6283.43027	1.38505	0.01086
6281.93015	1.38505	0.01087
6280.43004	1.38506	0.01089
6278.92993	1.38506	0.01089
6277.42982	1.38507	0.0109
6275.92971	1.38507	0.0109
6274.42959	1.38507	0.0109
6272.92948	1.38509	0.01089
6271.42937	1.38509	0.01088
6269.92926	1.3851	0.01086
6268.42915	1.38511	0.01085
6266.92904	1.3851	0.01083
6265.42892	1.3851	0.01082
6263.92881	1.3851	0.0108
6262.4287	1.38509	0.01078
6260.92859	1.38509	0.01077
6259.42848	1.38509	0.01074
6257.92836	1.38508	0.01071
6256.42825	1.38506	0.01069
6254.92814	1.38504	0.01067
6253.42803	1.38501	0.01065
6251.92792	1.38499	0.01065
6250.42781	1.38497	0.01063
6248.92769	1.38494	0.01062
6247.42758	1.38492	0.01062
6245.92747	1.38489	0.01062
6244.42736	1.38488	0.01062
6242.92725	1.38486	0.01063
6241.42713	1.38485	0.01063
6239.92702	1.38484	0.01063
6238.42691	1.38482	0.01063
6236.9268	1.38482	0.01063
6235.42669	1.38482	0.01064
6233.92658	1.38482	0.01063
6232.42646	1.38482	0.01063
6230.92635	1.38482	0.01062
6229.42624	1.38481	0.01061
6227.92613	1.38481	0.0106
6226.42602	1.38482	0.01058
6224.9259	1.38482	0.01056
6223.42579	1.38481	0.01053
6221.92568	1.38479	0.01049
6220.42557	1.38477	0.01046
6218.92546	1.38473	0.01043
6217.42535	1.38469	0.01041
6215.92523	1.38465	0.0104
6214.42512	1.38461	0.01039
6212.92501	1.38457	0.01039
6211.4249	1.38452	0.01039
6209.92479	1.38448	0.01042
6208.42467	1.38445	0.01045
6206.92456	1.38444	0.01048
6205.42445	1.38443	0.01051
6203.92434	1.38444	0.01053
6202.42423	1.38445	0.01055
6200.92412	1.38445	0.01055
6199.424	1.38447	0.01056
6197.92389	1.38449	0.01055
6196.42378	1.38449	0.01052
6194.92367	1.38449	0.0105
6193.42356	1.38448	0.01048
6191.92344	1.38446	0.01045
6190.42333	1.38445	0.01044
6188.92322	1.38443	0.01042
6187.42311	1.38442	0.01042
6185.923	1.38439	0.01041
6184.42289	1.38437	0.0104
6182.92277	1.38436	0.0104
6181.42266	1.38434	0.01038
6179.92255	1.38432	0.01037
6178.42244	1.3843	0.01035
6176.92233	1.38426	0.01034
6175.42221	1.38422	0.01034
6173.9221	1.38419	0.01034
6172.42199	1.38416	0.01036
6170.92188	1.38413	0.01038
6169.42177	1.38411	0.01041
6167.92166	1.3841	0.01045
6166.42154	1.38411	0.01048
6164.92143	1.38414	0.0105
6163.42132	1.38416	0.01051
6161.92121	1.38418	0.0105
6160.4211	1.3842	0.01048
6158.92098	1.38421	0.01045
6157.42087	1.38422	0.01042
6155.92076	1.38422	0.01038
6154.42065	1.3842	0.01034
6152.92054	1.38417	0.0103
6151.42043	1.38414	0.01027
6149.92031	1.38409	0.01026
6148.4202	1.38405	0.01025
6146.92009	1.38402	0.01025
6145.41998	1.38399	0.01025
6143.91987	1.38395	0.01027
6142.41975	1.38393	0.01027
6140.91964	1.3839	0.01029
6139.41953	1.38389	0.0103
6137.91942	1.38387	0.01031
6136.41931	1.38386	0.01031
6134.9192	1.38384	0.01032
6133.41908	1.38383	0.01033
6131.91897	1.38382	0.01034
6130.41886	1.38381	0.01035
6128.91875	1.3838	0.01035
6127.41864	1.38378	0.01036
6125.91853	1.38377	0.01038
6124.41841	1.38377	0.0104
6122.9183	1.38378	0.01041
6121.41819	1.38379	0.01042
6119.91808	1.3838	0.01042
6118.41797	1.38381	0.01041
6116.91785	1.38382	0.0104
6115.41774	1.38383	0.0104
6113.91763	1.38384	0.01037
6112.41752	1.38385	0.01035
6110.91741	1.38384	0.01031
6109.4173	1.38383	0.01028
6107.91718	1.3838	0.01026
6106.41707	1.38377	0.01024
6104.91696	1.38375	0.01023
6103.41685	1.38372	0.01022
6101.91674	1.3837	0.01022
6100.41662	1.38367	0.01022
6098.91651	1.38365	0.01022
6097.4164	1.38362	0.01023
6095.91629	1.38361	0.01024
6094.41618	1.3836	0.01026
6092.91607	1.3836	0.01026
6091.41595	1.38361	0.01027
6089.91584	1.38361	0.01027
6088.41573	1.38361	0.01026
6086.91562	1.38361	0.01025
6085.41551	1.38361	0.01024
6083.91539	1.38362	0.01022
6082.41528	1.38362	0.0102
6080.91517	1.3836	0.01017
6079.41506	1.38358	0.01016
6077.91495	1.38356	0.01014
6076.41484	1.38354	0.01014
6074.91472	1.38354	0.01013
6073.41461	1.38353	0.01012
6071.9145	1.38352	0.01011
6070.41439	1.3835	0.01009
6068.91428	1.38349	0.01008
6067.41416	1.38348	0.01005
6065.91405	1.38347	0.01003
6064.41394	1.38344	0.01
6062.91383	1.38341	0.00997
6061.41372	1.38337	0.00995
6059.91361	1.38333	0.00994
6058.41349	1.38329	0.00994
6056.91338	1.38325	0.00994
6055.41327	1.38321	0.00994
6053.91316	1.38317	0.00996
6052.41305	1.38314	0.00998
6050.91293	1.38312	0.01
6049.41282	1.3831	0.01003
6047.91271	1.3831	0.01004
6046.4126	1.38309	0.01006
6044.91249	1.38309	0.01007
6043.41238	1.38309	0.01008
6041.91226	1.38309	0.01008
6040.41215	1.3831	0.01008
6038.91204	1.3831	0.01007
6037.41193	1.38309	0.01006
6035.91182	1.38307	0.01005
6034.4117	1.38306	0.01004
6032.91159	1.38305	0.01005
6031.41148	1.38305	0.01005
6029.91137	1.38305	0.01006
6028.41126	1.38305	0.01006
6026.91115	1.38306	0.01005
6025.41103	1.38307	0.01004
6023.91092	1.38308	0.01001
6022.41081	1.38308	0.00998
6020.9107	1.38308	0.00994
6019.41059	1.38306	0.00989
6017.91047	1.38302	0.00985
6016.41036	1.38298	0.00981
6014.91025	1.38294	0.0098
6013.41014	1.38288	0.00979
6011.91003	1.38284	0.00979
6010.40992	1.38279	0.0098
6008.9098	1.38276	0.00983
6007.40969	1.38274	0.00984
6005.90958	1.38272	0.00987
6004.40947	1.38271	0.00987
6002.90936	1.3827	0.00988
6001.40924	1.3827	0.00988
5999.90913	1.38269	0.00988
5998.40902	1.38269	0.00987
5996.90891	1.38267	0.00985
5995.4088	1.38265	0.00983
5993.90869	1.38263	0.00983
5992.40857	1.3826	0.00982
5990.90846	1.38258	0.00982
5989.40835	1.38254	0.00982
5987.90824	1.38252	0.00982
5986.40813	1.38249	0.00983
5984.90801	1.38246	0.00984
5983.4079	1.38245	0.00986
5981.90779	1.38243	0.00989
5980.40768	1.38243	0.0099
5978.90757	1.38243	0.00992
5977.40746	1.38243	0.00992
5975.90734	1.38243	0.00993
5974.40723	1.38243	0.00993
5972.90712	1.38244	0.00992
5971.40701	1.38244	0.00992
5969.9069	1.38245	0.0099
5968.40678	1.38244	0.00987
5966.90667	1.38243	0.00985
5965.40656	1.3824	0.00984
5963.90645	1.38238	0.00983
5962.40634	1.38236	0.00983
5960.90623	1.38235	0.00983
5959.40611	1.38232	0.00982
5957.906	1.3823	0.00982
5956.40589	1.38228	0.00983
5954.90578	1.38226	0.00984
5953.40567	1.38226	0.00985
5951.90555	1.38225	0.00985
5950.40544	1.38225	0.00985
5948.90533	1.38225	0.00985
5947.40522	1.38224	0.00985
5945.90511	1.38224	0.00985
5944.405	1.38224	0.00985
5942.90488	1.38225	0.00985
5941.40477	1.38226	0.00983
5939.90466	1.38226	0.00983
5938.40455	1.38227	0.00981
5936.90444	1.38227	0.00979
5935.40433	1.38228	0.00976
5933.90421	1.38228	0.00973
5932.4041	1.38228	0.00969
5930.90399	1.38227	0.00965
5929.40388	1.38225	0.0096
5927.90377	1.38221	0.00955
5926.40365	1.38218	0.00951
5924.90354	1.38212	0.00947
5923.40343	1.38206	0.00945
5921.90332	1.38201	0.00942
5920.40321	1.38194	0.00942
5918.9031	1.38187	0.00942
5917.40298	1.38182	0.00944
5915.90287	1.38176	0.00947
5914.40276	1.38173	0.0095
5912.90265	1.3817	0.00954
5911.40254	1.38168	0.00957
5909.90242	1.38167	0.00961
5908.40231	1.38167	0.00963
5906.9022	1.38167	0.00965
5905.40209	1.38168	0.00967
5903.90198	1.38168	0.00967
5902.40187	1.3817	0.00967
5900.90175	1.38171	0.00966
5899.40164	1.38171	0.00965
5897.90153	1.3817	0.00963
5896.40142	1.38169	0.00962
5894.90131	1.38169	0.00961
5893.40119	1.38169	0.0096
5891.90108	1.38168	0.00958
5890.40097	1.38167	0.00957
5888.90086	1.38165	0.00955
5887.40075	1.38163	0.00954
5885.90064	1.38162	0.00952
5884.40052	1.38161	0.0095
5882.90041	1.38159	0.00948
5881.4003	1.38156	0.00945
5879.90019	1.38153	0.00943
5878.40008	1.3815	0.00941
5876.89996	1.38146	0.0094
5875.39985	1.38143	0.0094
5873.89974	1.38139	0.00939
5872.39963	1.38136	0.00939
5870.89952	1.38133	0.0094
5869.39941	1.38129	0.0094
5867.89929	1.38126	0.00941
5866.39918	1.38123	0.00942
5864.89907	1.38121	0.00943
5863.39896	1.3812	0.00944
5861.89885	1.38117	0.00945
5860.39873	1.38115	0.00947
5858.89862	1.38114	0.00948
5857.39851	1.38113	0.0095
5855.8984	1.38113	0.00951
5854.39829	1.38114	0.00951
5852.89818	1.38115	0.00951
5851.39806	1.38115	0.00949
5849.89795	1.38115	0.00948
5848.39784	1.38113	0.00946
5846.89773	1.38112	0.00944
5845.39762	1.38111	0.00942
5843.8975	1.38108	0.0094
5842.39739	1.38105	0.00939
5840.89728	1.38102	0.00938
5839.39717	1.381	0.00938
5837.89706	1.38097	0.00939
5836.39695	1.38096	0.00939
5834.89683	1.38094	0.00939
5833.39672	1.38093	0.00939
5831.89661	1.38092	0.00939
5830.3965	1.38091	0.00937
5828.89639	1.3809	0.00937
5827.39627	1.38088	0.00935
5825.89616	1.38086	0.00934
5824.39605	1.38084	0.00932
5822.89594	1.38082	0.00932
5821.39583	1.38079	0.0093
5819.89572	1.38076	0.00929
5818.3956	1.38074	0.00929
5816.89549	1.38071	0.00929
5815.39538	1.38068	0.00929
5813.89527	1.38066	0.0093
5812.39516	1.38064	0.0093
5810.89504	1.38062	0.0093
5809.39493	1.38061	0.0093
5807.89482	1.3806	0.0093
5806.39471	1.38058	0.00929
5804.8946	1.38057	0.00928
5803.39449	1.38054	0.00927
5801.89437	1.38052	0.00926
5800.39426	1.3805	0.00925
5798.89415	1.38048	0.00924
5797.39404	1.38045	0.00923
5795.89393	1.38042	0.00923
5794.39381	1.38039	0.00923
5792.8937	1.38037	0.00923
5791.39359	1.38035	0.00923
5789.89348	1.38032	0.00923
5788.39337	1.3803	0.00923
5786.89326	1.38028	0.00924
5785.39314	1.38027	0.00924
5783.89303	1.38025	0.00924
5782.39292	1.38023	0.00923
5780.89281	1.38021	0.00922
5779.3927	1.38018	0.00921
5777.89258	1.38015	0.00921
5776.39247	1.38012	0.0092
5774.89236	1.38008	0.00921
5773.39225	1.38005	0.00921
5771.89214	1.38001	0.00923
5770.39203	1.37998	0.00925
5768.89191	1.37996	0.00928
5767.3918	1.37996	0.00931
5765.89169	1.37997	0.00934
5764.39158	1.37998	0.00935
5762.89147	1.37999	0.00935
5761.39135	1.37999	0.00935
5759.89124	1.38	0.00933
5758.39113	1.38001	0.00932
5756.89102	1.38001	0.00929
5755.39091	1.38	0.00926
5753.8908	1.37999	0.00924
5752.39068	1.37997	0.00921
5750.89057	1.37994	0.0092
5749.39046	1.37991	0.00918
5747.89035	1.37989	0.00917
5746.39024	1.37987	0.00915
5744.89013	1.37985	0.00914
5743.39001	1.37982	0.00912
5741.8899	1.37979	0.00911
5740.38979	1.37976	0.00908
5738.88968	1.37971	0.00907
5737.38957	1.37968	0.00906
5735.88945	1.37963	0.00906
5734.38934	1.37959	0.00906
5732.88923	1.37955	0.00907
5731.38912	1.37952	0.00907
5729.88901	1.37948	0.00909
5728.3889	1.37945	0.00911
5726.88878	1.37943	0.00911
5725.38867	1.37941	0.00912
5723.88856	1.3794	0.00913
5722.38845	1.37937	0.00912
5720.88834	1.37935	0.00912
5719.38822	1.37932	0.00913
5717.88811	1.37929	0.00913
5716.388	1.37926	0.00914
5714.88789	1.37923	0.00914
5713.38778	1.37921	0.00916
5711.88767	1.37918	0.00918
5710.38755	1.37916	0.0092
5708.88744	1.37914	0.00922
5707.38733	1.37914	0.00924
5705.88722	1.37913	0.00926
5704.38711	1.37913	0.00927
5702.88699	1.37914	0.00928
5701.38688	1.37914	0.00927
5699.88677	1.37914	0.00927
5698.38666	1.37913	0.00925
5696.88655	1.37912	0.00925
5695.38644	1.37911	0.00923
5693.88632	1.3791	0.00922
5692.38621	1.37908	0.00921
5690.8861	1.37906	0.0092
5689.38599	1.37903	0.00919
5687.88588	1.379	0.00919
5686.38576	1.37898	0.00919
5684.88565	1.37895	0.00919
5683.38554	1.37894	0.00919
5681.88543	1.37891	0.00919
5680.38532	1.37889	0.00919
5678.88521	1.37886	0.00919
5677.38509	1.37885	0.0092
5675.88498	1.37883	0.00921
5674.38487	1.37881	0.00923
5672.88476	1.37881	0.00923
5671.38465	1.3788	0.00923
5669.88453	1.3788	0.00923
5668.38442	1.37879	0.00923
5666.88431	1.37879	0.00922
5665.3842	1.37878	0.00921
5663.88409	1.37877	0.0092
5662.38398	1.37875	0.00917
5660.88386	1.37872	0.00915
5659.38375	1.3787	0.00915
5657.88364	1.37867	0.00913
5656.38353	1.37864	0.00913
5654.88342	1.3786	0.00913
5653.3833	1.37858	0.00913
5651.88319	1.37855	0.00914
5650.38308	1.37854	0.00915
5648.88297	1.37852	0.00916
5647.38286	1.3785	0.00916
5645.88275	1.37849	0.00916
5644.38263	1.37848	0.00916
5642.88252	1.37847	0.00916
5641.38241	1.37846	0.00915
5639.8823	1.37844	0.00914
5638.38219	1.37842	0.00912
5636.88207	1.37839	0.00911
5635.38196	1.37836	0.0091
5633.88185	1.37834	0.0091
5632.38174	1.37831	0.0091
5630.88163	1.37829	0.0091
5629.38152	1.37826	0.00911
5627.8814	1.37823	0.00912
5626.38129	1.37821	0.00912
5624.88118	1.37819	0.00913
5623.38107	1.37818	0.00913
5621.88096	1.37817	0.00914
5620.38084	1.37815	0.00914
5618.88073	1.37814	0.00913
5617.38062	1.37812	0.00913
5615.88051	1.37811	0.00913
5614.3804	1.37808	0.00913
5612.88029	1.37807	0.00913
5611.38017	1.37805	0.00913
5609.88006	1.37804	0.00913
5608.37995	1.37802	0.00913
5606.87984	1.378	0.00913
5605.37973	1.378	0.00913
5603.87961	1.37798	0.00913
5602.3795	1.37798	0.00913
5600.87939	1.37798	0.00912
5599.37928	1.37797	0.0091
5597.87917	1.37796	0.00908
5596.37906	1.37795	0.00906
5594.87894	1.37792	0.00903
5593.37883	1.3779	0.009
5591.87872	1.37786	0.00897
5590.37861	1.37781	0.00894
5588.8785	1.37776	0.00892
5587.37838	1.3777	0.0089
5585.87827	1.37764	0.0089
5584.37816	1.37757	0.00892
5582.87805	1.37751	0.00894
5581.37794	1.37746	0.00898
5579.87783	1.37742	0.00902
5578.37771	1.37738	0.00906
5576.8776	1.37736	0.00911
5575.37749	1.37735	0.00916
5573.87738	1.37734	0.00919
5572.37727	1.37735	0.00924
5570.87715	1.37736	0.00926
5569.37704	1.37738	0.00929
5567.87693	1.3774	0.0093
5566.37682	1.37742	0.00931
5564.87671	1.37745	0.00931
5563.3766	1.37747	0.00929
5561.87648	1.37748	0.00928
5560.37637	1.3775	0.00924
5558.87626	1.3775	0.00922
5557.37615	1.3775	0.00918
5555.87604	1.37748	0.00915
5554.37592	1.37745	0.00911
5552.87581	1.37742	0.00908
5551.3757	1.37739	0.00908
5549.87559	1.37736	0.00907
5548.37548	1.37733	0.00907
5546.87537	1.37729	0.00906
5545.37525	1.37727	0.00906
5543.87514	1.37724	0.00907
5542.37503	1.37723	0.00907
5540.87492	1.37722	0.00907
5539.37481	1.3772	0.00905
5537.8747	1.37719	0.00904
5536.37458	1.37716	0.00903
5534.87447	1.37713	0.00902
5533.37436	1.37709	0.00902
5531.87425	1.37707	0.00902
5530.37414	1.37705	0.00902
5528.87402	1.37703	0.00902
5527.37391	1.377	0.00902
5525.8738	1.37697	0.00903
5524.37369	1.37695	0.00904
5522.87358	1.37693	0.00904
5521.37347	1.37692	0.00905
5519.87335	1.37691	0.00905
5518.37324	1.3769	0.00906
5516.87313	1.37688	0.00906
5515.37302	1.37687	0.00906
5513.87291	1.37685	0.00906
5512.37279	1.37684	0.00906
5510.87268	1.37683	0.00906
5509.37257	1.37683	0.00906
5507.87246	1.37682	0.00906
5506.37235	1.37682	0.00906
5504.87224	1.37682	0.00905
5503.37212	1.37681	0.00904
5501.87201	1.37681	0.00903
5500.3719	1.37681	0.009
5498.87179	1.37679	0.00897
5497.37168	1.37678	0.00893
5495.87156	1.37675	0.0089
5494.37145	1.3767	0.00887
5492.87134	1.37664	0.00884
5491.37123	1.37658	0.00884
5489.87112	1.37653	0.00886
5488.37101	1.3765	0.00888
5486.87089	1.37647	0.00891
5485.37078	1.37645	0.00894
5483.87067	1.37644	0.00897
5482.37056	1.37644	0.009
5480.87045	1.37646	0.00903
5479.37033	1.37649	0.00903
5477.87022	1.37651	0.009
5476.37011	1.37653	0.00897
5474.87	1.37652	0.00893
5473.36989	1.37652	0.00891
5471.86978	1.3765	0.00887
5470.36966	1.37649	0.00884
5468.86955	1.37647	0.0088
5467.36944	1.37643	0.00878
5465.86933	1.37639	0.00876
5464.36922	1.37636	0.00875
5462.8691	1.37633	0.00874
5461.36899	1.37632	0.00874
5459.86888	1.3763	0.00873
5458.36877	1.37628	0.00872
5456.86866	1.37627	0.00871
5455.36855	1.37625	0.00869
5453.86843	1.37624	0.00867
5452.36832	1.37622	0.00863
5450.86821	1.3762	0.00859
5449.3681	1.37617	0.00855
5447.86799	1.37613	0.00851
5446.36787	1.37607	0.00848
5444.86776	1.37602	0.00846
5443.36765	1.37596	0.00845
5441.86754	1.37591	0.00845
5440.36743	1.37586	0.00845
5438.86732	1.37582	0.00846
5437.3672	1.37577	0.00846
5435.86709	1.37572	0.00847
5434.36698	1.37569	0.00847
5432.86687	1.37564	0.00848
5431.36676	1.37561	0.0085
5429.86664	1.37557	0.00851
5428.36653	1.37554	0.00854
5426.86642	1.37554	0.00858
5425.36631	1.37554	0.00861
5423.8662	1.37556	0.00862
5422.36609	1.37558	0.00862
5420.86597	1.37559	0.00861
5419.36586	1.37562	0.00857
5417.86575	1.37562	0.00852
5416.36564	1.37562	0.00844
5414.86553	1.37558	0.00836
5413.36541	1.37551	0.00829
5411.8653	1.37543	0.00825
5410.36519	1.37535	0.00824
5408.86508	1.37529	0.00825
5407.36497	1.37523	0.00826
5405.86486	1.37518	0.00829
5404.36474	1.37515	0.00832
5402.86463	1.37513	0.00834
5401.36452	1.37513	0.00834
5399.86441	1.37513	0.00832
5398.3643	1.37511	0.00827
5396.86418	1.37508	0.00822
5395.36407	1.37503	0.00815
5393.86396	1.37496	0.00811
5392.36385	1.37488	0.00808
5390.86374	1.37478	0.00807
5389.36363	1.37469	0.00807
5387.86351	1.37461	0.00811
5386.3634	1.37455	0.00816
5384.86329	1.37449	0.0082
5383.36318	1.37446	0.00823
5381.86307	1.37443	0.00826
5380.36295	1.3744	0.00827
5378.86284	1.37437	0.00827
5377.36273	1.37432	0.00825
5375.86262	1.37427	0.00825
5374.36251	1.3742	0.00825
5372.8624	1.37413	0.00826
5371.36228	1.37405	0.0083
5369.86217	1.37397	0.00834
5368.36206	1.37391	0.00842
5366.86195	1.37386	0.0085
5365.36184	1.37383	0.00859
5363.86172	1.37383	0.00868
5362.36161	1.37384	0.00876
5360.8615	1.37386	0.00883
5359.36139	1.37389	0.00889
5357.86128	1.37394	0.00896
5356.36117	1.37402	0.00901
5354.86105	1.37411	0.00902
5353.36094	1.37418	0.00901
5351.86083	1.37424	0.00898
5350.36072	1.3743	0.00895
5348.86061	1.37437	0.00891
5347.3605	1.37444	0.00885
5345.86038	1.37449	0.00874
5344.36027	1.37451	0.00862
5342.86016	1.37448	0.0085
5341.36005	1.37445	0.0084
5339.85994	1.37441	0.0083
5338.35982	1.37436	0.00819
5336.85971	1.37427	0.00808
5335.3596	1.37415	0.00798
5333.85949	1.37401	0.00791
5332.35938	1.37386	0.00788
5330.85927	1.37372	0.00787
5329.35915	1.37359	0.00788
5327.85904	1.37347	0.00791
5326.35893	1.37336	0.00794
5324.85882	1.37325	0.008
5323.35871	1.37315	0.00807
5321.85859	1.37308	0.00814
5320.35848	1.37303	0.0082
5318.85837	1.37297	0.00825
5317.35826	1.37292	0.00831
5315.85815	1.37288	0.00836
5314.35804	1.37284	0.00843
5312.85792	1.37281	0.00849
5311.35781	1.3728	0.00855
5309.8577	1.37279	0.00861
5308.35759	1.37279	0.00868
5306.85748	1.3728	0.00872
5305.35736	1.3728	0.00876
5303.85725	1.37282	0.00879
5302.35714	1.37282	0.0088
5300.85703	1.37283	0.00881
5299.35692	1.37283	0.00882
5297.85681	1.37283	0.00883
5296.35669	1.37284	0.00884
5294.85658	1.37284	0.00884
5293.35647	1.37284	0.00884
5291.85636	1.37283	0.00884
5290.35625	1.37283	0.00883
5288.85613	1.37282	0.00882
5287.35602	1.3728	0.0088
5285.85591	1.37278	0.00877
5284.3558	1.37274	0.00875
5282.85569	1.37269	0.00874
5281.35558	1.37263	0.00874
5279.85546	1.37258	0.00876
5278.35535	1.37252	0.00879
5276.85524	1.37249	0.00883
5275.35513	1.37246	0.00889
5273.85502	1.37246	0.00895
5272.3549	1.37247	0.00898
5270.85479	1.37247	0.00901
5269.35468	1.37248	0.00903
5267.85457	1.37249	0.00903
5266.35446	1.3725	0.00904
5264.85435	1.37251	0.00903
5263.35423	1.37251	0.00902
5261.85412	1.3725	0.00902
5260.35401	1.37249	0.00903
5258.8539	1.37249	0.00906
5257.35379	1.37251	0.00907
5255.85367	1.37254	0.00907
5254.35356	1.37257	0.00906
5252.85345	1.37259	0.00902
5251.35334	1.3726	0.00897
5249.85323	1.3726	0.00892
5248.35312	1.37259	0.00884
5246.853	1.37255	0.00877
5245.35289	1.37249	0.00871
5243.85278	1.37242	0.00868
5242.35267	1.37234	0.00867
5240.85256	1.37227	0.00869
5239.35244	1.37222	0.00871
5237.85233	1.37219	0.00875
5236.35222	1.37216	0.00877
5234.85211	1.37215	0.00879
5233.352	1.37214	0.0088
5231.85189	1.37214	0.00879
5230.35177	1.37214	0.00876
5228.85166	1.37213	0.00872
5227.35155	1.3721	0.00867
5225.85144	1.37205	0.00863
5224.35133	1.37197	0.00859
5222.85121	1.3719	0.00858
5221.3511	1.37181	0.00859
5219.85099	1.37175	0.00862
5218.35088	1.3717	0.00865
5216.85077	1.37166	0.00868
5215.35066	1.37162	0.00872
5213.85054	1.37159	0.00876
5212.35043	1.37158	0.00879
5210.85032	1.37158	0.00882
5209.35021	1.37159	0.00881
5207.8501	1.37158	0.00879
5206.34998	1.37154	0.00875
5204.84987	1.37149	0.00873
5203.34976	1.37143	0.00873
5201.84965	1.37137	0.00874
5200.34954	1.37131	0.00875
5198.84943	1.37126	0.00877
5197.34931	1.37121	0.00882
5195.8492	1.37116	0.00887
5194.34909	1.37112	0.00893
5192.84898	1.37111	0.00899
5191.34887	1.37111	0.00903
5189.84875	1.37113	0.00906
5188.34864	1.37113	0.00908
5186.84853	1.37113	0.00908
5185.34842	1.37113	0.00909
5183.84831	1.37112	0.00909
5182.3482	1.37111	0.0091
5180.84808	1.37111	0.00911
5179.34797	1.3711	0.00911
5177.84786	1.37107	0.00911
5176.34775	1.37105	0.00912
5174.84764	1.37102	0.00913
5173.34752	1.37099	0.00914
5171.84741	1.37096	0.00917
5170.3473	1.37095	0.0092
5168.84719	1.37093	0.00924
5167.34708	1.37092	0.00927
5165.84697	1.37092	0.00932
5164.34685	1.37094	0.00938
5162.84674	1.37098	0.00942
5161.34663	1.37103	0.00945
5159.84652	1.37111	0.00946
5158.34641	1.37117	0.00944
5156.8463	1.37123	0.00939
5155.34618	1.37127	0.00933
5153.84607	1.37129	0.00924
5152.34596	1.37129	0.00916
5150.84585	1.37126	0.00907
5149.34574	1.37122	0.00899
5147.84562	1.37115	0.00892
5146.34551	1.37106	0.00888
5144.8454	1.37097	0.00886
5143.34529	1.37088	0.00887
5141.84518	1.37081	0.0089
5140.34507	1.37074	0.00894
5138.84495	1.37069	0.00899
5137.34484	1.37066	0.00904
5135.84473	1.37064	0.00909
5134.34462	1.37064	0.00914
5132.84451	1.37065	0.00918
5131.34439	1.37068	0.00922
5129.84428	1.37071	0.00924
5128.34417	1.37074	0.00924
5126.84406	1.37076	0.00924
5125.34395	1.37078	0.00922
5123.84384	1.3708	0.0092
5122.34372	1.37081	0.00918
5120.84361	1.37082	0.00915
5119.3435	1.37082	0.00912
5117.84339	1.37082	0.00909
5116.34328	1.37082	0.00907
5114.84316	1.37082	0.00904
5113.34305	1.37081	0.00901
5111.84294	1.3708	0.00898
5110.34283	1.3708	0.00895
5108.84272	1.37077	0.00891
5107.34261	1.37075	0.00888
5105.84249	1.37073	0.00885
5104.34238	1.37071	0.00881
5102.84227	1.37066	0.00879
5101.34216	1.37062	0.00877
5099.84205	1.37059	0.00876
5098.34193	1.37057	0.00876
5096.84182	1.37055	0.00875
5095.34171	1.37054	0.00875
5093.8416	1.37053	0.00873
5092.34149	1.37053	0.00872
5090.84138	1.37053	0.00869
5089.34126	1.37053	0.00866
5087.84115	1.37052	0.00861
5086.34104	1.3705	0.00856
5084.84093	1.37047	0.0085
5083.34082	1.37043	0.00844
5081.8407	1.37038	0.00839
5080.34059	1.37031	0.00834
5078.84048	1.37023	0.00831
5077.34037	1.37015	0.00829
5075.84026	1.37008	0.00829
5074.34015	1.37001	0.0083
5072.84003	1.36995	0.00832
5071.33992	1.3699	0.00834
5069.83981	1.36985	0.00837
5068.3397	1.36982	0.00839
5066.83959	1.36979	0.00842
5065.33947	1.36977	0.00845
5063.83936	1.36977	0.00848
5062.33925	1.36978	0.00849
5060.83914	1.36979	0.00849
5059.33903	1.36979	0.00849
5057.83892	1.36979	0.00848
5056.3388	1.3698	0.00847
5054.83869	1.3698	0.00845
5053.33858	1.36981	0.00841
5051.83847	1.36981	0.00836
5050.33836	1.36979	0.00832
5048.83824	1.36976	0.00828
5047.33813	1.36973	0.00824
5045.83802	1.3697	0.00822
5044.33791	1.36968	0.00819
5042.8378	1.36965	0.00816
5041.33769	1.36963	0.00813
5039.83757	1.36959	0.0081
5038.33746	1.36956	0.00806
5036.83735	1.36952	0.00802
5035.33724	1.36949	0.00798
5033.83713	1.36944	0.00793
5032.33701	1.36939	0.00787
5030.8369	1.36932	0.00784
5029.33679	1.36925	0.00781
5027.83668	1.36917	0.00779
5026.33657	1.3691	0.00777
5024.83646	1.36902	0.00777
5023.33634	1.36894	0.00777
5021.83623	1.36886	0.00778
5020.33612	1.36878	0.0078
5018.83601	1.36873	0.00783
5017.3359	1.36867	0.00786
5015.83578	1.36863	0.0079
5014.33567	1.36859	0.00794
5012.83556	1.36857	0.00799
5011.33545	1.36856	0.00805
5009.83534	1.36858	0.00809
5008.33523	1.3686	0.0081
5006.83511	1.36863	0.00811
5005.335	1.36866	0.0081
5003.83489	1.36868	0.00807
5002.33478	1.3687	0.00802
5000.83467	1.36871	0.00796
4999.33455	1.36869	0.00788
4997.83444	1.36866	0.00782
4996.33433	1.36861	0.00775
4994.83422	1.36854	0.0077
4993.33411	1.36847	0.00767
4991.834	1.36841	0.00765
4990.33388	1.36834	0.00765
4988.83377	1.36828	0.00765
4987.33366	1.36823	0.00766
4985.83355	1.36819	0.00767
4984.33344	1.36815	0.00768
4982.83332	1.36813	0.00768
4981.33321	1.36812	0.00768
4979.8331	1.36809	0.00765
4978.33299	1.36807	0.00763
4976.83288	1.36803	0.0076
4975.33277	1.36799	0.00758
4973.83265	1.36796	0.00755
4972.33254	1.36791	0.00753
4970.83243	1.36786	0.00751
4969.33232	1.3678	0.00749
4967.83221	1.36774	0.00748
4966.3321	1.36769	0.00749
4964.83198	1.36765	0.00749
4963.33187	1.36761	0.00749
4961.83176	1.36758	0.0075
4960.33165	1.36755	0.00749
4958.83154	1.36752	0.00749
4957.33142	1.36749	0.00748
4955.83131	1.36746	0.00746
4954.3312	1.36743	0.00745
4952.83109	1.36739	0.00742
4951.33098	1.36736	0.00741
4949.83087	1.36732	0.00739
4948.33075	1.36727	0.00737
4946.83064	1.36724	0.00735
4945.33053	1.36718	0.00733
4943.83042	1.36713	0.00732
4942.33031	1.36708	0.00731
4940.83019	1.36703	0.0073
4939.33008	1.36697	0.00729
4937.82997	1.36692	0.00728
4936.32986	1.36686	0.00727
4934.82975	1.36679	0.00729
4933.32964	1.36674	0.0073
4931.82952	1.36669	0.00733
4930.32941	1.36667	0.00737
4928.8293	1.36664	0.0074
4927.32919	1.36663	0.00742
4925.82908	1.36662	0.00745
4924.32896	1.36662	0.00746
4922.82885	1.36665	0.00746
4921.32874	1.36667	0.00744
4919.82863	1.36668	0.0074
4918.32852	1.36668	0.00734
4916.82841	1.36667	0.00728
4915.32829	1.36663	0.00722
4913.82818	1.3666	0.00717
4912.32807	1.36655	0.0071
4910.82796	1.36649	0.00704
4909.32785	1.36643	0.00701
4907.82773	1.36635	0.00698
4906.32762	1.36627	0.00696
4904.82751	1.3662	0.00696
4903.3274	1.36615	0.00696
4901.82729	1.3661	0.00695
4900.32718	1.36607	0.00695
4898.82706	1.36602	0.00693
4897.32695	1.36598	0.00692
4895.82684	1.36594	0.00689
4894.32673	1.36589	0.00686
4892.82662	1.36585	0.00683
4891.3265	1.36579	0.00679
4889.82639	1.36572	0.00675
4888.32628	1.36563	0.00673
4886.82617	1.36555	0.00672
4885.32606	1.36546	0.00672
4883.82595	1.3654	0.00673
4882.32583	1.36535	0.00675
4880.82572	1.36529	0.00676
4879.32561	1.36523	0.00677
4877.8255	1.36518	0.00679
4876.32539	1.36514	0.0068
4874.82527	1.36511	0.00681
4873.32516	1.36509	0.0068
4871.82505	1.36505	0.00677
4870.32494	1.365	0.00674
4868.82483	1.36494	0.00672
4867.32472	1.36487	0.0067
4865.8246	1.3648	0.00669
4864.32449	1.36473	0.00669
4862.82438	1.36466	0.00669
4861.32427	1.36458	0.00671
4859.82416	1.36451	0.00673
4858.32404	1.36445	0.00677
4856.82393	1.3644	0.00681
4855.32382	1.36437	0.00684
4853.82371	1.36434	0.00687
4852.3236	1.36433	0.0069
4850.82349	1.36432	0.00692
4849.32337	1.36432	0.00693
4847.82326	1.3643	0.00692
4846.32315	1.3643	0.00691
4844.82304	1.36428	0.00689
4843.32293	1.36428	0.00686
4841.82281	1.36426	0.00683
4840.3227	1.36422	0.00678
4838.82259	1.36417	0.00674
4837.32248	1.36412	0.00671
4835.82237	1.36406	0.00667
4834.32226	1.36401	0.00664
4832.82214	1.36394	0.00662
4831.32203	1.36387	0.0066
4829.82192	1.36379	0.00659
4828.32181	1.36372	0.00659
4826.8217	1.36365	0.0066
4825.32158	1.3636	0.00661
4823.82147	1.36355	0.00661
4822.32136	1.3635	0.00661
4820.82125	1.36345	0.00662
4819.32114	1.3634	0.00662
4817.82103	1.36335	0.00662
4816.32091	1.36331	0.00661
4814.8208	1.36325	0.0066
4813.32069	1.36319	0.0066
4811.82058	1.36313	0.0066
4810.32047	1.36308	0.00661
4808.82035	1.36303	0.00662
4807.32024	1.36298	0.00663
4805.82013	1.36294	0.00664
4804.32002	1.3629	0.00665
4802.81991	1.36286	0.00666
4801.3198	1.36282	0.00666
4799.81968	1.36279	0.00665
4798.31957	1.36275	0.00664
4796.81946	1.36271	0.00663
4795.31935	1.36266	0.00662
4793.81924	1.36261	0.00661
4792.31912	1.36256	0.00661
4790.81901	1.3625	0.0066
4789.3189	1.36245	0.0066
4787.81879	1.36241	0.0066
4786.31868	1.36235	0.00659
4784.81857	1.3623	0.00659
4783.31845	1.36224	0.00658
4781.81834	1.36217	0.00658
4780.31823	1.36211	0.00659
4778.81812	1.36205	0.0066
4777.31801	1.36199	0.00661
4775.81789	1.36193	0.00664
4774.31778	1.36187	0.00666
4772.81767	1.36182	0.0067
4771.31756	1.36178	0.00675
4769.81745	1.36175	0.00679
4768.31734	1.36174	0.00681
4766.81722	1.36173	0.00684
4765.31711	1.36173	0.00685
4763.817	1.36172	0.00686
4762.31689	1.36171	0.00686
4760.81678	1.3617	0.00684
4759.31667	1.36169	0.00682
4757.81655	1.36167	0.00681
4756.31644	1.36164	0.00679
4754.81633	1.36161	0.00678
4753.31622	1.36158	0.00676
4751.81611	1.36155	0.00675
4750.31599	1.36151	0.00674
4748.81588	1.36148	0.00674
4747.31577	1.36145	0.00674
4745.81566	1.36143	0.00673
4744.31555	1.36141	0.00673
4742.81544	1.36139	0.00672
4741.31532	1.36138	0.00671
4739.81521	1.36137	0.0067
4738.3151	1.36137	0.00668
4736.81499	1.36137	0.00665
4735.31488	1.36137	0.0066
4733.81476	1.36135	0.00656
4732.31465	1.36133	0.00649
4730.81454	1.36131	0.00643
4729.31443	1.36127	0.00637
4727.81432	1.36123	0.0063
4726.31421	1.36117	0.00624
4724.81409	1.3611	0.00617
4723.31398	1.36102	0.00611
4721.81387	1.36094	0.00606
4720.31376	1.36086	0.00603
4718.81365	1.36078	0.00599
4717.31353	1.36069	0.00596
4715.81342	1.36059	0.00592
4714.31331	1.3605	0.00591
4712.8132	1.36041	0.0059
4711.31309	1.36032	0.0059
4709.81298	1.36023	0.00589
4708.31286	1.36015	0.00591
4706.81275	1.36008	0.00592
4705.31264	1.36001	0.00594
4703.81253	1.35995	0.00596
4702.31242	1.35991	0.00597
4700.8123	1.35986	0.00598
4699.31219	1.35982	0.00599
4697.81208	1.35978	0.00599
4696.31197	1.35976	0.00599
4694.81186	1.35973	0.00597
4693.31175	1.3597	0.00596
4691.81163	1.35966	0.00593
4690.31152	1.35961	0.0059
4688.81141	1.35957	0.00586
4687.3113	1.35951	0.00583
4685.81119	1.35946	0.0058
4684.31107	1.35941	0.00577
4682.81096	1.35935	0.00572
4681.31085	1.35927	0.00568
4679.81074	1.35918	0.00565
4678.31063	1.35909	0.00563
4676.81052	1.35901	0.00562
4675.3104	1.35893	0.0056
4673.81029	1.35884	0.0056
4672.31018	1.35876	0.0056
4670.81007	1.35866	0.00561
4669.30996	1.35858	0.00564
4667.80984	1.35852	0.00567
4666.30973	1.35848	0.0057
4664.80962	1.35845	0.00571
4663.30951	1.35843	0.00572
4661.8094	1.35839	0.00571
4660.30929	1.35835	0.0057
4658.80917	1.35832	0.00568
4657.30906	1.35829	0.00565
4655.80895	1.35825	0.00561
4654.30884	1.3582	0.00556
4652.80873	1.35814	0.00552
4651.30861	1.35807	0.00548
4649.8085	1.35799	0.00545
4648.30839	1.3579	0.00542
4646.80828	1.35782	0.0054
4645.30817	1.35775	0.00538
4643.80806	1.35767	0.00535
4642.30794	1.35759	0.00534
4640.80783	1.3575	0.00532
4639.30772	1.35741	0.00531
4637.80761	1.35732	0.0053
4636.3075	1.35724	0.0053
4634.80738	1.35714	0.0053
4633.30727	1.35706	0.00531
4631.80716	1.35699	0.00532
4630.30705	1.35691	0.00533
4628.80694	1.35683	0.00535
4627.30683	1.35677	0.00537
4625.80671	1.35672	0.00538
4624.3066	1.35666	0.00539
4622.80649	1.35661	0.00539
4621.30638	1.35656	0.00539
4619.80627	1.35651	0.00538
4618.30615	1.35645	0.00536
4616.80604	1.35639	0.00535
4615.30593	1.35633	0.00533
4613.80582	1.35626	0.00532
4612.30571	1.35618	0.00529
4610.8056	1.35612	0.00527
4609.30548	1.35604	0.00527
4607.80537	1.35596	0.00525
4606.30526	1.35587	0.00525
4604.80515	1.35579	0.00524
4603.30504	1.3557	0.00524
4601.80492	1.35562	0.00525
4600.30481	1.35554	0.00526
4598.8047	1.35546	0.00527
4597.30459	1.35539	0.00528
4595.80448	1.35531	0.00529
4594.30437	1.35524	0.0053
4592.80425	1.35517	0.00532
4591.30414	1.3551	0.00534
4589.80403	1.35504	0.00536
4588.30392	1.35499	0.00538
4586.80381	1.35494	0.00541
4585.30369	1.35491	0.00542
4583.80358	1.35487	0.00542
4582.30347	1.35484	0.00542
4580.80336	1.3548	0.0054
4579.30325	1.35475	0.00537
4577.80314	1.3547	0.00534
4576.30302	1.35465	0.0053
4574.80291	1.35458	0.00526
4573.3028	1.3545	0.00522
4571.80269	1.3544	0.00519
4570.30258	1.3543	0.00516
4568.80247	1.35419	0.00515
4567.30235	1.35408	0.00514
4565.80224	1.35398	0.00515
4564.30213	1.35388	0.00517
4562.80202	1.35378	0.0052
4561.30191	1.35369	0.00523
4559.80179	1.35361	0.00527
4558.30168	1.35354	0.00531
4556.80157	1.35349	0.00534
4555.30146	1.35344	0.00537
4553.80135	1.3534	0.00539
4552.30124	1.35335	0.0054
4550.80112	1.3533	0.0054
4549.30101	1.35326	0.00539
4547.8009	1.3532	0.00538
4546.30079	1.35314	0.00537
4544.80068	1.35307	0.00537
4543.30056	1.353	0.00537
4541.80045	1.35294	0.00537
4540.30034	1.35287	0.00538
4538.80023	1.35281	0.00538
4537.30012	1.35274	0.00539
4535.80001	1.35269	0.00539
4534.29989	1.35263	0.00539
4532.79978	1.35258	0.00538
4531.29967	1.3525	0.00537
4529.79956	1.35244	0.00536
4528.29945	1.35236	0.00536
4526.79933	1.3523	0.00537
4525.29922	1.35222	0.00537
4523.79911	1.35216	0.00537
4522.299	1.35209	0.00537
4520.79889	1.35201	0.00538
4519.29878	1.35195	0.00539
4517.79866	1.35188	0.0054
4516.29855	1.35183	0.00541
4514.79844	1.35177	0.00542
4513.29833	1.35173	0.00542
4511.79822	1.35168	0.00543
4510.2981	1.35162	0.00543
4508.79799	1.35158	0.00542
4507.29788	1.35153	0.00541
4505.79777	1.35148	0.00539
4504.29766	1.35142	0.00537
4502.79755	1.35136	0.00534
4501.29743	1.3513	0.00532
4499.79732	1.35122	0.00529
4498.29721	1.35114	0.00528
4496.7971	1.35107	0.00526
4495.29699	1.351	0.00526
4493.79687	1.35092	0.00525
4492.29676	1.35085	0.00524
4490.79665	1.35078	0.00524
4489.29654	1.35071	0.00523
4487.79643	1.35065	0.00522
4486.29632	1.35058	0.00519
4484.7962	1.35051	0.00517
4483.29609	1.35043	0.00514
4481.79598	1.35034	0.00511
4480.29587	1.35025	0.0051
4478.79576	1.35015	0.00508
4477.29564	1.35006	0.00507
4475.79553	1.34997	0.00507
4474.29542	1.34986	0.00507
4472.79531	1.34977	0.00509
4471.2952	1.34969	0.0051
4469.79509	1.34961	0.00511
4468.29497	1.34954	0.00511
4466.79486	1.34946	0.00511
4465.29475	1.34938	0.00512
4463.79464	1.3493	0.00512
4462.29453	1.34923	0.00512
4460.79441	1.34916	0.00511
4459.2943	1.34908	0.00511
4457.79419	1.349	0.0051
4456.29408	1.3489	0.0051
4454.79397	1.34883	0.00511
4453.29386	1.34875	0.00512
4451.79374	1.34867	0.00512
4450.29363	1.34859	0.00512
4448.79352	1.34851	0.00512
4447.29341	1.34844	0.00512
4445.7933	1.34835	0.00512
4444.29318	1.34827	0.00512
4442.79307	1.34819	0.00512
4441.29296	1.34812	0.00512
4439.79285	1.34804	0.00512
4438.29274	1.34795	0.00512
4436.79263	1.34787	0.00512
4435.29251	1.34778	0.00513
4433.7924	1.3477	0.00514
4432.29229	1.34762	0.00515
4430.79218	1.34754	0.00515
4429.29207	1.34746	0.00516
4427.79195	1.34739	0.00518
4426.29184	1.34731	0.00518
4424.79173	1.34723	0.00519
4423.29162	1.34715	0.0052
4421.79151	1.34708	0.00522
4420.2914	1.34701	0.00523
4418.79128	1.34696	0.00524
4417.29117	1.34689	0.00524
4415.79106	1.34682	0.00523
4414.29095	1.34675	0.00523
4412.79084	1.34668	0.00523
4411.29072	1.34662	0.00522
4409.79061	1.34655	0.00522
4408.2905	1.34648	0.00521
4406.79039	1.34642	0.00521
4405.29028	1.34635	0.0052
4403.79017	1.34627	0.00519
4402.29005	1.3462	0.00518
4400.78994	1.34614	0.00516
4399.28983	1.34607	0.00514
4397.78972	1.34599	0.00511
4396.28961	1.34591	0.00507
4394.78949	1.34581	0.00504
4393.28938	1.34571	0.00501
4391.78927	1.34559	0.00499
4390.28916	1.34548	0.00499
4388.78905	1.34537	0.00499
4387.28894	1.34527	0.00499
4385.78882	1.34517	0.00501
4384.28871	1.34507	0.00503
4382.7886	1.34498	0.00504
4381.28849	1.34489	0.00505
4379.78838	1.34481	0.00505
4378.28827	1.34473	0.00506
4376.78815	1.34464	0.00505
4375.28804	1.34455	0.00505
4373.78793	1.34446	0.00505
4372.28782	1.34437	0.00506
4370.78771	1.34427	0.00507
4369.28759	1.34418	0.00508
4367.78748	1.3441	0.00509
4366.28737	1.34402	0.0051
4364.78726	1.34394	0.00511
4363.28715	1.34386	0.00512
4361.78704	1.34378	0.00512
4360.28692	1.34371	0.00512
4358.78681	1.34362	0.00511
4357.2867	1.34353	0.00511
4355.78659	1.34345	0.00511
4354.28648	1.34336	0.00511
4352.78636	1.34328	0.00511
4351.28625	1.34319	0.00511
4349.78614	1.34311	0.00512
4348.28603	1.34302	0.00512
4346.78592	1.34294	0.00513
4345.28581	1.34286	0.00513
4343.78569	1.34279	0.00512
4342.28558	1.3427	0.00511
4340.78547	1.34262	0.0051
4339.28536	1.34253	0.00509
4337.78525	1.34244	0.00508
4336.28513	1.34235	0.00508
4334.78502	1.34226	0.00507
4333.28491	1.34217	0.00506
4331.7848	1.34208	0.00506
4330.28469	1.34198	0.00506
4328.78458	1.34188	0.00506
4327.28446	1.3418	0.00506
4325.78435	1.3417	0.00505
4324.28424	1.34162	0.00504
4322.78413	1.34151	0.00504
4321.28402	1.34142	0.00503
4319.7839	1.34133	0.00503
4318.28379	1.34124	0.00503
4316.78368	1.34114	0.00503
4315.28357	1.34105	0.00503
4313.78346	1.34097	0.00502
4312.28335	1.34087	0.00502
4310.78323	1.34079	0.00501
4309.28312	1.3407	0.005
4307.78301	1.34061	0.00497
4306.2829	1.34051	0.00496
4304.78279	1.3404	0.00493
4303.28267	1.34029	0.00491
4301.78256	1.34018	0.0049
4300.28245	1.34005	0.00488
4298.78234	1.33993	0.00488
4297.28223	1.33981	0.00488
4295.78212	1.33969	0.00489
4294.282	1.33957	0.0049
4292.78189	1.33945	0.0049
4291.28178	1.33934	0.00492
4289.78167	1.33922	0.00494
4288.28156	1.33913	0.00494
4286.78144	1.33902	0.00496
4285.28133	1.33891	0.00496
4283.78122	1.3388	0.00498
4282.28111	1.33869	0.00499
4280.781	1.33858	0.00501
4279.28089	1.33847	0.00503
4277.78077	1.33837	0.00505
4276.28066	1.33827	0.00507
4274.78055	1.33818	0.00509
4273.28044	1.33808	0.00511
4271.78033	1.33799	0.00512
4270.28021	1.3379	0.00514
4268.7801	1.33782	0.00515
4267.27999	1.33772	0.00517
4265.77988	1.33764	0.00518
4264.27977	1.33757	0.00518
4262.77966	1.33748	0.00518
4261.27954	1.33739	0.00518
4259.77943	1.3373	0.00518
4258.27932	1.33721	0.00518
4256.77921	1.33713	0.00517
4255.2791	1.33703	0.00516
4253.77898	1.33694	0.00515
4252.27887	1.33684	0.00513
4250.77876	1.33674	0.00513
4249.27865	1.33664	0.00511
4247.77854	1.33654	0.00511
4246.27843	1.33644	0.0051
4244.77831	1.33634	0.00509
4243.2782	1.33624	0.00508
4241.77809	1.33614	0.00507
4240.27798	1.33603	0.00504
4238.77787	1.33592	0.00502
4237.27775	1.3358	0.005
4235.77764	1.33568	0.00497
4234.27753	1.33555	0.00496
4232.77742	1.33542	0.00494
4231.27731	1.33528	0.00493
4229.7772	1.33514	0.00492
4228.27708	1.335	0.00492
4226.77697	1.33486	0.00494
4225.27686	1.33473	0.00496
4223.77675	1.33459	0.00497
4222.27664	1.33447	0.005
4220.77652	1.33434	0.00501
4219.27641	1.33422	0.00504
4217.7763	1.33411	0.00506
4216.27619	1.33399	0.00508
4214.77608	1.33388	0.00509
4213.27597	1.33377	0.00511
4211.77585	1.33366	0.00511
4210.27574	1.33354	0.00513
4208.77563	1.33342	0.00515
4207.27552	1.33331	0.00517
4205.77541	1.33321	0.0052
4204.27529	1.33311	0.00521
4202.77518	1.33301	0.00523
4201.27507	1.33291	0.00524
4199.77496	1.33282	0.00525
4198.27485	1.33273	0.00525
4196.77474	1.33264	0.00525
4195.27462	1.33254	0.00523
4193.77451	1.33244	0.00521
4192.2744	1.33232	0.00517
4190.77429	1.33219	0.00515
4189.27418	1.33207	0.00513
4187.77407	1.33193	0.00512
4186.27395	1.33179	0.00511
4184.77384	1.33164	0.00511
4183.27373	1.33149	0.00511
4181.77362	1.33134	0.00513
4180.27351	1.33121	0.00515
4178.77339	1.33108	0.00519
4177.27328	1.33096	0.00521
4175.77317	1.33085	0.00524
4174.27306	1.33074	0.00525
4172.77295	1.33063	0.00527
4171.27284	1.33052	0.00527
4169.77272	1.33041	0.00527
4168.27261	1.3303	0.00525
4166.7725	1.33017	0.00524
4165.27239	1.33004	0.00523
4163.77228	1.3299	0.00522
4162.27216	1.32976	0.00522
4160.77205	1.32962	0.00523
4159.27194	1.32948	0.00524
4157.77183	1.32934	0.00525
4156.27172	1.3292	0.00528
4154.77161	1.32908	0.0053
4153.27149	1.32895	0.00532
4151.77138	1.32883	0.00534
4150.27127	1.3287	0.00534
4148.77116	1.32858	0.00536
4147.27105	1.32845	0.00536
4145.77093	1.32833	0.00537
4144.27082	1.32821	0.00538
4142.77071	1.32808	0.00539
4141.2706	1.32796	0.0054
4139.77049	1.32783	0.00541
4138.27038	1.32771	0.00542
4136.77026	1.32758	0.00542
4135.27015	1.32746	0.00542
4133.77004	1.32733	0.00542
4132.26993	1.32721	0.00542
4130.76982	1.32708	0.00541
4129.2697	1.32695	0.0054
4127.76959	1.3268	0.00538
4126.26948	1.32666	0.00537
4124.76937	1.3265	0.00536
4123.26926	1.32634	0.00535
4121.76915	1.32617	0.00535
4120.26903	1.326	0.00535
4118.76892	1.32582	0.00537
4117.26881	1.32564	0.0054
4115.7687	1.32547	0.00544
4114.26859	1.32531	0.00549
4112.76847	1.32516	0.00555
4111.26836	1.32503	0.0056
4109.76825	1.32489	0.00566
4108.26814	1.32478	0.00572
4106.76803	1.32468	0.00576
4105.26792	1.32458	0.00579
4103.7678	1.32448	0.00581
4102.26769	1.32437	0.00581
4100.76758	1.32426	0.00581
4099.26747	1.32414	0.0058
4097.76736	1.32402	0.00578
4096.26724	1.32388	0.00578
4094.76713	1.32374	0.00577
4093.26702	1.32359	0.00577
4091.76691	1.32345	0.00577
4090.2668	1.3233	0.00578
4088.76669	1.32315	0.00579
4087.26657	1.32301	0.0058
4085.76646	1.32287	0.00581
4084.26635	1.32272	0.00582
4082.76624	1.32258	0.00583
4081.26613	1.32244	0.00583
4079.76601	1.32229	0.00584
4078.2659	1.32215	0.00585
4076.76579	1.322	0.00585
4075.26568	1.32185	0.00585
4073.76557	1.32169	0.00585
4072.26546	1.32153	0.00585
4070.76534	1.32137	0.00587
4069.26523	1.32121	0.00587
4067.76512	1.32105	0.00588
4066.26501	1.32089	0.00589
4064.7649	1.32072	0.00591
4063.26478	1.32055	0.00593
4061.76467	1.32038	0.00596
4060.26456	1.32022	0.00599
4058.76445	1.32007	0.00602
4057.26434	1.31992	0.00606
4055.76423	1.31977	0.00608
4054.26411	1.31962	0.00611
4052.764	1.31947	0.00613
4051.26389	1.31933	0.00616
4049.76378	1.31919	0.00618
4048.26367	1.31905	0.00619
4046.76355	1.31889	0.0062
4045.26344	1.31874	0.00621
4043.76333	1.31859	0.00624
4042.26322	1.31844	0.00626
4040.76311	1.3183	0.00628
4039.263	1.31815	0.00629
4037.76288	1.31801	0.00631
4036.26277	1.31786	0.00632
4034.76266	1.31772	0.00632
4033.26255	1.31757	0.00632
4031.76244	1.31741	0.00632
4030.26232	1.31725	0.00631
4028.76221	1.31708	0.00631
4027.2621	1.31691	0.00631
4025.76199	1.31674	0.00632
4024.26188	1.31657	0.00634
4022.76177	1.3164	0.00636
4021.26165	1.31622	0.00637
4019.76154	1.31606	0.00639
4018.26143	1.3159	0.0064
4016.76132	1.31574	0.0064
4015.26121	1.31557	0.0064
4013.76109	1.3154	0.00639
4012.26098	1.31521	0.00639
4010.76087	1.31503	0.00638
4009.26076	1.31482	0.00638
4007.76065	1.31461	0.00639
4006.26054	1.3144	0.00641
4004.76042	1.31419	0.00645
4003.26031	1.31397	0.00648
4001.7602	1.31377	0.00653
4000.26009	1.31357	0.0066
3998.75998	1.31338	0.00666
3997.25986	1.3132	0.00673
3995.75975	1.31302	0.00681
3994.25964	1.31287	0.00688
3992.75953	1.31272	0.00694
3991.25942	1.31257	0.00699
3989.75931	1.31243	0.00705
3988.25919	1.3123	0.0071
3986.75908	1.31218	0.00715
3985.25897	1.31206	0.00718
3983.75886	1.31194	0.00719
3982.25875	1.3118	0.00719
3980.75864	1.31166	0.00719
3979.25852	1.31152	0.00718
3977.75841	1.31136	0.00717
3976.2583	1.31121	0.00715
3974.75819	1.31104	0.00713
3973.25808	1.31086	0.00712
3971.75796	1.31067	0.00711
3970.25785	1.31047	0.00711
3968.75774	1.31028	0.00712
3967.25763	1.31008	0.00712
3965.75752	1.30988	0.00715
3964.25741	1.3097	0.00716
3962.75729	1.30951	0.00719
3961.25718	1.30932	0.00721
3959.75707	1.30914	0.00723
3958.25696	1.30895	0.00726
3956.75685	1.30877	0.00729
3955.25673	1.3086	0.00731
3953.75662	1.30844	0.00733
3952.25651	1.30827	0.00733
3950.7564	1.30809	0.00733
3949.25629	1.30789	0.00732
3947.75618	1.30769	0.00732
3946.25606	1.30749	0.00733
3944.75595	1.30729	0.00734
3943.25584	1.30708	0.00736
3941.75573	1.30688	0.00738
3940.25562	1.30667	0.00741
3938.7555	1.30647	0.00745
3937.25539	1.30628	0.00751
3935.75528	1.30612	0.00756
3934.25517	1.30596	0.00757
3932.75506	1.30581	0.00758
3931.25495	1.30563	0.00757
3929.75483	1.30546	0.00756
3928.25472	1.30528	0.00755
3926.75461	1.3051	0.00753
3925.2545	1.30489	0.00748
3923.75439	1.30466	0.00744
3922.25427	1.3044	0.00742
3920.75416	1.30413	0.00743
3919.25405	1.30386	0.00746
3917.75394	1.3036	0.00751
3916.25383	1.30336	0.00759
3914.75372	1.30314	0.0077
3913.2536	1.30295	0.00782
3911.75349	1.3028	0.00795
3910.25338	1.3027	0.00805
3908.75327	1.30262	0.00811
3907.25316	1.30254	0.00811
3905.75304	1.30247	0.00807
3904.25293	1.30238	0.00799
3902.75282	1.30225	0.00787
3901.25271	1.30207	0.00772
3899.7526	1.30184	0.00757
3898.25249	1.30157	0.00746
3896.75237	1.30128	0.0074
3895.25226	1.30099	0.00737
3893.75215	1.30071	0.00737
3892.25204	1.30043	0.00738
3890.75193	1.30016	0.0074
3889.25181	1.29988	0.00743
3887.7517	1.29964	0.00746
3886.25159	1.2994	0.00748
3884.75148	1.29918	0.0075
3883.25137	1.29896	0.00751
3881.75126	1.29876	0.00753
3880.25114	1.29854	0.00753
3878.75103	1.29832	0.00754
3877.25092	1.2981	0.00757
3875.75081	1.29792	0.00758
3874.2507	1.29774	0.00758
3872.75058	1.29757	0.00753
3871.25047	1.29737	0.00746
3869.75036	1.29713	0.00737
3868.25025	1.29686	0.00731
3866.75014	1.29662	0.00729
3865.25003	1.29641	0.00726
3863.74991	1.29622	0.00721
3862.2498	1.29599	0.00714
3860.74969	1.29572	0.00706
3859.24958	1.29544	0.00699
3857.74947	1.29516	0.00692
3856.24935	1.2949	0.00684
3854.74924	1.29464	0.00671
3853.24913	1.29432	0.00656
3851.74902	1.29392	0.00646
3850.24891	1.29351	0.00644
3848.7488	1.29314	0.00647
3847.24868	1.29282	0.00652
3845.74857	1.29254	0.00656
3844.24846	1.29227	0.00658
3842.74835	1.29201	0.00658
3841.24824	1.29173	0.00655
3839.74812	1.29147	0.00649
3838.24801	1.29121	0.00638
3836.7479	1.29089	0.00624
3835.24779	1.29053	0.00611
3833.74768	1.29015	0.00603
3832.24757	1.28975	0.00598
3830.74745	1.28935	0.00595
3829.24734	1.28895	0.00596
3827.74723	1.28857	0.00598
3826.24712	1.28821	0.006
3824.74701	1.28787	0.006
3823.24689	1.28753	0.00597
3821.74678	1.28718	0.0059
3820.24667	1.2868	0.00582
3818.74656	1.28638	0.00575
3817.24645	1.28595	0.00572
3815.74634	1.2855	0.00571
3814.24622	1.28506	0.00574
3812.74611	1.28464	0.00581
3811.246	1.28426	0.00589
3809.74589	1.2839	0.00596
3808.24578	1.28357	0.00601
3806.74566	1.28325	0.00602
3805.24555	1.28293	0.00597
3803.74544	1.28257	0.00589
3802.24533	1.28219	0.00577
3800.74522	1.28174	0.00563
3799.24511	1.28124	0.00552
3797.74499	1.2807	0.00546
3796.24488	1.28013	0.00544
3794.74477	1.27955	0.00548
3793.24466	1.27898	0.00558
3791.74455	1.27843	0.00572
3790.24444	1.27793	0.00588
3788.74432	1.27746	0.00606
3787.24421	1.27702	0.00622
3785.7441	1.2766	0.00636
3784.24399	1.27617	0.00649
3782.74388	1.27579	0.00661
3781.24376	1.2754	0.00673
3779.74365	1.27502	0.00682
3778.24354	1.27462	0.00691
3776.74343	1.2742	0.00702
3775.24332	1.2738	0.00712
3773.74321	1.2734	0.00724
3772.24309	1.27303	0.00736
3770.74298	1.27267	0.00745
3769.24287	1.2723	0.00753
3767.74276	1.27192	0.0076
3766.24265	1.27152	0.00768
3764.74253	1.27114	0.00778
3763.24242	1.2708	0.00789
3761.74231	1.27049	0.00799
3760.2422	1.27019	0.00806
3758.74209	1.26989	0.0081
3757.24198	1.26959	0.00812
3755.74186	1.26932	0.00812
3754.24175	1.26904	0.00805
3752.74164	1.26875	0.00792
3751.24153	1.2684	0.00773
3749.74142	1.26799	0.00752
3748.2413	1.26753	0.00734
3746.74119	1.26705	0.00717
3745.24108	1.26656	0.007
3743.74097	1.266	0.00681
3742.24086	1.2654	0.00666
3740.74075	1.26477	0.00653
3739.24063	1.26415	0.00643
3737.74052	1.26352	0.00632
3736.24041	1.2629	0.00618
3734.7403	1.26221	0.00603
3733.24019	1.26145	0.00589
3731.74007	1.26064	0.0058
3730.23996	1.2598	0.00576
3728.73985	1.25898	0.00578
3727.23974	1.25815	0.00584
3725.73963	1.25732	0.00595
3724.23952	1.25653	0.00613
3722.7394	1.25577	0.00634
3721.23929	1.25505	0.00656
3719.73918	1.25438	0.00676
3718.23907	1.25374	0.00693
3716.73896	1.25313	0.00706
3715.23884	1.25252	0.00716
3713.73873	1.25191	0.00719
3712.23862	1.25123	0.00717
3710.73851	1.25049	0.00713
3709.2384	1.24967	0.00712
3707.73829	1.24881	0.00714
3706.23817	1.24791	0.00722
3704.73806	1.24702	0.00735
3703.23795	1.24613	0.00753
3701.73784	1.24524	0.00777
3700.23773	1.24438	0.00803
3698.73761	1.24353	0.00832
3697.2375	1.24272	0.00861
3695.73739	1.24194	0.00887
3694.23728	1.24118	0.00911
3692.73717	1.24042	0.00932
3691.23706	1.23964	0.00949
3689.73694	1.23881	0.00965
3688.23683	1.23796	0.00984
3686.73672	1.23709	0.01007
3685.23661	1.23621	0.01031
3683.7365	1.23535	0.01056
3682.23638	1.2345	0.01082
3680.73627	1.23365	0.01106
3679.23616	1.23278	0.0113
3677.73605	1.23189	0.01149
3676.23594	1.23097	0.01165
3674.73583	1.22997	0.01179
3673.23571	1.22891	0.01193
3671.7356	1.22777	0.01212
3670.23549	1.22659	0.01236
3668.73538	1.22534	0.01269
3667.23527	1.22407	0.01311
3665.73515	1.2228	0.01365
3664.23504	1.22158	0.01429
3662.73493	1.22042	0.015
3661.23482	1.21936	0.01576
3659.73471	1.21839	0.01651
3658.2346	1.21746	0.01721
3656.73448	1.21656	0.01785
3655.23437	1.21567	0.01845
3653.73426	1.21477	0.019
3652.23415	1.21384	0.0195
3650.73404	1.21285	0.01996
3649.23392	1.21177	0.02041
3647.73381	1.2106	0.02091
3646.2337	1.20936	0.02149
3644.73359	1.2081	0.02219
3643.23348	1.20685	0.02298
3641.73337	1.20565	0.02385
3640.23325	1.20449	0.02479
3638.73314	1.20338	0.02577
3637.23303	1.20231	0.02678
3635.73292	1.20129	0.02778
3634.23281	1.20033	0.02877
3632.73269	1.1994	0.02974
3631.23258	1.19849	0.03067
3629.73247	1.19758	0.03157
3628.23236	1.1966	0.03245
3626.73225	1.19559	0.03337
3625.23214	1.19456	0.03434
3623.73202	1.19355	0.03535
3622.23191	1.19256	0.0364
3620.7318	1.19159	0.03747
3619.23169	1.19061	0.03855
3617.73158	1.18963	0.03966
3616.23146	1.18865	0.0408
3614.73135	1.18772	0.04196
3613.23124	1.1868	0.04312
3611.73113	1.18589	0.04428
3610.23102	1.18496	0.04546
3608.73091	1.18404	0.04668
3607.23079	1.18311	0.04793
3605.73068	1.1822	0.04924
3604.23057	1.18134	0.05057
3602.73046	1.1805	0.05193
3601.23035	1.17969	0.05331
3599.73024	1.17892	0.05471
3598.23012	1.17819	0.05612
3596.73001	1.17748	0.05753
3595.2299	1.17681	0.05892
3593.72979	1.17615	0.0603
3592.22968	1.17549	0.06168
3590.72956	1.17484	0.06306
3589.22945	1.1742	0.06443
3587.72934	1.17354	0.0658
3586.22923	1.17286	0.06717
3584.72912	1.17217	0.06858
3583.22901	1.17148	0.07004
3581.72889	1.1708	0.07154
3580.22878	1.17015	0.07308
3578.72867	1.16954	0.07467
3577.22856	1.16897	0.07628
3575.72845	1.16844	0.07793
3574.22833	1.16795	0.07959
3572.72822	1.16751	0.08125
3571.22811	1.16713	0.08291
3569.728	1.16678	0.08454
3568.22789	1.16645	0.08613
3566.72778	1.16613	0.08769
3565.22766	1.16579	0.08923
3563.72755	1.16544	0.09079
3562.22744	1.16508	0.09235
3560.72733	1.16472	0.09394
3559.22722	1.16438	0.09556
3557.7271	1.16405	0.0972
3556.22699	1.16374	0.09888
3554.72688	1.16345	0.10059
3553.22677	1.1632	0.10233
3551.72666	1.16298	0.10407
3550.22655	1.16281	0.10582
3548.72643	1.16267	0.10756
3547.22632	1.16256	0.1093
3545.72621	1.16248	0.11101
3544.2261	1.1624	0.11273
3542.72599	1.16233	0.11445
3541.22587	1.16229	0.11616
3539.72576	1.16225	0.1179
3538.22565	1.16224	0.11964
3536.72554	1.16226	0.12138
3535.22543	1.16228	0.12314
3533.72532	1.16233	0.1249
3532.2252	1.1624	0.12668
3530.72509	1.1625	0.12846
3529.22498	1.16264	0.13024
3527.72487	1.1628	0.13202
3526.22476	1.16299	0.13379
3524.72464	1.16319	0.13556
3523.22453	1.16341	0.13732
3521.72442	1.16365	0.13908
3520.22431	1.16392	0.14086
3518.7242	1.1642	0.14263
3517.22409	1.16452	0.14441
3515.72397	1.16486	0.14618
3514.22386	1.16522	0.14796
3512.72375	1.16561	0.14975
3511.22364	1.16604	0.15153
3509.72353	1.16649	0.15329
3508.22341	1.16697	0.15504
3506.7233	1.16747	0.15679
3505.22319	1.168	0.15851
3503.72308	1.16854	0.16023
3502.22297	1.1691	0.16194
3500.72286	1.16967	0.16363
3499.22274	1.17025	0.16532
3497.72263	1.17086	0.16702
3496.22252	1.17149	0.16871
3494.72241	1.17214	0.17039
3493.2223	1.17281	0.17208
3491.72218	1.17351	0.17374
3490.22207	1.17423	0.17541
3488.72196	1.17497	0.17706
3487.22185	1.17574	0.17869
3485.72174	1.17652	0.18031
3484.22163	1.17731	0.18191
3482.72151	1.17811	0.1835
3481.2214	1.17893	0.18507
3479.72129	1.17975	0.18665
3478.22118	1.18059	0.18822
3476.72107	1.18145	0.18979
3475.22095	1.18233	0.19136
3473.72084	1.18323	0.19293
3472.22073	1.18416	0.19449
3470.72062	1.1851	0.19605
3469.22051	1.18607	0.19759
3467.7204	1.18708	0.19911
3466.22028	1.18809	0.20062
3464.72017	1.18913	0.2021
3463.22006	1.19017	0.20357
3461.71995	1.19125	0.20503
3460.21984	1.19232	0.20647
3458.71972	1.19342	0.20792
3457.21961	1.19453	0.20934
3455.7195	1.19566	0.21075
3454.21939	1.19681	0.21215
3452.71928	1.19798	0.21354
3451.21917	1.19917	0.21491
3449.71905	1.20038	0.21627
3448.21894	1.20161	0.2176
3446.71883	1.20285	0.2189
3445.21872	1.2041	0.22019
3443.71861	1.20536	0.22145
3442.21849	1.20663	0.22271
3440.71838	1.20791	0.22394
3439.21827	1.2092	0.22516
3437.71816	1.21049	0.22637
3436.21805	1.2118	0.22756
3434.71794	1.21312	0.22874
3433.21782	1.21446	0.22991
3431.71771	1.2158	0.23107
3430.2176	1.21717	0.23222
3428.71749	1.21855	0.23335
3427.21738	1.21994	0.23447
3425.71726	1.22136	0.23556
3424.21715	1.22278	0.23664
3422.71704	1.22422	0.2377
3421.21693	1.22568	0.23874
3419.71682	1.22715	0.23975
3418.21671	1.22862	0.24074
3416.71659	1.2301	0.24171
3415.21648	1.2316	0.24266
3413.71637	1.2331	0.2436
3412.21626	1.23461	0.24451
3410.71615	1.23613	0.24541
3409.21604	1.23766	0.24629
3407.71592	1.23919	0.24714
3406.21581	1.24074	0.248
3404.7157	1.2423	0.24883
3403.21559	1.24389	0.24964
3401.71548	1.24548	0.25043
3400.21536	1.24709	0.25119
3398.71525	1.24871	0.25193
3397.21514	1.25035	0.25263
3395.71503	1.25198	0.25331
3394.21492	1.25363	0.25396
3392.71481	1.25529	0.25457
3391.21469	1.25694	0.25514
3389.71458	1.25858	0.25567
3388.21447	1.26022	0.25619
3386.71436	1.26184	0.25668
3385.21425	1.26347	0.25715
3383.71413	1.26509	0.2576
3382.21402	1.26671	0.25803
3380.71391	1.26832	0.25845
3379.2138	1.26994	0.25886
3377.71369	1.27156	0.25925
3376.21358	1.27319	0.25961
3374.71346	1.27482	0.25996
3373.21335	1.27646	0.26027
3371.71324	1.27809	0.26055
3370.21313	1.27971	0.26079
3368.71302	1.28134	0.26101
3367.2129	1.28294	0.26119
3365.71279	1.28453	0.26135
3364.21268	1.28612	0.26149
3362.71257	1.28768	0.26161
3361.21246	1.28924	0.26172
3359.71235	1.29079	0.26181
3358.21223	1.29233	0.26188
3356.71212	1.29386	0.26192
3355.21201	1.29536	0.26195
3353.7119	1.29687	0.26196
3352.21179	1.29835	0.26195
3350.71167	1.29983	0.26193
3349.21156	1.30129	0.26188
3347.71145	1.30274	0.26183
3346.21134	1.30417	0.26176
3344.71123	1.30559	0.26169
3343.21112	1.30699	0.26161
3341.711	1.3084	0.26151
3340.21089	1.30978	0.2614
3338.71078	1.31116	0.26127
3337.21067	1.31252	0.26113
3335.71056	1.31387	0.26097
3334.21044	1.3152	0.26081
3332.71033	1.31652	0.26063
3331.21022	1.31782	0.26045
3329.71011	1.3191	0.26026
3328.21	1.32036	0.26005
3326.70989	1.32162	0.25985
3325.20977	1.32285	0.25966
3323.70966	1.32408	0.25946
3322.20955	1.32528	0.25925
3320.70944	1.32648	0.25905
3319.20933	1.32767	0.25885
3317.70921	1.32886	0.25866
3316.2091	1.33006	0.25849
3314.70899	1.33126	0.25829
3313.20888	1.33245	0.2581
3311.70877	1.33363	0.2579
3310.20866	1.33482	0.25768
3308.70854	1.33601	0.25746
3307.20843	1.33719	0.25724
3305.70832	1.33837	0.25699
3304.20821	1.33955	0.25673
3302.7081	1.34071	0.25646
3301.20798	1.34185	0.25619
3299.70787	1.343	0.25591
3298.20776	1.34413	0.25563
3296.70765	1.34526	0.25534
3295.20754	1.34638	0.25504
3293.70743	1.34748	0.25473
3292.20731	1.34857	0.25442
3290.7072	1.34964	0.2541
3289.20709	1.35071	0.2538
3287.70698	1.35176	0.2535
3286.20687	1.35282	0.25321
3284.70675	1.35388	0.25292
3283.20664	1.35494	0.25265
3281.70653	1.35601	0.25237
3280.20642	1.35708	0.2521
3278.70631	1.35817	0.25182
3277.2062	1.35926	0.25152
3275.70608	1.36036	0.25121
3274.20597	1.36145	0.25087
3272.70586	1.36255	0.25052
3271.20575	1.36363	0.25014
3269.70564	1.36469	0.24977
3268.20552	1.36575	0.24938
3266.70541	1.36679	0.249
3265.2053	1.36783	0.24861
3263.70519	1.36886	0.24823
3262.20508	1.3699	0.24785
3260.70497	1.37094	0.24747
3259.20485	1.37197	0.24709
3257.70474	1.37302	0.2467
3256.20463	1.37408	0.24631
3254.70452	1.37514	0.24589
3253.20441	1.3762	0.24546
3251.70429	1.37725	0.245
3250.20418	1.37829	0.24453
3248.70407	1.37933	0.24405
3247.20396	1.38036	0.24357
3245.70385	1.38139	0.24307
3244.20374	1.3824	0.24255
3242.70362	1.38341	0.24204
3241.20351	1.38441	0.24151
3239.7034	1.3854	0.24098
3238.20329	1.38639	0.24044
3236.70318	1.38738	0.23989
3235.20306	1.38836	0.23933
3233.70295	1.38934	0.23875
3232.20284	1.39031	0.23816
3230.70273	1.39126	0.23756
3229.20262	1.39221	0.23695
3227.70251	1.39315	0.23634
3226.20239	1.39407	0.23571
3224.70228	1.395	0.23508
3223.20217	1.39591	0.23443
3221.70206	1.39681	0.23378
3220.20195	1.3977	0.23311
3218.70183	1.39859	0.23244
3217.20172	1.39946	0.23176
3215.70161	1.40032	0.23107
3214.2015	1.40117	0.23037
3212.70139	1.40201	0.22966
3211.20128	1.40283	0.22894
3209.70116	1.40365	0.22822
3208.20105	1.40444	0.22749
3206.70094	1.40522	0.22676
3205.20083	1.406	0.22602
3203.70072	1.40677	0.22528
3202.20061	1.40752	0.22452
3200.70049	1.40825	0.22378
3199.20038	1.40898	0.22303
3197.70027	1.4097	0.22227
3196.20016	1.41041	0.22152
3194.70005	1.41111	0.22075
3193.19993	1.4118	0.21997
3191.69982	1.41246	0.21921
3190.19971	1.41312	0.21843
3188.6996	1.41378	0.21765
3187.19949	1.41443	0.21687
3185.69938	1.41507	0.21609
3184.19926	1.41569	0.2153
3182.69915	1.41629	0.21451
3181.19904	1.4169	0.21372
3179.69893	1.4175	0.21291
3178.19882	1.41808	0.21211
3176.6987	1.41866	0.21129
3175.19859	1.41922	0.21047
3173.69848	1.41975	0.20964
3172.19837	1.42027	0.20882
3170.69826	1.42078	0.20798
3169.19815	1.42128	0.20716
3167.69803	1.42175	0.20633
3166.19792	1.42222	0.20551
3164.69781	1.42267	0.20469
3163.1977	1.42311	0.20388
3161.69759	1.42354	0.20308
3160.19747	1.42397	0.20228
3158.69736	1.4244	0.20147
3157.19725	1.42481	0.20068
3155.69714	1.42522	0.19986
3154.19703	1.42562	0.19905
3152.69692	1.42601	0.19823
3151.1968	1.42637	0.1974
3149.69669	1.42673	0.19658
3148.19658	1.42707	0.19575
3146.69647	1.42739	0.19493
3145.19636	1.42769	0.19412
3143.69624	1.42799	0.19332
3142.19613	1.42827	0.19252
3140.69602	1.42856	0.19173
3139.19591	1.42882	0.19094
3137.6958	1.42907	0.19016
3136.19569	1.42932	0.18938
3134.69557	1.42956	0.18861
3133.19546	1.4298	0.18785
3131.69535	1.43002	0.18709
3130.19524	1.43025	0.18635
3128.69513	1.43048	0.18561
3127.19501	1.43071	0.18487
3125.6949	1.43093	0.18413
3124.19479	1.43115	0.18338
3122.69468	1.43137	0.18262
3121.19457	1.43158	0.18187
3119.69446	1.43178	0.18109
3118.19434	1.43196	0.18032
3116.69423	1.43211	0.17953
3115.19412	1.43224	0.17875
3113.69401	1.43235	0.17798
3112.1939	1.43246	0.17723
3110.69378	1.43256	0.17649
3109.19367	1.43264	0.17576
3107.69356	1.43271	0.17505
3106.19345	1.43277	0.17434
3104.69334	1.43283	0.17365
3103.19323	1.43291	0.17297
3101.69311	1.43298	0.17228
3100.193	1.43303	0.1716
3098.69289	1.43308	0.17091
3097.19278	1.43312	0.17025
3095.69267	1.43315	0.16959
3094.19255	1.43319	0.16894
3092.69244	1.43323	0.16829
3091.19233	1.43327	0.16766
3089.69222	1.4333	0.16703
3088.19211	1.43334	0.1664
3086.692	1.43337	0.16577
3085.19188	1.4334	0.16512
3083.69177	1.43343	0.16449
3082.19166	1.43344	0.16384
3080.69155	1.43343	0.16319
3079.19144	1.43342	0.16254
3077.69132	1.43339	0.1619
3076.19121	1.43335	0.16128
3074.6911	1.4333	0.16067
3073.19099	1.43325	0.16007
3071.69088	1.43319	0.15949
3070.19077	1.43313	0.15892
3068.69065	1.43307	0.15835
3067.19054	1.43302	0.15779
3065.69043	1.43297	0.15725
3064.19032	1.43292	0.15669
3062.69021	1.43285	0.15614
3061.19009	1.4328	0.15559
3059.68998	1.43274	0.15505
3058.18987	1.43268	0.1545
3056.68976	1.43261	0.15397
3055.18965	1.43253	0.15343
3053.68954	1.43246	0.15291
3052.18942	1.43237	0.15238
3050.68931	1.43229	0.15186
3049.1892	1.4322	0.15134
3047.68909	1.4321	0.15082
3046.18898	1.43201	0.15031
3044.68886	1.43191	0.1498
3043.18875	1.43181	0.14931
3041.68864	1.4317	0.14881
3040.18853	1.43158	0.14831
3038.68842	1.43146	0.14782
3037.18831	1.43133	0.14733
3035.68819	1.4312	0.14686
3034.18808	1.43107	0.14639
3032.68797	1.43092	0.14592
3031.18786	1.43076	0.14547
3029.68775	1.4306	0.14502
3028.18763	1.43044	0.1446
3026.68752	1.43029	0.14418
3025.18741	1.43015	0.14379
3023.6873	1.43	0.14339
3022.18719	1.42988	0.143
3020.68708	1.42974	0.14262
3019.18696	1.42962	0.14224
3017.68685	1.4295	0.14185
3016.18674	1.42938	0.14146
3014.68663	1.42926	0.14106
3013.18652	1.42912	0.14065
3011.68641	1.42897	0.14025
3010.18629	1.42882	0.13986
3008.68618	1.42866	0.13949
3007.18607	1.4285	0.13912
3005.68596	1.42834	0.13877
3004.18585	1.42819	0.13844
3002.68573	1.42805	0.1381
3001.18562	1.42791	0.13777
2999.68551	1.42778	0.13745
2998.1854	1.42766	0.13712
2996.68529	1.42753	0.13678
2995.18518	1.42741	0.13644
2993.68506	1.42728	0.13609
2992.18495	1.42715	0.13574
2990.68484	1.42699	0.1354
2989.18473	1.42685	0.13506
2987.68462	1.42669	0.13472
2986.1845	1.42653	0.1344
2984.68439	1.42637	0.13408
2983.18428	1.42621	0.13378
2981.68417	1.42604	0.13347
2980.18406	1.42587	0.13318
2978.68395	1.42571	0.13289
2977.18383	1.42554	0.13261
2975.68372	1.42538	0.13233
2974.18361	1.42522	0.13206
2972.6835	1.42506	0.13179
2971.18339	1.4249	0.13153
2969.68327	1.42475	0.13129
2968.18316	1.4246	0.13104
2966.68305	1.42445	0.1308
2965.18294	1.42431	0.13056
2963.68283	1.42418	0.13032
2962.18272	1.42405	0.13008
2960.6826	1.42392	0.12984
2959.18249	1.42379	0.12961
2957.68238	1.42367	0.12938
2956.18227	1.42354	0.12913
2954.68216	1.42342	0.1289
2953.18204	1.42329	0.12866
2951.68193	1.42317	0.12842
2950.18182	1.42303	0.12819
2948.68171	1.4229	0.12796
2947.1816	1.42276	0.12772
2945.68149	1.42262	0.1275
2944.18137	1.42247	0.12728
2942.68126	1.42233	0.12708
2941.18115	1.42219	0.12689
2939.68104	1.42205	0.12671
2938.18093	1.42193	0.12654
2936.68081	1.42181	0.12638
2935.1807	1.42171	0.12624
2933.68059	1.42164	0.12609
2932.18048	1.42158	0.12595
2930.68037	1.42155	0.1258
2929.18026	1.42153	0.12565
2927.68014	1.42154	0.12546
2926.18003	1.42156	0.12526
2924.67992	1.42159	0.12503
2923.17981	1.42161	0.12477
2921.6797	1.42162	0.12447
2920.17958	1.42162	0.12413
2918.67947	1.42158	0.12377
2917.17936	1.42151	0.1234
2915.67925	1.4214	0.123
2914.17914	1.42126	0.12261
2912.67903	1.42106	0.12224
2911.17891	1.42084	0.1219
2909.6788	1.42061	0.12158
2908.17869	1.42036	0.1213
2906.67858	1.4201	0.12106
2905.17847	1.41985	0.12084
2903.67835	1.41961	0.12064
2902.17824	1.41938	0.12047
2900.67813	1.41916	0.12029
2899.17802	1.41895	0.12012
2897.67791	1.41875	0.11996
2896.1778	1.41855	0.1198
2894.67768	1.41835	0.11965
2893.17757	1.41814	0.11949
2891.67746	1.41794	0.11936
2890.17735	1.41774	0.11923
2888.67724	1.41755	0.11913
2887.17712	1.41737	0.11904
2885.67701	1.41721	0.11896
2884.1769	1.41707	0.11888
2882.67679	1.41693	0.11881
2881.17668	1.41682	0.11872
2879.67657	1.41671	0.11863
2878.17645	1.41661	0.11854
2876.67634	1.41652	0.11843
2875.17623	1.41643	0.1183
2873.67612	1.41632	0.11817
2872.17601	1.41621	0.11803
2870.67589	1.41609	0.11791
2869.17578	1.41596	0.11779
2867.67567	1.41584	0.11769
2866.17556	1.41572	0.1176
2864.67545	1.41561	0.11753
2863.17534	1.41552	0.11747
2861.67522	1.41545	0.11741
2860.17511	1.41542	0.11735
2858.675	1.41541	0.11728
2857.17489	1.41541	0.11718
2855.67478	1.41542	0.11705
2854.17466	1.41542	0.11688
2852.67455	1.41542	0.11668
2851.17444	1.4154	0.11647
2849.67433	1.41535	0.11622
2848.17422	1.41526	0.11595
2846.67411	1.41513	0.11569
2845.17399	1.41496	0.11545
2843.67388	1.41478	0.11524
2842.17377	1.41458	0.11506
2840.67366	1.41438	0.11491
2839.17355	1.41417	0.11478
2837.67343	1.41398	0.11469
2836.17332	1.41379	0.11462
2834.67321	1.41362	0.11456
2833.1731	1.41348	0.11452
2831.67299	1.41336	0.11447
2830.17288	1.41325	0.11442
2828.67276	1.41315	0.11437
2827.17265	1.41307	0.11431
2825.67254	1.41299	0.11425
2824.17243	1.41292	0.11419
2822.67232	1.41286	0.11413
2821.17221	1.4128	0.11406
2819.67209	1.41275	0.11397
2818.17198	1.41269	0.11388
2816.67187	1.41264	0.1138
2815.17176	1.4126	0.1137
2813.67165	1.41255	0.1136
2812.17153	1.4125	0.11349
2810.67142	1.41246	0.11339
2809.17131	1.41242	0.11327
2807.6712	1.41236	0.11316
2806.17109	1.41232	0.11303
2804.67098	1.41227	0.11291
2803.17086	1.41221	0.11278
2801.67075	1.41216	0.11264
2800.17064	1.41209	0.11251
2798.67053	1.41203	0.11238
2797.17042	1.41197	0.11224
2795.6703	1.4119	0.1121
2794.17019	1.41183	0.11196
2792.67008	1.41174	0.11183
2791.16997	1.41166	0.11169
2789.66986	1.41158	0.11156
2788.16975	1.41148	0.11143
2786.66963	1.4114	0.1113
2785.16952	1.41131	0.11118
2783.66941	1.41122	0.11108
2782.1693	1.41114	0.11096
2780.66919	1.41107	0.11085
2779.16907	1.41099	0.11074
2777.66896	1.41092	0.11061
2776.16885	1.41085	0.11049
2774.66874	1.41077	0.11036
2773.16863	1.4107	0.11022
2771.66852	1.41061	0.11008
2770.1684	1.41052	0.10994
2768.66829	1.41042	0.1098
2767.16818	1.41032	0.10968
2765.66807	1.41022	0.10956
2764.16796	1.41011	0.10944
2762.66784	1.41001	0.10934
2761.16773	1.40991	0.10923
2759.66762	1.40983	0.10914
2758.16751	1.40975	0.10903
2756.6674	1.40967	0.10893
2755.16729	1.40959	0.1088
2753.66717	1.40951	0.10869
2752.16706	1.40942	0.10855
2750.66695	1.40933	0.10843
2749.16684	1.40925	0.10831
2747.66673	1.40915	0.10817
2746.16661	1.40904	0.10804
2744.6665	1.40893	0.10791
2743.16639	1.40882	0.1078
2741.66628	1.4087	0.10769
2740.16617	1.40858	0.10759
2738.66606	1.40847	0.10748
2737.16594	1.40837	0.10739
2735.66583	1.40826	0.1073
2734.16572	1.40816	0.1072
2732.66561	1.40806	0.10711
2731.1655	1.40797	0.10702
2729.66538	1.40787	0.10691
2728.16527	1.40779	0.10682
2726.66516	1.4077	0.10671
2725.16505	1.4076	0.1066
2723.66494	1.4075	0.10649
2722.16483	1.40739	0.10638
2720.66471	1.40728	0.10627
2719.1646	1.40717	0.10617
2717.66449	1.40706	0.10607
2716.16438	1.40696	0.10597
2714.66427	1.40683	0.10588
2713.16415	1.40673	0.10579
2711.66404	1.40662	0.1057
2710.16393	1.40652	0.10562
2708.66382	1.40641	0.10553
2707.16371	1.40631	0.10544
2705.6636	1.40621	0.10537
2704.16348	1.40611	0.10529
2702.66337	1.40602	0.1052
2701.16326	1.40593	0.10511
2699.66315	1.40583	0.10503
2698.16304	1.40573	0.10494
2696.66292	1.40564	0.10486
2695.16281	1.40555	0.10477
2693.6627	1.40547	0.10468
2692.16259	1.40539	0.10459
2690.66248	1.4053	0.1045
2689.16237	1.40521	0.1044
2687.66225	1.40512	0.10431
2686.16214	1.40503	0.10421
2684.66203	1.40495	0.1041
2683.16192	1.40487	0.10399
2681.66181	1.40478	0.10388
2680.16169	1.40467	0.10376
2678.66158	1.40457	0.10364
2677.16147	1.40446	0.10353
2675.66136	1.40435	0.10342
2674.16125	1.40424	0.1033
2672.66114	1.40413	0.10319
2671.16102	1.404	0.10308
2669.66091	1.40387	0.10297
2668.1608	1.40374	0.10288
2666.66069	1.40362	0.10278
2665.16058	1.40349	0.10268
2663.66046	1.40338	0.1026
2662.16035	1.40325	0.1025
2660.66024	1.40315	0.10241
2659.16013	1.40303	0.10232
2657.66002	1.40291	0.10221
2656.15991	1.4028	0.10211
2654.65979	1.40268	0.10201
2653.15968	1.40256	0.1019
2651.65957	1.40243	0.10178
2650.15946	1.4023	0.10167
2648.65935	1.40216	0.10155
2647.15923	1.40201	0.10144
2645.65912	1.40186	0.10134
2644.15901	1.4017	0.10124
2642.6589	1.40155	0.10114
2641.15879	1.40138	0.10105
2639.65868	1.40122	0.10096
2638.15856	1.40106	0.10088
2636.65845	1.40089	0.10081
2635.15834	1.40073	0.10073
2633.65823	1.40057	0.10066
2632.15812	1.40042	0.10059
2630.658	1.40026	0.10053
2629.15789	1.4001	0.10046
2627.65778	1.39993	0.10039
2626.15767	1.39977	0.10033
2624.65756	1.39961	0.10027
2623.15745	1.39945	0.10022
2621.65733	1.3993	0.10017
2620.15722	1.39914	0.10012
2618.65711	1.39899	0.10007
2617.157	1.39883	0.10003
2615.65689	1.39869	0.09997
2614.15678	1.39853	0.09992
2612.65666	1.39838	0.09988
2611.15655	1.39823	0.09982
2609.65644	1.39807	0.09977
2608.15633	1.39791	0.09972
2606.65622	1.39775	0.09968
2605.1561	1.39759	0.09964
2603.65599	1.39742	0.09961
2602.15588	1.39727	0.09958
2600.65577	1.39711	0.09956
2599.15566	1.39696	0.09954
2597.65555	1.39682	0.09952
2596.15543	1.39668	0.09951
2594.65532	1.39654	0.09948
2593.15521	1.39641	0.09946
2591.6551	1.39628	0.09944
2590.15499	1.39615	0.09941
2588.65487	1.39603	0.09939
2587.15476	1.3959	0.09935
2585.65465	1.39577	0.09932
2584.15454	1.39564	0.09929
2582.65443	1.39552	0.09925
2581.15432	1.39539	0.09921
2579.6542	1.39528	0.09917
2578.15409	1.39515	0.09912
2576.65398	1.39503	0.09908
2575.15387	1.3949	0.09902
2573.65376	1.39477	0.09897
2572.15364	1.39464	0.09891
2570.65353	1.3945	0.09886
2569.15342	1.39437	0.0988
2567.65331	1.39423	0.09873
2566.1532	1.39407	0.09867
2564.65309	1.39392	0.09861
2563.15297	1.39376	0.09856
2561.65286	1.3936	0.0985
2560.15275	1.39345	0.09844
2558.65264	1.39328	0.09837
2557.15253	1.39312	0.09832
2555.65241	1.39295	0.09826
2554.1523	1.39277	0.09822
2552.65219	1.3926	0.09816
2551.15208	1.39242	0.0981
2549.65197	1.39224	0.09806
2548.15186	1.39205	0.09801
2546.65174	1.39186	0.09795
2545.15163	1.39167	0.09792
2543.65152	1.39147	0.09787
2542.15141	1.39126	0.09783
2540.6513	1.39105	0.09779
2539.15118	1.39085	0.09777
2537.65107	1.39063	0.09774
2536.15096	1.39042	0.09772
2534.65085	1.3902	0.09772
2533.15074	1.38998	0.09771
2531.65063	1.38978	0.09771
2530.15051	1.38956	0.09772
2528.6504	1.38935	0.09773
2527.15029	1.38913	0.09774
2525.65018	1.38893	0.09776
2524.15007	1.38872	0.09778
2522.64995	1.38851	0.0978
2521.14984	1.38831	0.09782
2519.64973	1.3881	0.09785
2518.14962	1.3879	0.09788
2516.64951	1.3877	0.09791
2515.1494	1.38749	0.09796
2513.64928	1.38729	0.098
2512.14917	1.38709	0.09803
2510.64906	1.38689	0.09808
2509.14895	1.38668	0.09812
2507.64884	1.38648	0.09818
2506.14872	1.38629	0.09823
2504.64861	1.38609	0.0983
2503.1485	1.3859	0.09837
2501.64839	1.3857	0.09843
2500.14828	1.38552	0.0985
2498.64817	1.38534	0.09858
2497.14805	1.38516	0.09867
2495.64794	1.385	0.09875
2494.14783	1.38483	0.09882
2492.64772	1.38468	0.0989
2491.14761	1.38451	0.09897
2489.64749	1.38436	0.09904
2488.14738	1.3842	0.09911
2486.64727	1.38403	0.09918
2485.14716	1.38388	0.09925
2483.64705	1.38373	0.09932
2482.14694	1.38357	0.09939
2480.64682	1.38341	0.09946
2479.14671	1.38326	0.09955
2477.6466	1.38311	0.09963
2476.14649	1.38297	0.09971
2474.64638	1.38284	0.09979
2473.14626	1.3827	0.09985
2471.64615	1.38257	0.09992
2470.14604	1.38243	0.09998
2468.64593	1.38229	0.10004
2467.14582	1.38215	0.10009
2465.64571	1.38201	0.10014
2464.14559	1.38185	0.10019
2462.64548	1.3817	0.10024
2461.14537	1.38154	0.1003
2459.64526	1.38137	0.10037
2458.14515	1.38121	0.10045
2456.64503	1.38105	0.10053
2455.14492	1.3809	0.10061
2453.64481	1.38075	0.10069
2452.1447	1.38061	0.10078
2450.64459	1.38047	0.10086
2449.14448	1.38034	0.10094
2447.64436	1.38021	0.101
2446.14425	1.38007	0.10107
2444.64414	1.37993	0.10113
2443.14403	1.37979	0.10119
2441.64392	1.37964	0.10124
2440.1438	1.37949	0.10129
2438.64369	1.37933	0.10135
2437.14358	1.37916	0.10142
2435.64347	1.37899	0.10149
2434.14336	1.37882	0.10155
2432.64325	1.37864	0.10164
2431.14313	1.37848	0.10172
2429.64302	1.37831	0.10181
2428.14291	1.37815	0.1019
2426.6428	1.37798	0.102
2425.14269	1.37782	0.10209
2423.64258	1.37766	0.10218
2422.14246	1.37749	0.10228
2420.64235	1.37734	0.10237
2419.14224	1.37716	0.10246
2417.64213	1.377	0.10257
2416.14202	1.37683	0.10267
2414.6419	1.37667	0.10278
2413.14179	1.37651	0.10289
2411.64168	1.37634	0.10299
2410.14157	1.37618	0.10311
2408.64146	1.37601	0.10323
2407.14135	1.37585	0.10335
2405.64123	1.37569	0.10348
2404.14112	1.37553	0.10361
2402.64101	1.37537	0.10374
2401.1409	1.37522	0.10388
2399.64079	1.37507	0.10402
2398.14067	1.37492	0.10417
2396.64056	1.37479	0.10431
2395.14045	1.37466	0.10446
2393.64034	1.37452	0.1046
2392.14023	1.3744	0.10474
2390.64012	1.37426	0.10487
2389.14	1.37415	0.10501
2387.63989	1.37403	0.10514
2386.13978	1.3739	0.10527
2384.63967	1.37377	0.10538
2383.13956	1.37364	0.10551
2381.63944	1.3735	0.10563
2380.13933	1.37336	0.10576
2378.63922	1.37322	0.10589
2377.13911	1.37307	0.10601
2375.639	1.37291	0.10615
2374.13889	1.37274	0.10629
2372.63877	1.37258	0.10644
2371.13866	1.37241	0.1066
2369.63855	1.37224	0.10679
2368.13844	1.37207	0.10697
2366.63833	1.37191	0.10717
2365.13821	1.37176	0.1074
2363.6381	1.37163	0.10764
2362.13799	1.37152	0.10789
2360.63788	1.37142	0.10814
2359.13777	1.37135	0.10839
2357.63766	1.37129	0.10864
2356.13754	1.37126	0.10887
2354.63743	1.37124	0.1091
2353.13732	1.37123	0.1093
2351.63721	1.37123	0.10949
2350.1371	1.37122	0.10966
2348.63698	1.37121	0.10982
2347.13687	1.3712	0.10997
2345.63676	1.37117	0.11011
2344.13665	1.37115	0.11025
2342.63654	1.37112	0.11039
2341.13643	1.37108	0.11052
2339.63631	1.37105	0.11066
2338.1362	1.37101	0.1108
2336.63609	1.37097	0.11094
2335.13598	1.37094	0.11108
2333.63587	1.3709	0.11122
2332.13575	1.37087	0.11135
2330.63564	1.37083	0.11148
2329.13553	1.3708	0.11161
2327.63542	1.37076	0.11174
2326.13531	1.37072	0.11187
2324.6352	1.37069	0.112
2323.13508	1.37066	0.11214
2321.63497	1.37063	0.11226
2320.13486	1.3706	0.11238
2318.63475	1.37056	0.1125
2317.13464	1.37053	0.11262
2315.63452	1.3705	0.11273
2314.13441	1.37047	0.11283
2312.6343	1.37042	0.11294
2311.13419	1.37037	0.11305
2309.63408	1.37033	0.11315
2308.13397	1.37027	0.11327
2306.63385	1.37022	0.11338
2305.13374	1.37016	0.1135
2303.63363	1.3701	0.11361
2302.13352	1.37005	0.11374
2300.63341	1.37	0.11386
2299.13329	1.36994	0.11399
2297.63318	1.36989	0.11412
2296.13307	1.36985	0.11425
2294.63296	1.3698	0.11438
2293.13285	1.36975	0.1145
2291.63274	1.36972	0.11463
2290.13262	1.36967	0.11476
2288.63251	1.36962	0.11489
2287.1324	1.36958	0.11501
2285.63229	1.36954	0.11514
2284.13218	1.36949	0.11527
2282.63206	1.36946	0.11541
2281.13195	1.36942	0.11554
2279.63184	1.36938	0.11567
2278.13173	1.36934	0.11581
2276.63162	1.36931	0.11595
2275.13151	1.36929	0.11609
2273.63139	1.36926	0.11623
2272.13128	1.36924	0.11637
2270.63117	1.36922	0.11651
2269.13106	1.36921	0.11665
2267.63095	1.36921	0.11679
2266.13083	1.36921	0.11693
2264.63072	1.36921	0.11706
2263.13061	1.36922	0.11719
2261.6305	1.36923	0.11732
2260.13039	1.36925	0.11743
2258.63028	1.36927	0.11756
2257.13016	1.36929	0.11766
2255.63005	1.36931	0.11776
2254.12994	1.36933	0.11786
2252.62983	1.36935	0.11794
2251.12972	1.36936	0.11804
2249.6296	1.36938	0.11811
2248.12949	1.36939	0.11819
2246.62938	1.36941	0.11827
2245.12927	1.36942	0.11834
2243.62916	1.36944	0.11842
2242.12905	1.36944	0.11848
2240.62893	1.36946	0.11854
2239.12882	1.36947	0.1186
2237.62871	1.36948	0.11864
2236.1286	1.36949	0.11869
2234.62849	1.36949	0.11874
2233.12838	1.36948	0.11877
2231.62826	1.36948	0.1188
2230.12815	1.36946	0.11883
2228.62804	1.36945	0.11886
2227.12793	1.36943	0.11889
2225.62782	1.3694	0.11892
2224.1277	1.36938	0.11894
2222.62759	1.36935	0.11897
2221.12748	1.3693	0.11899
2219.62737	1.36927	0.11902
2218.12726	1.36922	0.11903
2216.62715	1.36917	0.11906
2215.12703	1.36912	0.11907
2213.62692	1.36906	0.11909
2212.12681	1.36899	0.11912
2210.6267	1.36892	0.11913
2209.12659	1.36885	0.11916
2207.62647	1.36877	0.11918
2206.12636	1.36869	0.11922
2204.62625	1.3686	0.11925
2203.12614	1.36852	0.11929
2201.62603	1.36843	0.11932
2200.12592	1.36834	0.11936
2198.6258	1.36825	0.11941
2197.12569	1.36815	0.11945
2195.62558	1.36806	0.1195
2194.12547	1.36795	0.11955
2192.62536	1.36786	0.1196
2191.12524	1.36775	0.11965
2189.62513	1.36766	0.11971
2188.12502	1.36755	0.11977
2186.62491	1.36744	0.11983
2185.1248	1.36733	0.11989
2183.62469	1.36722	0.11996
2182.12457	1.36711	0.12003
2180.62446	1.36699	0.12011
2179.12435	1.36688	0.1202
2177.62424	1.36677	0.12028
2176.12413	1.36667	0.12038
2174.62401	1.36657	0.12047
2173.1239	1.36647	0.12057
2171.62379	1.36637	0.12068
2170.12368	1.36629	0.12078
2168.62357	1.36621	0.12088
2167.12346	1.36612	0.12098
2165.62334	1.36604	0.12108
2164.12323	1.36596	0.12117
2162.62312	1.36588	0.12127
2161.12301	1.36582	0.12136
2159.6229	1.36574	0.12145
2158.12278	1.36566	0.12155
2156.62267	1.36559	0.12164
2155.12256	1.36552	0.12173
2153.62245	1.36545	0.12183
2152.12234	1.36539	0.12192
2150.62223	1.36533	0.12201
2149.12211	1.36526	0.1221
2147.622	1.36521	0.12218
2146.12189	1.36515	0.12226
2144.62178	1.36509	0.12234
2143.12167	1.36503	0.12242
2141.62155	1.36499	0.12249
2140.12144	1.36493	0.12256
2138.62133	1.36489	0.12262
2137.12122	1.36483	0.12269
2135.62111	1.36478	0.12275
2134.121	1.36473	0.12279
2132.62088	1.36468	0.12284
2131.12077	1.36463	0.12288
2129.62066	1.36457	0.12291
2128.12055	1.36451	0.12293
2126.62044	1.36445	0.12295
2125.12032	1.36437	0.12297
2123.62021	1.36429	0.12298
2122.1201	1.3642	0.12298
2120.61999	1.36411	0.12299
2119.11988	1.36401	0.123
2117.61977	1.36391	0.12301
2116.11965	1.36379	0.12301
2114.61954	1.36368	0.12302
2113.11943	1.36356	0.12302
2111.61932	1.36343	0.12303
2110.11921	1.36331	0.12304
2108.61909	1.36318	0.12304
2107.11898	1.36304	0.12304
2105.61887	1.36288	0.12304
2104.11876	1.36273	0.12304
2102.61865	1.36256	0.12304
2101.11854	1.36239	0.12305
2099.61842	1.36221	0.12305
2098.11831	1.36202	0.12307
2096.6182	1.36183	0.12308
2095.11809	1.36163	0.12311
2093.61798	1.36144	0.12314
2092.11786	1.36123	0.12317
2090.61775	1.36103	0.12321
2089.11764	1.36082	0.12325
2087.61753	1.36061	0.12329
2086.11742	1.36039	0.12334
2084.61731	1.36017	0.12339
2083.11719	1.35995	0.12343
2081.61708	1.35972	0.12349
2080.11697	1.35947	0.12354
2078.61686	1.35923	0.12361
2077.11675	1.35899	0.1237
2075.61663	1.35874	0.12378
2074.11652	1.35851	0.12388
2072.61641	1.35827	0.12399
2071.1163	1.35803	0.1241
2069.61619	1.35781	0.12421
2068.11608	1.35758	0.12432
2066.61596	1.35735	0.12443
2065.11585	1.35713	0.12453
2063.61574	1.3569	0.12463
2062.11563	1.35666	0.12473
2060.61552	1.35642	0.12484
2059.1154	1.35617	0.12495
2057.61529	1.35593	0.12507
2056.11518	1.35567	0.12519
2054.61507	1.35542	0.12534
2053.11496	1.35517	0.12548
2051.61485	1.35492	0.12563
2050.11473	1.35468	0.12578
2048.61462	1.35444	0.12594
2047.11451	1.35421	0.12609
2045.6144	1.35398	0.12624
2044.11429	1.35374	0.12639
2042.61418	1.35351	0.12655
2041.11406	1.35329	0.12671
2039.61395	1.35306	0.12686
2038.11384	1.35283	0.12702
2036.61373	1.3526	0.12716
2035.11362	1.35236	0.12732
2033.6135	1.35212	0.12747
2032.11339	1.35189	0.12763
2030.61328	1.35164	0.12778
2029.11317	1.35141	0.12794
2027.61306	1.35118	0.12811
2026.11295	1.35093	0.12826
2024.61283	1.35069	0.12842
2023.11272	1.35045	0.12858
2021.61261	1.35021	0.12875
2020.1125	1.34997	0.12889
2018.61239	1.34972	0.12904
2017.11227	1.34947	0.12919
2015.61216	1.34921	0.12933
2014.11205	1.34893	0.12947
2012.61194	1.34865	0.12961
2011.11183	1.34837	0.12976
2009.61172	1.34806	0.12991
2008.1116	1.34775	0.13007
2006.61149	1.34743	0.13024
2005.11138	1.34711	0.13043
2003.61127	1.3468	0.13063
2002.11116	1.3465	0.13082
2000.61104	1.34619	0.13103
1999.11093	1.34587	0.13122
1997.61082	1.34555	0.13142
1996.11071	1.34524	0.13162
1994.6106	1.34492	0.13182
1993.11049	1.34459	0.13202
1991.61037	1.34425	0.13221
1990.11026	1.34389	0.1324
1988.61015	1.34352	0.13261
1987.11004	1.34314	0.13283
1985.60993	1.34275	0.13306
1984.10981	1.34235	0.1333
1982.6097	1.34195	0.13356
1981.10959	1.34153	0.13383
1979.60948	1.34112	0.13413
1978.10937	1.34071	0.13444
1976.60926	1.34031	0.13477
1975.10914	1.33991	0.1351
1973.60903	1.33952	0.13544
1972.10892	1.33912	0.1358
1970.60881	1.33873	0.13617
1969.1087	1.33834	0.13653
1967.60858	1.33796	0.13691
1966.10847	1.33757	0.13729
1964.60836	1.33718	0.13768
1963.10825	1.33678	0.13807
1961.60814	1.3364	0.13849
1960.10803	1.33601	0.13891
1958.60791	1.33562	0.13935
1957.1078	1.33523	0.13981
1955.60769	1.33486	0.14028
1954.10758	1.33449	0.14076
1952.60747	1.33414	0.14125
1951.10735	1.3338	0.14175
1949.60724	1.33347	0.14225
1948.10713	1.33314	0.14275
1946.60702	1.33281	0.14324
1945.10691	1.3325	0.14375
1943.6068	1.33218	0.14425
1942.10668	1.33186	0.14475
1940.60657	1.33152	0.14525
1939.10646	1.33117	0.14577
1937.60635	1.33083	0.14631
1936.10624	1.33051	0.14687
1934.60612	1.33019	0.14746
1933.10601	1.32989	0.14805
1931.6059	1.3296	0.14865
1930.10579	1.32933	0.14927
1928.60568	1.32908	0.1499
1927.10557	1.32886	0.15051
1925.60545	1.32864	0.15111
1924.10534	1.32843	0.15169
1922.60523	1.32821	0.15226
1921.10512	1.32799	0.15282
1919.60501	1.32775	0.15339
1918.10489	1.32751	0.15396
1916.60478	1.32726	0.15453
1915.10467	1.327	0.15511
1913.60456	1.32673	0.15571
1912.10445	1.32646	0.15634
1910.60434	1.32621	0.15698
1909.10422	1.32595	0.15764
1907.60411	1.32571	0.15831
1906.104	1.32547	0.15898
1904.60389	1.32524	0.15968
1903.10378	1.32503	0.1604
1901.60366	1.32484	0.16111
1900.10355	1.32466	0.16184
1898.60344	1.3245	0.16256
1897.10333	1.32434	0.16328
1895.60322	1.3242	0.16401
1894.10311	1.32406	0.16473
1892.60299	1.32394	0.16545
1891.10288	1.32382	0.16616
1889.60277	1.32369	0.16687
1888.10266	1.32355	0.16757
1886.60255	1.3234	0.16827
1885.10243	1.32323	0.169
1883.60232	1.32308	0.16975
1882.10221	1.32293	0.17054
1880.6021	1.32281	0.17136
1879.10199	1.32273	0.1722
1877.60188	1.32266	0.17305
1876.10176	1.32263	0.1739
1874.60165	1.32262	0.17474
1873.10154	1.32263	0.17556
1871.60143	1.32266	0.17637
1870.10132	1.32271	0.17714
1868.6012	1.32275	0.17787
1867.10109	1.32273	0.17857
1865.60098	1.32269	0.17928
1864.10087	1.32262	0.18001
1862.60076	1.32253	0.18079
1861.10065	1.32245	0.18159
1859.60053	1.32237	0.18243
1858.10042	1.32229	0.18333
1856.60031	1.32225	0.18428
1855.1002	1.32226	0.18528
1853.60009	1.32232	0.18629
1852.09997	1.32243	0.18728
1850.59986	1.32258	0.18826
1849.09975	1.32276	0.18922
1847.59964	1.32297	0.19016
1846.09953	1.32319	0.19106
1844.59942	1.32341	0.19192
1843.0993	1.3236	0.19276
1841.59919	1.32379	0.19362
1840.09908	1.32396	0.1945
1838.59897	1.32416	0.19541
1837.09886	1.32438	0.19634
1835.59875	1.32463	0.19727
1834.09863	1.32489	0.19821
1832.59852	1.32518	0.19915
1831.09841	1.3255	0.20007
1829.5983	1.32584	0.20097
1828.09819	1.32617	0.20182
1826.59807	1.32649	0.20266
1825.09796	1.3268	0.20348
1823.59785	1.32709	0.20432
1822.09774	1.32737	0.20518
1820.59763	1.32766	0.20607
1819.09752	1.32795	0.20699
1817.5974	1.32825	0.20794
1816.09729	1.32857	0.20892
1814.59718	1.32893	0.20992
1813.09707	1.32935	0.21095
1811.59696	1.32979	0.21197
1810.09684	1.33028	0.21298
1808.59673	1.33079	0.21397
1807.09662	1.33132	0.21496
1805.59651	1.33189	0.21596
1804.0964	1.33251	0.21697
1802.59629	1.33318	0.21797
1801.09617	1.3339	0.21891
1799.59606	1.3346	0.2198
1798.09595	1.33531	0.22066
1796.59584	1.33602	0.2215
1795.09573	1.33675	0.22231
1793.59561	1.33749	0.2231
1792.0955	1.33821	0.22382
1790.59539	1.33888	0.22452
1789.09528	1.33948	0.22523
1787.59517	1.34007	0.22601
1786.09506	1.3407	0.22684
1784.59494	1.34137	0.22773
1783.09483	1.34209	0.22865
1781.59472	1.34288	0.22959
1780.09461	1.3437	0.23052
1778.5945	1.34458	0.23144
1777.09438	1.3455	0.23234
1775.59427	1.3465	0.23318
1774.09416	1.34754	0.23396
1772.59405	1.3486	0.23464
1771.09394	1.34962	0.23525
1769.59383	1.35059	0.2358
1768.09371	1.35152	0.23635
1766.5936	1.35241	0.23691
1765.09349	1.35329	0.23751
1763.59338	1.35419	0.23814
1762.09327	1.35512	0.23881
1760.59315	1.35607	0.2395
1759.09304	1.35705	0.24022
1757.59293	1.3581	0.24096
1756.09282	1.3592	0.24168
1754.59271	1.36036	0.24238
1753.0926	1.3616	0.24304
1751.59248	1.3629	0.24363
1750.09237	1.36421	0.24412
1748.59226	1.36549	0.24455
1747.09215	1.36677	0.24494
1745.59204	1.36808	0.24532
1744.09192	1.36942	0.24569
1742.59181	1.37078	0.24599
1741.0917	1.37215	0.24622
1739.59159	1.37349	0.24636
1738.09148	1.37479	0.24645
1736.59137	1.37605	0.24652
1735.09125	1.37732	0.24652
1733.59114	1.37852	0.24644
1732.09103	1.37962	0.2463
1730.59092	1.38065	0.24622
1729.09081	1.38168	0.24622
1727.59069	1.38274	0.24631
1726.09058	1.38383	0.24643
1724.59047	1.38498	0.24655
1723.09036	1.38614	0.24664
1721.59025	1.38734	0.24673
1720.09014	1.38859	0.24678
1718.59002	1.3899	0.24672
1717.08991	1.39121	0.24651
1715.5898	1.3924	0.2462
1714.08969	1.39351	0.24585
1712.58958	1.39456	0.24555
1711.08946	1.39562	0.24532
1709.58935	1.39671	0.24513
1708.08924	1.39786	0.24495
1706.58913	1.39902	0.24473
1705.08902	1.40017	0.24446
1703.58891	1.4013	0.24412
1702.08879	1.40245	0.24372
1700.58868	1.40357	0.24318
1699.08857	1.4046	0.24251
1697.58846	1.40551	0.24178
1696.08835	1.40632	0.24111
1694.58823	1.40704	0.24049
1693.08812	1.40768	0.23995
1691.58801	1.4083	0.23952
1690.0879	1.40892	0.23915
1688.58779	1.40956	0.23886
1687.08768	1.41025	0.23863
1685.58756	1.41103	0.23839
1684.08745	1.41182	0.23807
1682.58734	1.41258	0.23769
1681.08723	1.41331	0.23734
1679.58712	1.41406	0.237
1678.087	1.41481	0.23667
1676.58689	1.41557	0.23634
1675.08678	1.41633	0.236
1673.58667	1.41706	0.23567
1672.08656	1.41777	0.23538
1670.58645	1.41848	0.23511
1669.08633	1.41919	0.23484
1667.58622	1.41988	0.23459
1666.08611	1.42065	0.23443
1664.586	1.42156	0.23439
1663.08589	1.42256	0.23437
1661.58577	1.42363	0.23431
1660.08566	1.42479	0.23424
1658.58555	1.42611	0.23417
1657.08544	1.42758	0.23404
1655.58533	1.42921	0.23374
1654.08522	1.43091	0.23314
1652.5851	1.43251	0.23221
1651.08499	1.43391	0.23111
1649.58488	1.43522	0.22998
1648.08477	1.43652	0.22884
1646.58466	1.43777	0.22758
1645.08455	1.43889	0.22623
1643.58443	1.43984	0.22486
1642.08432	1.44068	0.22358
1640.58421	1.4415	0.22238
1639.0841	1.44238	0.22122
1637.58399	1.44333	0.21995
1636.08387	1.44426	0.21854
1634.58376	1.44506	0.21703
1633.08365	1.44574	0.21551
1631.58354	1.44637	0.21399
1630.08343	1.44699	0.21247
1628.58332	1.44761	0.2109
1627.0832	1.44816	0.20927
1625.58309	1.44863	0.20759
1624.08298	1.44897	0.20588
1622.58287	1.44921	0.20415
1621.08276	1.44938	0.20242
1619.58264	1.44951	0.20066
1618.08253	1.44958	0.19885
1616.58242	1.44951	0.19698
1615.08231	1.44927	0.19513
1613.5822	1.44889	0.19335
1612.08209	1.44843	0.19166
1610.58197	1.4479	0.19006
1609.08186	1.44733	0.18851
1607.58175	1.4467	0.18702
1606.08164	1.44602	0.18559
1604.58153	1.44529	0.18423
1603.08141	1.44453	0.18295
1601.5813	1.44377	0.18172
1600.08119	1.44299	0.18051
1598.58108	1.44217	0.17934
1597.08097	1.4413	0.17821
1595.58086	1.4404	0.17714
1594.08074	1.43946	0.17611
1592.58063	1.43849	0.17516
1591.08052	1.43748	0.17427
1589.58041	1.43648	0.17348
1588.0803	1.43552	0.1728
1586.58018	1.43458	0.17217
1585.08007	1.43365	0.17159
1583.57996	1.43275	0.17105
1582.07985	1.43189	0.17058
1580.57974	1.43109	0.17014
1579.07963	1.43034	0.16968
1577.57951	1.42961	0.16918
1576.0794	1.42883	0.16864
1574.57929	1.42797	0.16812
1573.07918	1.4271	0.16768
1571.57907	1.42633	0.16739
1570.07895	1.42568	0.16712
1568.57884	1.42507	0.16685
1567.07873	1.42446	0.16654
1565.57862	1.42388	0.16622
1564.07851	1.42332	0.16591
1562.5784	1.42283	0.16554
1561.07828	1.4224	0.16505
1559.57817	1.42192	0.16436
1558.07806	1.42121	0.16352
1556.57795	1.42028	0.16274
1555.07784	1.41924	0.16212
1553.57772	1.41822	0.16167
1552.07761	1.41724	0.16137
1550.5775	1.41632	0.16117
1549.07739	1.41541	0.16102
1547.57728	1.41451	0.16095
1546.07717	1.41371	0.16097
1544.57705	1.41307	0.16094
1543.07694	1.41253	0.16078
1541.57683	1.41196	0.16043
1540.07672	1.41127	0.15993
1538.57661	1.4104	0.15942
1537.07649	1.4094	0.15901
1535.57638	1.40837	0.15875
1534.07627	1.40737	0.15859
1532.57616	1.40637	0.15852
1531.07605	1.40536	0.15858
1529.57594	1.40442	0.15876
1528.07582	1.40359	0.15902
1526.57571	1.40287	0.15927
1525.0756	1.40225	0.15943
1523.57549	1.40168	0.15951
1522.07538	1.40109	0.15949
1520.57526	1.40048	0.15946
1519.07515	1.3999	0.15946
1517.57504	1.39934	0.15944
1516.07493	1.39875	0.15937
1514.57482	1.39809	0.15929
1513.07471	1.39741	0.15922
1511.57459	1.39673	0.15917
1510.07448	1.39609	0.15912
1508.57437	1.39546	0.15902
1507.07426	1.39477	0.15881
1505.57415	1.39391	0.15854
1504.07403	1.39291	0.15836
1502.57392	1.3919	0.15835
1501.07381	1.39097	0.15846
1499.5737	1.39009	0.15862
1498.07359	1.38923	0.1588
1496.57348	1.38834	0.15902
1495.07336	1.38746	0.1593
1493.57325	1.38662	0.15967
1492.07314	1.3859	0.16002
1490.57303	1.38526	0.16029
1489.07292	1.3846	0.16047
1487.5728	1.38387	0.16064
1486.07269	1.38311	0.16088
1484.57258	1.38238	0.16119
1483.07247	1.3817	0.16156
1481.57236	1.38106	0.16192
1480.07225	1.38045	0.16227
1478.57213	1.37986	0.16263
1477.07202	1.37932	0.16299
1475.57191	1.37881	0.16329
1474.0718	1.3783	0.16353
1472.57169	1.37774	0.16369
1471.07157	1.37713	0.16385
1469.57146	1.37651	0.16408
1468.07135	1.37594	0.16438
1466.57124	1.3754	0.16469
1465.07113	1.37488	0.16495
1463.57102	1.37433	0.16521
1462.0709	1.37378	0.16546
1460.57079	1.37326	0.16573
1459.07068	1.37281	0.16594
1457.57057	1.37234	0.16602
1456.07046	1.37177	0.166
1454.57035	1.37104	0.16596
1453.07023	1.37023	0.16599
1451.57012	1.36936	0.16612
1450.07001	1.3685	0.16635
1448.5699	1.36766	0.16664
1447.06979	1.36682	0.167
1445.56967	1.36597	0.16744
1444.06956	1.36515	0.16796
1442.56945	1.36443	0.16853
1441.06934	1.36381	0.1691
1439.56923	1.36324	0.16963
1438.06912	1.36272	0.17009
1436.569	1.36218	0.1705
1435.06889	1.3616	0.17088
1433.56878	1.361	0.17127
1432.06867	1.36042	0.17169
1430.56856	1.35987	0.17213
1429.06844	1.35933	0.17257
1427.56833	1.35879	0.17299
1426.06822	1.35825	0.17342
1424.56811	1.35771	0.17384
1423.068	1.35718	0.17426
1421.56789	1.35669	0.17464
1420.06777	1.35618	0.17497
1418.56766	1.35564	0.17524
1417.06755	1.35502	0.17551
1415.56744	1.35434	0.1758
1414.06733	1.35363	0.17613
1412.56721	1.3529	0.17653
1411.0671	1.35219	0.17698
1409.56699	1.35149	0.1775
1408.06688	1.35083	0.17806
1406.56677	1.35021	0.17866
1405.06666	1.34965	0.17927
1403.56654	1.34912	0.17986
1402.06643	1.34863	0.1804
1400.56632	1.34818	0.18093
1399.06621	1.34773	0.18139
1397.5661	1.34729	0.1818
1396.06598	1.3468	0.18216
1394.56587	1.34626	0.18249
1393.06576	1.34567	0.18281
1391.56565	1.34502	0.18317
1390.06554	1.34435	0.18356
1388.56543	1.34369	0.18397
1387.06531	1.343	0.18441
1385.5652	1.3423	0.18489
1384.06509	1.34159	0.18541
1382.56498	1.34089	0.18597
1381.06487	1.34022	0.18656
1379.56475	1.33959	0.18716
1378.06464	1.33898	0.18775
1376.56453	1.33839	0.18835
1375.06442	1.33781	0.18893
1373.56431	1.33724	0.18951
1372.0642	1.33666	0.19007
1370.56408	1.33607	0.19063
1369.06397	1.3355	0.19118
1367.56386	1.33492	0.19173
1366.06375	1.33433	0.19227
1364.56364	1.33373	0.19281
1363.06352	1.33312	0.19334
1361.56341	1.33249	0.19388
1360.0633	1.33184	0.19442
1358.56319	1.33117	0.19497
1357.06308	1.33051	0.19555
1355.56297	1.32983	0.19615
1354.06285	1.32916	0.19678
1352.56274	1.32849	0.19741
1351.06263	1.32784	0.19809
1349.56252	1.3272	0.19878
1348.06241	1.32659	0.19949
1346.56229	1.326	0.20018
1345.06218	1.32544	0.20087
1343.56207	1.32488	0.20153
1342.06196	1.32433	0.20218
1340.56185	1.32377	0.2028
1339.06174	1.3232	0.2034
1337.56162	1.32262	0.20396
1336.06151	1.32199	0.20453
1334.5614	1.32135	0.2051
1333.06129	1.32069	0.20569
1331.56118	1.32002	0.2063
1330.06106	1.31935	0.20692
1328.56095	1.31867	0.20756
1327.06084	1.318	0.20821
1325.56073	1.31733	0.20886
1324.06062	1.31666	0.20952
1322.56051	1.316	0.21016
1321.06039	1.31534	0.21078
1319.56028	1.31467	0.21138
1318.06017	1.31397	0.21197
1316.56006	1.31325	0.21255
1315.05995	1.31251	0.21312
1313.55983	1.31174	0.21369
1312.05972	1.31093	0.21426
1310.55961	1.3101	0.21484
1309.0595	1.30925	0.21543
1307.55939	1.30837	0.21604
1306.05928	1.30747	0.21666
1304.55916	1.30654	0.21729
1303.05905	1.30561	0.21793
1301.55894	1.30465	0.21859
1300.05883	1.30367	0.21925
1298.55872	1.30266	0.21993
1297.0586	1.30164	0.2206
1295.55849	1.30059	0.22129
1294.05838	1.29951	0.22198
1292.55827	1.29839	0.22268
1291.05816	1.29725	0.2234
1289.55805	1.29606	0.22414
1288.05793	1.29484	0.22489
1286.55782	1.29359	0.22566
1285.05771	1.29228	0.22645
1283.5576	1.29094	0.22728
1282.05749	1.28957	0.22813
1280.55737	1.28814	0.22903
1279.05726	1.28668	0.22995
1277.55715	1.28517	0.23091
1276.05704	1.28361	0.23191
1274.55693	1.28202	0.23297
1273.05682	1.28038	0.23408
1271.5567	1.27871	0.23526
1270.05659	1.277	0.23648
1268.55648	1.27524	0.23778
1267.05637	1.27345	0.23915
1265.55626	1.27163	0.24061
1264.05615	1.26979	0.24214
1262.55603	1.26792	0.24375
1261.05592	1.26602	0.24546
1259.55581	1.2641	0.24725
1258.0557	1.26217	0.24914
1256.55559	1.26023	0.25113
1255.05547	1.25828	0.25324
1253.55536	1.25634	0.25546
1252.05525	1.2544	0.25781
1250.55514	1.25249	0.26028
1249.05503	1.25063	0.26289
1247.55492	1.24881	0.26562
1246.0548	1.24705	0.26847
1244.55469	1.24536	0.27145
1243.05458	1.24376	0.27454
1241.55447	1.24225	0.27774
1240.05436	1.24082	0.28102
1238.55424	1.23952	0.28439
1237.05413	1.2383	0.28783
1235.55402	1.23721	0.29135
1234.05391	1.23623	0.29492
1232.5538	1.23535	0.29854
1231.05369	1.23459	0.30219
1229.55357	1.23394	0.30588
1228.05346	1.23341	0.30958
1226.55335	1.23298	0.3133
1225.05324	1.23266	0.31702
1223.55313	1.23244	0.32071
1222.05301	1.23231	0.32439
1220.5529	1.23225	0.32805
1219.05279	1.23228	0.33168
1217.55268	1.23235	0.33526
1216.05257	1.23248	0.33883
1214.55246	1.23265	0.34235
1213.05234	1.23285	0.34586
1211.55223	1.23308	0.34935
1210.05212	1.23332	0.35283
1208.55201	1.23359	0.35631
1207.0519	1.23387	0.35978
1205.55178	1.23415	0.36327
1204.05167	1.23444	0.36679
1202.55156	1.23474	0.37035
1201.05145	1.23507	0.37394
1199.55134	1.23542	0.3776
1198.05123	1.2358	0.38132
1196.55111	1.23622	0.3851
1195.051	1.23669	0.38895
1193.55089	1.23723	0.39289
1192.05078	1.23783	0.39691
1190.55067	1.23854	0.40098
1189.05055	1.23932	0.40513
1187.55044	1.24022	0.40935
1186.05033	1.24123	0.41361
1184.55022	1.24237	0.41793
1183.05011	1.24363	0.42228
1181.55	1.24503	0.42665
1180.04988	1.24656	0.43105
1178.54977	1.24823	0.43544
1177.04966	1.25002	0.43983
1175.54955	1.25196	0.44419
1174.04944	1.25401	0.44853
1172.54932	1.25619	0.45284
1171.04921	1.25849	0.45713
1169.5491	1.26091	0.46136
1168.04899	1.26343	0.46556
1166.54888	1.26607	0.46972
1165.04877	1.26883	0.47385
1163.54865	1.2717	0.47793
1162.04854	1.27468	0.48195
1160.54843	1.27777	0.48594
1159.04832	1.28098	0.48985
1157.54821	1.2843	0.49369
1156.04809	1.28774	0.49746
1154.54798	1.29127	0.50115
1153.04787	1.29491	0.50474
1151.54776	1.29864	0.50824
1150.04765	1.30246	0.51163
1148.54754	1.30635	0.51493
1147.04742	1.31032	0.51812
1145.54731	1.31436	0.52119
1144.0472	1.31844	0.52414
1142.54709	1.32257	0.52698
1141.04698	1.32674	0.5297
1139.54686	1.33092	0.53233
1138.04675	1.33513	0.53485
1136.54664	1.33935	0.53728
1135.04653	1.34356	0.53964
1133.54642	1.34778	0.54192
1132.04631	1.35202	0.54415
1130.54619	1.35625	0.54633
1129.04608	1.3605	0.54848
1127.54597	1.36478	0.5506
1126.04586	1.36909	0.55271
1124.54575	1.37345	0.55479
1123.04563	1.37787	0.55686
1121.54552	1.38237	0.55891
1120.04541	1.38695	0.56092
1118.5453	1.39162	0.5629
1117.04519	1.39641	0.56483
1115.54508	1.4013	0.5667
1114.04496	1.40631	0.56848
1112.54485	1.41144	0.57016
1111.04474	1.41669	0.57171
1109.54463	1.42205	0.57312
1108.04452	1.42752	0.57438
1106.5444	1.43307	0.57546
1105.04429	1.43869	0.57633
1103.54418	1.44437	0.577
1102.04407	1.45009	0.57744
1100.54396	1.4558	0.57766
1099.04385	1.46151	0.57764
1097.54373	1.46718	0.5774
1096.04362	1.47278	0.57694
1094.54351	1.4783	0.57626
1093.0434	1.48371	0.57539
1091.54329	1.489	0.57432
1090.04317	1.49415	0.5731
1088.54306	1.49914	0.57173
1087.04295	1.50397	0.57023
1085.54284	1.50862	0.56864
1084.04273	1.51308	0.56697
1082.54262	1.51737	0.56525
1081.0425	1.52147	0.56353
1079.54239	1.52541	0.56181
1078.04228	1.52917	0.56013
1076.54217	1.5328	0.55851
1075.04206	1.53628	0.55698
1073.54194	1.53966	0.55559
1072.04183	1.54296	0.55433
1070.54172	1.54623	0.55326
1069.04161	1.54951	0.55237
1067.5415	1.55286	0.55168
1066.04139	1.55632	0.55118
1064.54127	1.55996	0.55085
1063.04116	1.56382	0.55065
1061.54105	1.56793	0.55055
1060.04094	1.57237	0.55049
1058.54083	1.57713	0.55038
1057.04072	1.58222	0.55015
1055.5406	1.58762	0.5497
1054.04049	1.59331	0.54898
1052.54038	1.59923	0.5479
1051.04027	1.60532	0.54642
1049.54016	1.61153	0.54447
1048.04004	1.61779	0.54205
1046.53993	1.62398	0.53914
1045.03982	1.63005	0.53578
1043.53971	1.63594	0.53198
1042.0396	1.64162	0.52782
1040.53949	1.64703	0.52332
1039.03937	1.65216	0.51853
1037.53926	1.657	0.51351
1036.03915	1.66154	0.50829
1034.53904	1.66577	0.50292
1033.03893	1.66972	0.49741
1031.53881	1.67339	0.49178
1030.0387	1.67677	0.48605
1028.53859	1.67987	0.48022
1027.03848	1.68268	0.47432
1025.53837	1.68521	0.46836
1024.03826	1.68745	0.46233
1022.53814	1.6894	0.45628
1021.03803	1.69107	0.4502
1019.53792	1.69244	0.44413
1018.03781	1.69354	0.43807
1016.5377	1.69434	0.43205
1015.03758	1.69486	0.42607
1013.53747	1.69512	0.42016
1012.03736	1.69509	0.41431
1010.53725	1.69479	0.40853
1009.03714	1.69421	0.40285
1007.53703	1.69334	0.39726
1006.03691	1.69217	0.39179
1004.5368	1.69068	0.38647
1003.03669	1.68887	0.38132
1001.53658	1.68673	0.3764
1000.03647	1.68428	0.37178
998.53635	1.68155	0.36753
997.03624	1.67861	0.3637
995.53613	1.67552	0.36039
994.03602	1.67239	0.35764
992.53591	1.66935	0.35547
991.0358	1.66651	0.35386
989.53568	1.66398	0.35275
988.03557	1.66186	0.35206
986.53546	1.66024	0.35166
985.03535	1.65912	0.35141
983.53524	1.65851	0.35114
982.03512	1.65834	0.35071
980.53501	1.65855	0.35002
979.0349	1.659	0.34898
977.53479	1.65961	0.34755
976.03468	1.66025	0.34572
974.53457	1.66083	0.34353
973.03445	1.66127	0.34105
971.53434	1.66151	0.33831
970.03423	1.66151	0.33541
968.53412	1.66127	0.33241
967.03401	1.66077	0.32937
965.53389	1.66006	0.32633
964.03378	1.65912	0.32333
962.53367	1.65801	0.3204
961.03356	1.65672	0.31755
959.53345	1.65528	0.31479
958.03334	1.65369	0.31213
956.53322	1.65198	0.30958
955.03311	1.65017	0.30715
953.533	1.64825	0.30484
952.03289	1.64625	0.30266
950.53278	1.64418	0.30059
949.03266	1.64203	0.29867
947.53255	1.63982	0.29688
946.03244	1.63756	0.29522
944.53233	1.63527	0.29371
943.03222	1.63293	0.29233
941.53211	1.63058	0.2911
940.03199	1.6282	0.29
938.53188	1.62582	0.28906
937.03177	1.62344	0.28826
935.53166	1.62109	0.28762
934.03155	1.61874	0.28713
932.53143	1.61645	0.2868
931.03132	1.6142	0.2866
929.53121	1.61202	0.28655
928.0311	1.60992	0.28664
926.53099	1.6079	0.28686
925.03088	1.60597	0.2872
923.53076	1.60416	0.28767
922.03065	1.60247	0.28824
920.53054	1.6009	0.28889
919.03043	1.59947	0.28964
917.53032	1.59817	0.29045
916.0302	1.59704	0.29134
914.53009	1.59607	0.29227
913.02998	1.59526	0.29321
911.52987	1.59461	0.29417
910.02976	1.59413	0.29511
908.52965	1.59381	0.29602
907.02953	1.59365	0.29687
905.52942	1.59363	0.29765
904.02931	1.59374	0.29832
902.5292	1.59397	0.29888
901.02909	1.59428	0.2993
899.52897	1.59467	0.29958
898.02886	1.59511	0.29972
896.52875	1.59557	0.2997
895.02864	1.59603	0.29954
893.52853	1.59646	0.29921
892.02842	1.59684	0.29876
890.5283	1.59716	0.29818
889.02819	1.59739	0.29749
887.52808	1.59753	0.29671
886.02797	1.59756	0.29586
884.52786	1.59748	0.29497
883.02774	1.5973	0.29406
881.52763	1.59701	0.29312
880.02752	1.59663	0.2922
878.52741	1.59615	0.29131
877.0273	1.5956	0.29044
875.52719	1.595	0.28961
874.02707	1.59434	0.28882
872.52696	1.59362	0.28805
871.02685	1.59287	0.28733
869.52674	1.59207	0.28665
868.02663	1.59124	0.28598
866.52652	1.59038	0.28536
865.0264	1.58948	0.28477
863.52629	1.58856	0.2842
862.02618	1.58759	0.28367
860.52607	1.58659	0.28318
859.02596	1.58558	0.28274
857.52584	1.58454	0.28233
856.02573	1.58349	0.28198
854.52562	1.58242	0.28166
853.02551	1.58134	0.28138
851.5254	1.58024	0.28114
850.02529	1.57915	0.28094
848.52517	1.57806	0.28078
847.02506	1.57698	0.28064
845.52495	1.57588	0.28052
844.02484	1.57476	0.28041
842.52473	1.57362	0.28031
841.02461	1.57246	0.28024
839.5245	1.57126	0.28018
838.02439	1.57001	0.28016
836.52428	1.56872	0.28016
835.02417	1.56738	0.28022
833.52406	1.56599	0.28037
832.02394	1.56457	0.28061
830.52383	1.56315	0.28097
829.02372	1.56174	0.28144
827.52361	1.56037	0.28203
826.0235	1.55906	0.28272
824.52338	1.55781	0.28351
823.02327	1.55666	0.28435
821.52316	1.5556	0.28525
820.02305	1.55463	0.28616
818.52294	1.55374	0.28706
817.02283	1.55291	0.28793
815.52271	1.55211	0.28877
814.0226	1.55134	0.28958
812.52249	1.55059	0.29037
811.02238	1.54982	0.29114
809.52227	1.54906	0.2919
808.02215	1.54828	0.29267
806.52204	1.54749	0.29345
805.02193	1.54668	0.29426
803.52182	1.54587	0.29509
802.02171	1.54505	0.29597
800.5216	1.54423	0.29688
799.02148	1.54342	0.29784
797.52137	1.54263	0.29883
796.02126	1.54186	0.29988
794.52115	1.54111	0.30097
793.02104	1.54039	0.30211
791.52092	1.53971	0.30329
790.02081	1.53906	0.30449
788.5207	1.53847	0.30574
787.02059	1.53791	0.307
785.52048	1.53741	0.30829
784.02037	1.53693	0.30958
782.52025	1.5365	0.31089
781.02014	1.53611	0.31222
779.52003	1.53575	0.31354
778.01992	1.53542	0.31488
776.51981	1.53513	0.31622
775.01969	1.53488	0.31758
773.51958	1.53465	0.31895
772.01947	1.53446	0.32033
770.51936	1.53431	0.32172
769.01925	1.53419	0.32312
767.51914	1.53411	0.32452
766.01902	1.53407	0.32594
764.51891	1.53408	0.32735
763.0188	1.53412	0.32876
761.51869	1.5342	0.33018
760.01858	1.53433	0.33159
758.51846	1.5345	0.333
757.01835	1.5347	0.33441
755.51824	1.53497	0.33579
754.01813	1.53526	0.33718
752.51802	1.5356	0.33853
751.01791	1.53598	0.33988
749.51779	1.53641	0.34119
748.01768	1.53686	0.34247
746.51757	1.53735	0.34371
745.01746	1.53786	0.34491
743.51735	1.53839	0.34607
742.01723	1.53894	0.3472
740.51712	1.53951	0.34828
739.01701	1.54007	0.34931
737.5169	1.54063	0.3503
736.01679	1.54118	0.35126
734.51668	1.54173	0.35219
733.01656	1.54226	0.35309
731.51645	1.54279	0.35396
730.01634	1.5433	0.3548
728.51623	1.5438	0.35562
727.01612	1.54427	0.35641
725.516	1.54473	0.35719
724.01589	1.54517	0.35794
722.51578	1.54558	0.35868
721.01567	1.54597	0.35939
719.51556	1.54633	0.36009
718.01545	1.54666	0.36079
716.51533	1.54695	0.36148
715.01522	1.54721	0.36215
713.51511	1.54742	0.36281
712.015	1.5476	0.36349
710.51489	1.54772	0.36418
709.01477	1.54782	0.36489
707.51466	1.54788	0.36562
706.01455	1.54791	0.36636
704.51444	1.5479	0.36714
703.01433	1.54785	0.36796
701.51422	1.54778	0.36882
700.0141	1.54768	0.3697
698.51399	1.54756	0.37061
697.01388	1.5474	0.37156
695.51377	1.54723	0.37256
694.01366	1.54704	0.37361
692.51354	1.54681	0.3747
691.01343	1.54658	0.37585
689.51332	1.54633	0.37705
688.01321	1.54606	0.37833
686.5131	1.5458	0.37966
685.01299	1.54555	0.38106
683.51287	1.54531	0.38251
682.01276	1.54506	0.38399
680.51265	1.54481	0.38553
679.01254	1.54456	0.38712
677.51243	1.54429	0.38875
676.01232	1.54402	0.39045
674.5122	1.54375	0.3922
673.01209	1.54347	0.39402
671.51198	1.54317	0.39591
670.01187	1.54287	0.39789
668.51176	1.54255	0.39997
667.01164	1.54223	0.40214
665.51153	1.54194	0.40442
664.01142	1.54165	0.40679
662.51131	1.54136	0.40927
661.0112	1.54108	0.41188
659.51109	1.54082	0.41464
658.01097	1.5406	0.41755
656.51086	1.54042	0.42061
655.01075	1.54031	0.42386
653.51064	1.54029	0.42727
652.01053	1.54036	0.4309
650.51041	1.54056	0.43473
649.0103	1.54093	0.43876
647.51019	1.54149	0.44298
646.01008	1.54226	0.44738
644.50997	1.54326	0.45195
643.00986	1.54452	0.45667
641.50974	1.54606	0.46153
640.00963	1.54791	0.46651
638.50952	1.55006	0.47157
637.00941	1.55255	0.47671
635.5093	1.55539	0.48189
634.00918	1.55857	0.4871
632.50907	1.56213	0.4923
631.00896	1.56606	0.49747
629.50885	1.57038	0.50256
628.00874	1.57509	0.50758
626.50863	1.58022	0.51247
625.00851	1.58574	0.51718
623.5084	1.59166	0.52167
622.00829	1.59796	0.5259
620.50818	1.60463	0.52982
619.00807	1.61163	0.5334
617.50795	1.61897	0.53659
616.00784	1.62658	0.53934
614.50773	1.63444	0.54162
613.00762	1.64247	0.54341
611.50751	1.65065	0.54469
610.0074	1.65894	0.54546
608.50728	1.66727	0.54572
607.00717	1.67563	0.54545
605.50706	1.68396	0.54466
604.00695	1.69221	0.54334
602.50684	1.70034	0.54151
601.00672	1.70829	0.53916
599.50661	1.71602	0.53633
598.0065	1.72348	0.53303
596.50639	1.73065	0.52931
595.00628	1.7375	0.52521
593.50617	1.74401	0.52078
592.00605	1.75017	0.51606
590.50594	1.75598	0.51107
589.00583	1.76142	0.50585
587.50572	1.76649	0.50042
586.00561	1.7712	0.4948
584.50549	1.77552	0.48897
583.00538	1.77943	0.48294
581.50527	1.78289	0.47674
580.00516	1.78588	0.4704
578.50505	1.78836	0.46398
577.00494	1.79033	0.45754
575.50482	1.79178	0.45113
574.00471	1.79271	0.44484
572.5046	1.79317	0.43878
571.00449	1.79321	0.43297
569.50438	1.79288	0.42747
568.00426	1.79223	0.4223
566.50415	1.79133	0.41751
565.00404	1.79024	0.41308
563.50393	1.78904	0.40902
562.00382	1.78777	0.40529
560.50371	1.78647	0.40185
559.00359	1.78516	0.39867
557.50348	1.78384	0.39573
556.00337	1.78255	0.39301
554.50326	1.7813	0.39048
553.00315	1.78007	0.38811
551.50303	1.77888	0.38588
550.00292	1.77771	0.38377
548.50281	1.77657	0.3818
547.0027	1.77545	0.37994
545.50259	1.77436	0.3782
544.00248	1.77328	0.37657
542.50236	1.77223	0.37506
541.00225	1.77123	0.37365
539.50214	1.77027	0.37235
538.00203	1.76937	0.37116
536.50192	1.76854	0.37006
535.0018	1.76776	0.36901
533.50169	1.76705	0.36802
532.00158	1.76638	0.36709
530.50147	1.7658	0.36622
529.00136	1.76532	0.36537
527.50125	1.76489	0.36451
526.00113	1.7645	0.36362
524.50102	1.76409	0.36269
523.00091	1.76369	0.36176
521.5008	1.76331	0.36084
520.00069	1.76293	0.35991
518.50057	1.76253	0.35895
517.00046	1.76209	0.35797
515.50035	1.76159	0.35702
514.00024	1.76104	0.35613
512.50013	1.7605	0.35531
511.00002	1.75996	0.35453
509.4999	1.75942	0.35377
507.99979	1.75887	0.35302
506.49968	1.75828	0.35233
504.99957	1.75769	0.35167
503.49946	1.75709	0.35104
501.99934	1.75648	0.35043
500.49923	1.75582	0.34983
498.99912	1.75513	0.34929
497.49901	1.75441	0.34882
495.9989	1.75367	0.34842
494.49879	1.75292	0.34811
492.99867	1.75218	0.34789
491.49856	1.75145	0.34775
489.99845	1.75073	0.3477
488.49834	1.75005	0.34773
486.99823	1.74941	0.34785
485.49812	1.74885	0.34803
483.998	1.74836	0.34829
482.49789	1.74796	0.34858
480.99778	1.7476	0.3489
479.49767	1.7473	0.34924
477.99756	1.74706	0.34958
476.49744	1.74686	0.34993
474.99733	1.7467	0.35027
473.49722	1.74657	0.35061
471.99711	1.74644	0.35094
470.497	1.74633	0.35131
468.99689	1.74628	0.35176
467.49677	1.74627	0.35227
465.99666	1.74631	0.35278
464.49655	1.74641	0.35334
462.99644	1.74657	0.35393
461.49633	1.74683	0.35456
459.99621	1.74719	0.3552
458.4961	1.74766	0.3558
456.99599	1.7482	0.35633
455.49588	1.74875	0.35682
453.99577	1.74937	0.35733
452.49566	1.75008	0.35783
450.99554	1.75089	0.3583
449.49543	1.75179	0.35871
447.99532	1.75277	0.35903
446.49521	1.75379	0.35928
444.9951	1.75488	0.35945
443.49498	1.75605	0.35952
441.99487	1.75728	0.35942
440.49476	1.7585	0.35912
438.99465	1.75967	0.35865
437.49454	1.76078	0.35804
435.99443	1.76182	0.35728
434.49431	1.76276	0.35635
432.9942	1.76351	0.35525
431.49409	1.76399	0.35399
429.99398	1.76417	0.35269
428.49387	1.76413	0.35147
426.99375	1.76393	0.35037
425.49364	1.76356	0.34939
423.99353	1.76307	0.34856
422.49342	1.76244	0.34793
420.99331	1.76175	0.34756
419.4932	1.7611	0.34746
417.99308	1.76061	0.34757
416.49297	1.76032	0.34774
414.99286	1.76014	0.34787
413.49275	1.76002	0.34794
411.99264	1.75992	0.34794
410.49252	1.75978	0.34785
408.99241	1.75956	0.34764
407.4923	1.75923	0.34739
405.99219	1.7588	0.34716
404.49208	1.75825	0.34702
402.99197	1.75759	0.34702
401.49185	1.75685	0.34718
399.99174	1.75603	0.34751
