#SUBSTANCE=Sulphuric acid
#DESCRIPTION=Refractive indices of 72 wt% sulphuric acid from 400 to 7500 cm-1 at 298 K
#TEMPERATURE=298 K
#CONCENTRATION=72 wt%
#DOI=10.1021/jp026576n
#REFERENCE=Spectroscopic Study of Aqueous H2SO4 at Different Temperatures and Compositions:  Variations in Dissociation and Optical Properties
##Cathrine E. Lund Myhre,†, Daniel H. Christensen,‡, Flemming M. Nicolaisen,‡ and, and Claus J. Nielsen*,†
##The Journal of Physical Chemistry A 2003 107 (12), 1979-1991 
#FORMAT=WAVN N K
7498.52083	1.40843	0.01509
7497.02072	1.40859	0.0152
7495.52061	1.40882	0.01511
7494.0205	1.40886	0.01493
7492.52039	1.40878	0.01475
7491.02027	1.40856	0.01466
7489.52016	1.40834	0.01474
7488.02005	1.40828	0.0149
7486.51994	1.40842	0.015
7485.01983	1.40848	0.01495
7483.51971	1.4084	0.01491
7482.0196	1.40827	0.01501
7480.51949	1.40834	0.01516
7479.01938	1.40855	0.01522
7477.51927	1.40874	0.01514
7476.01916	1.40881	0.01496
7474.51904	1.4087	0.01481
7473.01893	1.40854	0.01477
7471.51882	1.40844	0.01481
7470.01871	1.40842	0.01487
7468.5186	1.40845	0.01487
7467.01848	1.40835	0.01486
7465.51837	1.40824	0.01497
7464.01826	1.40829	0.01509
7462.51815	1.40837	0.01517
7461.01804	1.40846	0.01523
7459.51793	1.40864	0.01526
7458.01781	1.40888	0.01513
7456.5177	1.40887	0.0149
7455.01759	1.40862	0.01478
7453.51748	1.40842	0.01492
7452.01737	1.40855	0.01508
7450.51725	1.40882	0.01505
7449.01714	1.40888	0.01485
7447.51703	1.40875	0.01472
7446.01692	1.40862	0.01471
7444.51681	1.40861	0.01474
7443.0167	1.40866	0.01471
7441.51658	1.40863	0.01458
7440.01647	1.4084	0.01451
7438.51636	1.40814	0.01463
7437.01625	1.40812	0.01486
7435.51614	1.40828	0.015
7434.01602	1.40843	0.01501
7432.51591	1.40845	0.01497
7431.0158	1.40843	0.01498
7429.51569	1.40845	0.01504
7428.01558	1.40856	0.01509
7426.51547	1.40877	0.01505
7425.01535	1.40888	0.01487
7423.51524	1.40884	0.01469
7422.01513	1.40871	0.01455
7420.51502	1.40854	0.01449
7419.01491	1.40837	0.01449
7417.51479	1.40819	0.01456
7416.01468	1.40806	0.01472
7414.51457	1.4081	0.0149
7413.01446	1.40819	0.01501
7411.51435	1.40829	0.01508
7410.01424	1.40841	0.01511
7408.51412	1.40851	0.01509
7407.01401	1.40854	0.01505
7405.5139	1.40855	0.01505
7404.01379	1.40865	0.01506
7402.51368	1.4088	0.01499
7401.01356	1.40883	0.01484
7399.51345	1.40877	0.01473
7398.01334	1.4087	0.01464
7396.51323	1.40858	0.01457
7395.01312	1.40838	0.01459
7393.51301	1.40825	0.01475
7392.01289	1.40832	0.01492
7390.51278	1.4085	0.015
7389.01267	1.40868	0.01495
7387.51256	1.40878	0.01482
7386.01245	1.40875	0.01467
7384.51233	1.40863	0.01456
7383.01222	1.40845	0.01454
7381.51211	1.4083	0.01463
7380.012	1.40827	0.01476
7378.51189	1.40835	0.01485
7377.01178	1.40836	0.0149
7375.51166	1.40842	0.01499
7374.01155	1.4086	0.01501
7372.51144	1.40869	0.01495
7371.01133	1.40879	0.01488
7369.51122	1.40884	0.01474
7368.0111	1.40875	0.01461
7366.51099	1.40855	0.01459
7365.01088	1.40846	0.0147
7363.51077	1.40853	0.01482
7362.01066	1.40869	0.01484
7360.51055	1.4088	0.01477
7359.01043	1.40885	0.01466
7357.51032	1.40879	0.01454
7356.01021	1.40867	0.01452
7354.5101	1.40865	0.01456
7353.00999	1.4087	0.01459
7351.50987	1.40881	0.01454
7350.00976	1.40888	0.01438
7348.50965	1.40866	0.01425
7347.00954	1.4085	0.01432
7345.50943	1.40856	0.01442
7344.00932	1.40876	0.01433
7342.5092	1.40874	0.0141
7341.00909	1.40841	0.01393
7339.50898	1.40804	0.01404
7338.00887	1.40789	0.01429
7336.50876	1.40794	0.01455
7335.00864	1.4081	0.01473
7333.50853	1.40843	0.01483
7332.00842	1.40885	0.0146
7330.50831	1.40885	0.01416
7329.0082	1.40836	0.01386
7327.50809	1.40782	0.014
7326.00797	1.40764	0.01431
7324.50786	1.40768	0.01458
7323.00775	1.40769	0.01481
7321.50764	1.40786	0.01509
7320.00753	1.40834	0.01518
7318.50741	1.40868	0.01497
7317.0073	1.40861	0.01469
7315.50719	1.40845	0.01465
7314.00708	1.4085	0.01466
7312.50697	1.40858	0.01458
7311.00686	1.40854	0.01444
7309.50674	1.40835	0.01434
7308.00663	1.40806	0.01441
7306.50652	1.40789	0.01468
7305.00641	1.40809	0.01499
7303.5063	1.40845	0.01505
7302.00619	1.40865	0.01497
7300.50607	1.4087	0.01491
7299.00596	1.40895	0.01487
7297.50585	1.40922	0.01462
7296.00574	1.40925	0.01421
7294.50563	1.40892	0.01391
7293.00551	1.4086	0.01383
7291.5054	1.40832	0.01385
7290.00529	1.40807	0.01401
7288.50518	1.40803	0.01421
7287.00507	1.40816	0.01432
7285.50496	1.40819	0.01427
7284.00484	1.40799	0.01433
7282.50473	1.40796	0.01453
7281.00462	1.40818	0.0147
7279.50451	1.40846	0.01464
7278.0044	1.40855	0.01449
7276.50428	1.40853	0.01432
7275.00417	1.40835	0.01423
7273.50406	1.40818	0.01429
7272.00395	1.40817	0.0144
7270.50384	1.4083	0.01445
7269.00373	1.40837	0.01436
7267.50361	1.40828	0.01428
7266.0035	1.40809	0.01431
7264.50339	1.40804	0.01446
7263.00328	1.40815	0.01459
7261.50317	1.40829	0.0146
7260.00305	1.40836	0.01456
7258.50294	1.40834	0.01455
7257.00283	1.40843	0.01458
7255.50272	1.40856	0.0145
7254.00261	1.40856	0.01437
7252.5025	1.40845	0.01428
7251.00238	1.40828	0.01433
7249.50227	1.40828	0.01454
7248.00216	1.40863	0.01463
7246.50205	1.40907	0.01438
7245.00194	1.40903	0.01389
7243.50182	1.40858	0.01358
7242.00171	1.40802	0.01361
7240.5016	1.40762	0.01396
7239.00149	1.40765	0.01447
7237.50138	1.40817	0.01482
7236.00127	1.40895	0.01465
7234.50115	1.40928	0.014
7233.00104	1.40876	0.01334
7231.50093	1.4079	0.01329
7230.00082	1.40738	0.01367
7228.50071	1.40727	0.0142
7227.00059	1.40757	0.01464
7225.50048	1.40807	0.01479
7224.00037	1.40848	0.01464
7222.50026	1.4086	0.01436
7221.00015	1.40852	0.01413
7219.50004	1.40834	0.01403
7217.99992	1.4082	0.01407
7216.49981	1.40823	0.01412
7214.9997	1.40827	0.0141
7213.49959	1.40823	0.01405
7211.99948	1.40814	0.01408
7210.49936	1.40819	0.01415
7208.99925	1.40837	0.01412
7207.49914	1.40849	0.01393
7205.99903	1.40837	0.01367
7204.49892	1.40796	0.01358
7202.99881	1.40763	0.01375
7201.49869	1.40756	0.01406
7199.99858	1.40775	0.01429
7198.49847	1.40803	0.01432
7196.99836	1.40816	0.0142
7195.49825	1.40813	0.01409
7193.99813	1.40805	0.01407
7192.49802	1.40808	0.01407
7190.99791	1.4081	0.01404
7189.4978	1.40807	0.014
7187.99769	1.40805	0.01401
7186.49758	1.40817	0.01397
7184.99746	1.4082	0.01378
7183.49735	1.40797	0.01359
7181.99724	1.40754	0.01362
7180.49713	1.40728	0.01391
7178.99702	1.40737	0.01426
7177.4969	1.40763	0.01444
7175.99679	1.40788	0.01451
7174.49668	1.40821	0.01444
7172.99657	1.40849	0.01418
7171.49646	1.4085	0.01374
7169.99635	1.40809	0.01341
7168.49623	1.40745	0.01342
7166.99612	1.4071	0.01379
7165.49601	1.4072	0.01421
7163.9959	1.40756	0.01432
7162.49579	1.40753	0.01431
7160.99567	1.40757	0.01443
7159.49556	1.40776	0.01452
7157.99545	1.40799	0.01448
7156.49534	1.4081	0.01438
7154.99523	1.40822	0.01425
7153.49512	1.40822	0.01403
7151.995	1.40801	0.01388
7150.49489	1.40774	0.01394
7148.99478	1.40774	0.01411
7147.49467	1.40791	0.01416
7145.99456	1.40803	0.01407
7144.49444	1.40799	0.01395
7142.99433	1.40789	0.01387
7141.49422	1.40774	0.01384
7139.99411	1.40755	0.01394
7138.494	1.40755	0.01411
7136.99389	1.40767	0.01422
7135.49377	1.4078	0.01424
7133.99366	1.40789	0.01425
7132.49355	1.40809	0.01418
7130.99344	1.4082	0.01397
7129.49333	1.40807	0.01372
7127.99321	1.40774	0.01366
7126.4931	1.4076	0.01378
7124.99299	1.40763	0.01389
7123.49288	1.40774	0.01388
7121.99277	1.40776	0.01377
7120.49266	1.40762	0.01363
7118.99254	1.40726	0.01363
7117.49243	1.40699	0.01391
7115.99232	1.40706	0.01421
7114.49221	1.40722	0.01444
7112.9921	1.40755	0.01455
7111.49198	1.40789	0.01444
7109.99187	1.40803	0.01416
7108.49176	1.40785	0.01392
7106.99165	1.40762	0.01386
7105.49154	1.40741	0.01392
7103.99143	1.40729	0.01409
7102.49131	1.40732	0.0143
7100.9912	1.40756	0.01444
7099.49109	1.40785	0.01438
7097.99098	1.40799	0.01416
7096.49087	1.40784	0.01394
7094.99076	1.40759	0.0139
7093.49064	1.40743	0.01401
7091.99053	1.4074	0.01415
7090.49042	1.40742	0.01429
7088.99031	1.40759	0.01441
7087.4902	1.40783	0.0144
7085.99008	1.408	0.01429
7084.48997	1.40814	0.01409
7082.98986	1.40806	0.01382
7081.48975	1.40777	0.01368
7079.98964	1.40746	0.0138
7078.48953	1.4075	0.01398
7076.98941	1.40768	0.01402
7075.4893	1.40778	0.0139
7073.98919	1.40769	0.01374
7072.48908	1.40746	0.01369
7070.98897	1.40725	0.01378
7069.48885	1.40717	0.01395
7067.98874	1.40722	0.01412
7066.48863	1.40733	0.01422
7064.98852	1.40744	0.01426
7063.48841	1.40759	0.01427
7061.9883	1.40773	0.01417
7060.48818	1.4077	0.01404
7058.98807	1.40766	0.01397
7057.48796	1.4076	0.01392
7055.98785	1.40752	0.01388
7054.48774	1.40736	0.01391
7052.98762	1.40732	0.01404
7051.48751	1.40745	0.01415
7049.9874	1.40767	0.01405
7048.48729	1.40756	0.01388
7046.98718	1.40734	0.01387
7045.48707	1.40726	0.01402
7043.98695	1.40738	0.0141
7042.48684	1.40749	0.01404
7040.98673	1.40737	0.01397
7039.48662	1.40724	0.01406
7037.98651	1.40729	0.01415
7036.48639	1.40731	0.01422
7034.98628	1.4074	0.01427
7033.48617	1.4075	0.01426
7031.98606	1.40755	0.01425
7030.48595	1.40768	0.0142
7028.98584	1.40769	0.01409
7027.48572	1.40765	0.01402
7025.98561	1.40764	0.01395
7024.4855	1.40752	0.0139
7022.98539	1.40742	0.01394
7021.48528	1.40741	0.014
7019.98516	1.40745	0.01403
7018.48505	1.4075	0.01401
7016.98494	1.40748	0.01396
7015.48483	1.40742	0.01394
7013.98472	1.40735	0.01397
7012.48461	1.4073	0.01407
7010.98449	1.40746	0.01415
7009.48438	1.40763	0.01404
7007.98427	1.40757	0.01388
7006.48416	1.40735	0.01383
7004.98405	1.40721	0.01394
7003.48393	1.40724	0.01411
7001.98382	1.40744	0.01418
7000.48371	1.4076	0.01408
6998.9836	1.40754	0.01394
6997.48349	1.40743	0.01393
6995.98338	1.40744	0.01397
6994.48326	1.40749	0.01393
6992.98315	1.4074	0.01387
6991.48304	1.40731	0.01395
6989.98293	1.4074	0.01401
6988.48282	1.40755	0.01395
6986.9827	1.40751	0.01381
6985.48259	1.40736	0.01376
6983.98248	1.40724	0.0138
6982.48237	1.4072	0.01389
6980.98226	1.40725	0.01395
6979.48215	1.40733	0.01393
6977.98203	1.40732	0.01384
6976.48192	1.40709	0.01384
6974.98181	1.407	0.01404
6973.4817	1.40715	0.01422
6971.98159	1.40743	0.01423
6970.48147	1.40758	0.01409
6968.98136	1.40757	0.01391
6967.48125	1.40745	0.0138
6965.98114	1.40731	0.01378
6964.48103	1.40716	0.01387
6962.98092	1.40727	0.01399
6961.4808	1.40744	0.01392
6959.98069	1.40738	0.01377
6958.48058	1.40708	0.01378
6956.98047	1.40709	0.01398
6955.48036	1.4073	0.01403
6953.98024	1.4074	0.01393
6952.48013	1.40729	0.01386
6950.98002	1.40726	0.01389
6949.47991	1.40736	0.0139
6947.9798	1.40746	0.01372
6946.47969	1.40718	0.01357
6944.97957	1.40691	0.01366
6943.47946	1.40682	0.01387
6941.97935	1.40691	0.01406
6940.47924	1.40709	0.01414
6938.97913	1.40725	0.0141
6937.47901	1.40731	0.01399
6935.9789	1.40725	0.0139
6934.47879	1.40712	0.01391
6932.97868	1.40712	0.01399
6931.47857	1.4072	0.014
6929.97846	1.40723	0.01395
6928.47834	1.40715	0.01394
6926.97823	1.40713	0.01399
6925.47812	1.40718	0.01403
6923.97801	1.40726	0.01402
6922.4779	1.40726	0.01398
6920.97778	1.40728	0.01396
6919.47767	1.4073	0.01392
6917.97756	1.40726	0.01387
6916.47745	1.40716	0.01388
6914.97734	1.40711	0.01398
6913.47723	1.40722	0.01408
6911.97711	1.40743	0.01406
6910.477	1.40751	0.01394
6908.97689	1.40753	0.01382
6907.47678	1.40751	0.0137
6905.97667	1.40743	0.0136
6904.47656	1.40735	0.01352
6902.97644	1.40721	0.01347
6901.47633	1.40708	0.0135
6899.97622	1.40701	0.01355
6898.47611	1.40694	0.01361
6896.976	1.40697	0.01367
6895.47588	1.407	0.01367
6893.97577	1.40696	0.01364
6892.47566	1.40685	0.01365
6890.97555	1.40678	0.01373
6889.47544	1.40675	0.01382
6887.97533	1.40677	0.01395
6886.47521	1.40691	0.01403
6884.9751	1.40705	0.01402
6883.47499	1.40713	0.01395
6881.97488	1.40715	0.01387
6880.47477	1.40712	0.01381
6878.97465	1.40706	0.0138
6877.47454	1.40709	0.01382
6875.97443	1.40717	0.01374
6874.47432	1.40705	0.01363
6872.97421	1.4069	0.01364
6871.4741	1.40678	0.01373
6869.97398	1.40676	0.01388
6868.47387	1.40692	0.01399
6866.97376	1.4071	0.01397
6865.47365	1.40719	0.01386
6863.97354	1.40717	0.01374
6862.47342	1.40711	0.01365
6860.97331	1.407	0.01362
6859.4732	1.40692	0.01366
6857.97309	1.40695	0.01372
6856.47298	1.40706	0.01368
6854.97287	1.40706	0.01355
6853.47275	1.40693	0.01345
6851.97264	1.40674	0.01343
6850.47253	1.40659	0.01352
6848.97242	1.40658	0.01362
6847.47231	1.40658	0.01365
6845.97219	1.40649	0.01369
6844.47208	1.40642	0.01378
6842.97197	1.40632	0.01393
6841.47186	1.40641	0.01417
6839.97175	1.40674	0.01425
6838.47164	1.40699	0.01411
6836.97152	1.40691	0.0139
6835.47141	1.40673	0.01387
6833.9713	1.40664	0.01396
6832.47119	1.40664	0.01408
6830.97108	1.40675	0.01418
6829.47096	1.40694	0.01418
6827.97085	1.40707	0.01406
6826.47074	1.40697	0.01395
6824.97063	1.40689	0.01396
6823.47052	1.40687	0.014
6821.97041	1.40689	0.01406
6820.47029	1.40699	0.01411
6818.97018	1.40715	0.01409
6817.47007	1.40727	0.01397
6815.96996	1.4073	0.01382
6814.46985	1.40726	0.01369
6812.96973	1.4072	0.01356
6811.46962	1.40706	0.01344
6809.96951	1.40682	0.01342
6808.4694	1.40662	0.01353
6806.96929	1.4066	0.01369
6805.46918	1.40664	0.01378
6803.96906	1.40668	0.01387
6802.46895	1.40683	0.01389
6800.96884	1.4069	0.0138
6799.46873	1.40679	0.01371
6797.96862	1.40662	0.0138
6796.4685	1.40673	0.01393
6794.96839	1.40685	0.01394
6793.46828	1.40695	0.0139
6791.96817	1.407	0.0138
6790.46806	1.40693	0.01371
6788.96795	1.40685	0.0137
6787.46783	1.40682	0.01373
6785.96772	1.40687	0.01373
6784.46761	1.40689	0.01367
6782.9675	1.40677	0.01363
6781.46739	1.4067	0.01371
6779.96727	1.40682	0.01375
6778.46716	1.40691	0.01363
6776.96705	1.40672	0.0135
6775.46694	1.40644	0.0136
6773.96683	1.40639	0.01386
6772.46672	1.40669	0.01401
6770.9666	1.4069	0.01391
6769.46649	1.4069	0.01377
6767.96638	1.40679	0.01371
6766.46627	1.40677	0.01372
6764.96616	1.40675	0.01371
6763.46604	1.4067	0.0137
6761.96593	1.40663	0.01375
6760.46582	1.40661	0.01385
6758.96571	1.40676	0.01392
6757.4656	1.4069	0.01386
6755.96549	1.40689	0.01379
6754.46537	1.4069	0.01374
6752.96526	1.40692	0.01368
6751.46515	1.4069	0.01361
6749.96504	1.40682	0.01358
6748.46493	1.40681	0.01358
6746.96481	1.40679	0.01354
6745.4647	1.40674	0.01351
6743.96459	1.40667	0.01349
6742.46448	1.40656	0.01351
6740.96437	1.40648	0.01358
6739.46426	1.40647	0.01369
6737.96414	1.40655	0.01376
6736.46403	1.40661	0.01378
6734.96392	1.40666	0.01379
6733.46381	1.40673	0.01378
6731.9637	1.4068	0.01374
6730.46358	1.40686	0.01365
6728.96347	1.40685	0.01352
6727.46336	1.4067	0.01341
6725.96325	1.40645	0.01344
6724.46314	1.40633	0.01362
6722.96303	1.40649	0.01379
6721.46291	1.40669	0.01375
6719.9628	1.40668	0.01364
6718.46269	1.40653	0.01363
6716.96258	1.40651	0.01374
6715.46247	1.40666	0.01381
6713.96236	1.40685	0.01372
6712.46224	1.40685	0.01354
6710.96213	1.40669	0.01342
6709.46202	1.40648	0.01344
6707.96191	1.40635	0.01358
6706.4618	1.40643	0.01372
6704.96168	1.40654	0.01377
6703.46157	1.40665	0.01377
6701.96146	1.40674	0.0137
6700.46135	1.40674	0.01359
6698.96124	1.40663	0.01353
6697.46113	1.40654	0.01357
6695.96101	1.40656	0.01364
6694.4609	1.40668	0.01362
6692.96079	1.40665	0.01351
6691.46068	1.40651	0.0135
6689.96057	1.40641	0.0136
6688.46045	1.40645	0.01374
6686.96034	1.40668	0.01379
6685.46023	1.40688	0.01365
6683.96012	1.40686	0.01343
6682.46001	1.40662	0.01334
6680.9599	1.40653	0.0134
6679.45978	1.40653	0.01341
6677.95967	1.40647	0.0134
6676.45956	1.40635	0.01345
6674.95945	1.40634	0.01357
6673.45934	1.40643	0.01365
6671.95922	1.40655	0.01363
6670.45911	1.40656	0.01358
6668.959	1.40654	0.01356
6667.45889	1.40657	0.01355
6665.95878	1.40662	0.01348
6664.45867	1.40652	0.01341
6662.95855	1.40638	0.01344
6661.45844	1.40634	0.01355
6659.95833	1.40642	0.01364
6658.45822	1.40655	0.01366
6656.95811	1.40665	0.0136
6655.45799	1.40668	0.01349
6653.95788	1.40663	0.0134
6652.45777	1.40653	0.01336
6650.95766	1.40645	0.01338
6649.45755	1.40643	0.01341
6647.95744	1.40643	0.01341
6646.45732	1.40637	0.01343
6644.95721	1.40638	0.01349
6643.4571	1.40643	0.0135
6641.95699	1.40643	0.01349
6640.45688	1.40642	0.01351
6638.95676	1.40646	0.01354
6637.45665	1.40652	0.01353
6635.95654	1.4066	0.01349
6634.45643	1.40669	0.01336
6632.95632	1.40655	0.01321
6631.45621	1.40634	0.01322
6629.95609	1.40626	0.0133
6628.45598	1.40627	0.01338
6626.95587	1.40628	0.0134
6625.45576	1.40625	0.01342
6623.95565	1.40619	0.01351
6622.45553	1.40624	0.01361
6620.95542	1.40636	0.01368
6619.45531	1.40649	0.01368
6617.9552	1.40661	0.01363
6616.45509	1.40668	0.01355
6614.95498	1.40676	0.01345
6613.45486	1.40676	0.01329
6611.95475	1.40664	0.0132
6610.45464	1.4066	0.01315
6608.95453	1.40652	0.01309
6607.45442	1.40638	0.01305
6605.9543	1.40622	0.01313
6604.45419	1.4062	0.01327
6602.95408	1.40635	0.01334
6601.45397	1.40647	0.01324
6599.95386	1.40639	0.01312
6598.45375	1.40622	0.01309
6596.95363	1.40607	0.01318
6595.45352	1.40602	0.01333
6593.95341	1.40611	0.01348
6592.4533	1.4063	0.01354
6590.95319	1.40645	0.0135
6589.45307	1.40657	0.01341
6587.95296	1.40663	0.01325
6586.45285	1.40655	0.01308
6584.95274	1.40633	0.01302
6583.45263	1.40616	0.01312
6581.95252	1.40619	0.01325
6580.4524	1.40633	0.01328
6578.95229	1.40639	0.01321
6577.45218	1.40636	0.01315
6575.95207	1.4063	0.01311
6574.45196	1.40625	0.01312
6572.95184	1.40623	0.01316
6571.45173	1.40627	0.01318
6569.95162	1.40632	0.01314
6568.45151	1.40628	0.01309
6566.9514	1.40628	0.01307
6565.45129	1.40625	0.01302
6563.95117	1.40615	0.013
6562.45106	1.40609	0.01304
6560.95095	1.4061	0.01307
6559.45084	1.40603	0.01305
6557.95073	1.40588	0.01317
6556.45061	1.40599	0.01333
6554.9505	1.4062	0.01335
6553.45039	1.4063	0.01324
6551.95028	1.40624	0.01316
6550.45017	1.40618	0.01316
6548.95006	1.40623	0.01317
6547.44994	1.40623	0.01312
6545.94983	1.40612	0.01314
6544.44972	1.40617	0.01321
6542.94961	1.4063	0.01322
6541.4495	1.4064	0.01312
6539.94938	1.40639	0.01296
6538.44927	1.40617	0.01289
6536.94916	1.40603	0.013
6535.44905	1.40609	0.01313
6533.94894	1.40628	0.01315
6532.44883	1.40637	0.01304
6530.94871	1.40635	0.01293
6529.4486	1.40631	0.01285
6527.94849	1.40625	0.01276
6526.44838	1.40608	0.01273
6524.94827	1.40598	0.0128
6523.44816	1.40599	0.01289
6521.94804	1.40605	0.01289
6520.44793	1.40601	0.01289
6518.94782	1.40605	0.01291
6517.44771	1.40612	0.01287
6515.9476	1.4061	0.01277
6514.44748	1.40594	0.01273
6512.94737	1.40583	0.01282
6511.44726	1.40586	0.01293
6509.94715	1.406	0.01294
6508.44704	1.40603	0.01288
6506.94693	1.40599	0.01283
6505.44681	1.40597	0.01283
6503.9467	1.40598	0.0128
6502.44659	1.40592	0.01278
6500.94648	1.40591	0.01279
6499.44637	1.40591	0.01276
6497.94625	1.40586	0.01274
6496.44614	1.40575	0.01276
6494.94603	1.40572	0.01284
6493.44592	1.40576	0.01291
6491.94581	1.40583	0.01294
6490.4457	1.40592	0.01292
6488.94558	1.40591	0.01286
6487.44547	1.40587	0.01286
6485.94536	1.40589	0.01288
6484.44525	1.40596	0.01287
6482.94514	1.406	0.01281
6481.44502	1.40605	0.01275
6479.94491	1.4061	0.0126
6478.4448	1.40589	0.01246
6476.94469	1.40564	0.01248
6475.44458	1.40547	0.01263
6473.94447	1.40547	0.01286
6472.44435	1.4057	0.01301
6470.94424	1.406	0.01296
6469.44413	1.40608	0.01273
6467.94402	1.4059	0.01261
6466.44391	1.40584	0.01262
6464.94379	1.40585	0.01261
6463.44368	1.40586	0.01255
6461.94357	1.4058	0.01247
6460.44346	1.40564	0.01246
6458.94335	1.40553	0.01255
6457.44324	1.40557	0.01266
6455.94312	1.40571	0.01268
6454.44301	1.4058	0.01259
6452.9429	1.40574	0.01248
6451.44279	1.40562	0.01244
6449.94268	1.40553	0.01248
6448.44256	1.40553	0.01253
6446.94245	1.40556	0.01254
6445.44234	1.40555	0.01252
6443.94223	1.40551	0.01253
6442.44212	1.40552	0.01256
6440.94201	1.40557	0.01257
6439.44189	1.40567	0.01251
6437.94178	1.4057	0.01233
6436.44167	1.40545	0.01221
6434.94156	1.4052	0.0123
6433.44145	1.40519	0.01248
6431.94133	1.40538	0.01248
6430.44122	1.4053	0.01238
6428.94111	1.40507	0.01241
6427.441	1.40497	0.01262
6425.94089	1.40513	0.01279
6424.44078	1.40533	0.01282
6422.94066	1.40544	0.01275
6421.44055	1.40549	0.01267
6419.94044	1.4055	0.01258
6418.44033	1.40546	0.01249
6416.94022	1.40532	0.01244
6415.4401	1.40521	0.01251
6413.93999	1.40525	0.01259
6412.43988	1.40532	0.01261
6410.93977	1.40534	0.01259
6409.43966	1.40541	0.01259
6407.93955	1.40552	0.01246
6406.43943	1.40539	0.01232
6404.93932	1.40519	0.01232
6403.43921	1.40512	0.01242
6401.9391	1.40521	0.01247
6400.43899	1.40524	0.01242
6398.93887	1.40517	0.01237
6397.43876	1.40508	0.01239
6395.93865	1.40504	0.01242
6394.43854	1.40499	0.01248
6392.93843	1.40502	0.01254
6391.43832	1.40508	0.01255
6389.9382	1.40508	0.01253
6388.43809	1.40504	0.01255
6386.93798	1.40507	0.0126
6385.43787	1.40516	0.0126
6383.93776	1.40522	0.01251
6382.43764	1.40514	0.01244
6380.93753	1.40505	0.01246
6379.43742	1.40506	0.0125
6377.93731	1.40513	0.01248
6376.4372	1.4051	0.01242
6374.93709	1.405	0.01241
6373.43697	1.40494	0.01246
6371.93686	1.40497	0.01252
6370.43675	1.40505	0.01252
6368.93664	1.40504	0.01249
6367.43653	1.40503	0.01251
6365.93641	1.4051	0.01248
6364.4363	1.40506	0.01243
6362.93619	1.40507	0.0124
6361.43608	1.40505	0.01234
6359.93597	1.40494	0.0123
6358.43586	1.40484	0.01234
6356.93574	1.40482	0.01241
6355.43563	1.40483	0.01246
6353.93552	1.40484	0.01251
6352.43541	1.4049	0.01256
6350.9353	1.40502	0.01256
6349.43518	1.40515	0.01248
6347.93507	1.4052	0.01231
6346.43496	1.40505	0.01216
6344.93485	1.4049	0.01211
6343.43474	1.4047	0.01211
6341.93463	1.40452	0.01227
6340.43451	1.40462	0.01245
6338.9344	1.40478	0.01246
6337.43429	1.40483	0.01237
6335.93418	1.40471	0.01232
6334.43407	1.4046	0.01238
6332.93395	1.40461	0.0125
6331.43384	1.40474	0.01258
6329.93373	1.40492	0.01251
6328.43362	1.4049	0.01237
6326.93351	1.40473	0.01234
6325.4334	1.4047	0.01246
6323.93328	1.40491	0.01247
6322.43317	1.40501	0.01231
6320.93306	1.40486	0.01216
6319.43295	1.4047	0.01217
6317.93284	1.40467	0.0122
6316.43273	1.40463	0.0122
6314.93261	1.40454	0.01222
6313.4325	1.40447	0.0123
6311.93239	1.4045	0.01241
6310.43228	1.40463	0.01245
6308.93217	1.40474	0.0124
6307.43205	1.40474	0.01229
6305.93194	1.40464	0.01224
6304.43183	1.40459	0.01224
6302.93172	1.40453	0.01227
6301.43161	1.40454	0.01232
6299.9315	1.40461	0.01231
6298.43138	1.40457	0.0123
6296.93127	1.4046	0.01232
6295.43116	1.4047	0.01228
6293.93105	1.40475	0.01213
6292.43094	1.40455	0.01202
6290.93082	1.40438	0.01207
6289.43071	1.40436	0.01217
6287.9306	1.40442	0.01218
6286.43049	1.40439	0.01214
6284.93038	1.4043	0.01214
6283.43027	1.40424	0.01221
6281.93015	1.40427	0.01226
6280.43004	1.40429	0.01227
6278.92993	1.40426	0.01227
6277.42982	1.40423	0.01231
6275.92971	1.40425	0.01237
6274.42959	1.40432	0.0124
6272.92948	1.4044	0.01238
6271.42937	1.40443	0.01231
6269.92926	1.40439	0.01227
6268.42915	1.4044	0.01224
6266.92904	1.4044	0.01218
6265.42892	1.4043	0.01212
6263.92881	1.40414	0.01214
6262.4287	1.40409	0.01224
6260.92859	1.40413	0.01234
6259.42848	1.40422	0.01236
6257.92836	1.40427	0.01231
6256.42825	1.40417	0.0123
6254.92814	1.40419	0.01237
6253.42803	1.40429	0.01237
6251.92792	1.40434	0.01229
6250.42781	1.40425	0.01224
6248.92769	1.40424	0.01225
6247.42758	1.40424	0.01223
6245.92747	1.4042	0.01222
6244.42736	1.40415	0.01223
6242.92725	1.40415	0.01226
6241.42713	1.40418	0.01226
6239.92702	1.40418	0.01224
6238.42691	1.40414	0.01224
6236.9268	1.40414	0.01225
6235.42669	1.40415	0.01223
6233.92658	1.40411	0.01222
6232.42646	1.40406	0.01224
6230.92635	1.40406	0.01228
6229.42624	1.40407	0.01231
6227.92613	1.40409	0.01234
6226.42602	1.40416	0.01234
6224.9259	1.4042	0.01231
6223.42579	1.40421	0.01228
6221.92568	1.40423	0.01225
6220.42557	1.40425	0.0122
6218.92546	1.40425	0.01213
6217.42535	1.40414	0.01207
6215.92523	1.40401	0.01215
6214.42512	1.40412	0.01223
6212.92501	1.40424	0.01218
6211.4249	1.40426	0.01208
6209.92479	1.40423	0.01201
6208.42467	1.40426	0.01192
6206.92456	1.40416	0.0118
6205.42445	1.404	0.01175
6203.92434	1.40386	0.01177
6202.42423	1.40377	0.0118
6200.92412	1.40367	0.01185
6199.424	1.40358	0.01194
6197.92389	1.40355	0.01206
6196.42378	1.40362	0.01214
6194.92367	1.40366	0.01215
6193.42356	1.40364	0.01217
6191.92344	1.40362	0.01224
6190.42333	1.40375	0.01228
6188.92322	1.40376	0.01223
6187.42311	1.40373	0.01224
6185.923	1.40375	0.01227
6184.42289	1.40376	0.0123
6182.92277	1.40386	0.01234
6181.42266	1.40402	0.0123
6179.92255	1.40413	0.01213
6178.42244	1.40407	0.01191
6176.92233	1.40379	0.0118
6175.42221	1.40353	0.01189
6173.9221	1.40346	0.01207
6172.42199	1.40351	0.01222
6170.92188	1.40369	0.01229
6169.42177	1.40382	0.01222
6167.92166	1.40382	0.01212
6166.42154	1.40374	0.01205
6164.92143	1.40362	0.01207
6163.42132	1.40359	0.01217
6161.92121	1.40368	0.01223
6160.4211	1.40376	0.01222
6158.92098	1.40379	0.01219
6157.42087	1.40384	0.01217
6155.92076	1.40391	0.01212
6154.42065	1.40394	0.01202
6152.92054	1.40392	0.01192
6151.42043	1.40386	0.01182
6149.92031	1.40376	0.01176
6148.4202	1.40367	0.01173
6146.92009	1.40358	0.01172
6145.41998	1.40345	0.01172
6143.91987	1.40332	0.01181
6142.41975	1.40332	0.01192
6140.91964	1.40335	0.01197
6139.41953	1.40336	0.01201
6137.91942	1.40339	0.01205
6136.41931	1.40347	0.01205
6134.9192	1.40347	0.012
6133.41908	1.40345	0.01201
6131.91897	1.40347	0.01199
6130.41886	1.40343	0.01197
6128.91875	1.40339	0.01199
6127.41864	1.40339	0.01204
6125.91853	1.40348	0.01206
6124.41841	1.40357	0.012
6122.9183	1.40358	0.01189
6121.41819	1.40349	0.01179
6119.91808	1.40333	0.01175
6118.41797	1.40317	0.01182
6116.91785	1.40314	0.01195
6115.41774	1.40319	0.01204
6113.91763	1.40329	0.01209
6112.41752	1.40342	0.01207
6110.91741	1.40349	0.01196
6109.4173	1.40343	0.01184
6107.91718	1.40328	0.01182
6106.41707	1.40324	0.01187
6104.91696	1.40326	0.01188
6103.41685	1.40324	0.01185
6101.91674	1.40316	0.01187
6100.41662	1.40317	0.01192
6098.91651	1.40321	0.01191
6097.4164	1.40318	0.01188
6095.91629	1.40311	0.01192
6094.41618	1.40319	0.01194
6092.91607	1.40321	0.01188
6091.41595	1.40308	0.01182
6089.91584	1.40289	0.01192
6088.41573	1.40294	0.0121
6086.91562	1.40313	0.01218
6085.41551	1.40329	0.01213
6083.91539	1.40335	0.01203
6082.41528	1.40332	0.01193
6080.91517	1.40328	0.01188
6079.41506	1.40328	0.01185
6077.91495	1.4033	0.01177
6076.41484	1.40323	0.01167
6074.91472	1.40305	0.01161
6073.41461	1.40285	0.01166
6071.9145	1.40273	0.01181
6070.41439	1.40273	0.01198
6068.91428	1.40284	0.01212
6067.41416	1.40299	0.01217
6065.91405	1.40313	0.01216
6064.41394	1.40322	0.0121
6062.91383	1.40331	0.01203
6061.41372	1.40335	0.01191
6059.91361	1.40331	0.01181
6058.41349	1.40327	0.01174
6056.91338	1.40325	0.01167
6055.41327	1.40319	0.01156
6053.91316	1.40304	0.01149
6052.41305	1.40282	0.01153
6050.91293	1.40272	0.01166
6049.41282	1.40275	0.01178
6047.91271	1.40283	0.01183
6046.4126	1.40286	0.01183
6044.91249	1.40289	0.01183
6043.41238	1.40293	0.01182
6041.91226	1.40295	0.01176
6040.41215	1.40287	0.01172
6038.91204	1.40275	0.01177
6037.41193	1.40279	0.0119
6035.91182	1.403	0.0119
6034.4117	1.4031	0.01177
6032.91159	1.40303	0.0116
6031.41148	1.40284	0.01153
6029.91137	1.40267	0.01161
6028.41126	1.40268	0.01172
6026.91115	1.40272	0.01176
6025.41103	1.40274	0.01179
6023.91092	1.40278	0.01183
6022.41081	1.40293	0.0118
6020.9107	1.40298	0.01165
6019.41059	1.40283	0.01152
6017.91047	1.4026	0.01158
6016.41036	1.4026	0.01171
6014.91025	1.40268	0.01178
6013.41014	1.40277	0.01179
6011.91003	1.40285	0.01173
6010.40992	1.40284	0.01165
6008.9098	1.40276	0.01162
6007.40969	1.40272	0.01164
6005.90958	1.40275	0.01165
6004.40947	1.40273	0.01164
6002.90936	1.40274	0.01165
6001.40924	1.40281	0.01165
5999.90913	1.40288	0.01156
5998.40902	1.40281	0.01145
5996.90891	1.40267	0.01142
5995.4088	1.40258	0.01149
5993.90869	1.40263	0.01155
5992.40857	1.40272	0.01154
5990.90846	1.40273	0.01148
5989.40835	1.40273	0.01144
5987.90824	1.40275	0.01136
5986.40813	1.40268	0.01127
5984.90801	1.40256	0.01122
5983.4079	1.40243	0.01125
5981.90779	1.40237	0.01134
5980.40768	1.40245	0.01139
5978.90757	1.40251	0.01135
5977.40746	1.4025	0.01127
5975.90734	1.40241	0.0112
5974.40723	1.40228	0.0112
5972.90712	1.40218	0.01125
5971.40701	1.40211	0.01134
5969.9069	1.40211	0.01146
5968.40678	1.40225	0.01152
5966.90667	1.40232	0.01149
5965.40656	1.40235	0.01146
5963.90645	1.40238	0.0114
5962.40634	1.40236	0.01134
5960.90623	1.4023	0.01129
5959.40611	1.40221	0.01128
5957.906	1.40216	0.01135
5956.40589	1.40224	0.01138
5954.90578	1.40227	0.01133
5953.40567	1.40221	0.01129
5951.90555	1.40214	0.01131
5950.40544	1.40218	0.01135
5948.90533	1.40222	0.01133
5947.40522	1.40223	0.01128
5945.90511	1.40221	0.01125
5944.405	1.40219	0.01122
5942.90488	1.40218	0.01118
5941.40477	1.40214	0.01114
5939.90466	1.40205	0.01111
5938.40455	1.40197	0.01114
5936.90444	1.40195	0.01118
5935.40433	1.40193	0.01121
5933.90421	1.40193	0.01126
5932.4041	1.40203	0.01126
5930.90399	1.40204	0.01121
5929.40388	1.40205	0.01117
5927.90377	1.40209	0.01109
5926.40365	1.40204	0.01096
5924.90354	1.40184	0.01087
5923.40343	1.40162	0.01094
5921.90332	1.40153	0.0111
5920.40321	1.40161	0.01122
5918.9031	1.40168	0.01124
5917.40298	1.40173	0.01124
5915.90287	1.40176	0.0112
5914.40276	1.40168	0.0112
5912.90265	1.40167	0.01125
5911.40254	1.40173	0.01129
5909.90242	1.40182	0.01128
5908.40231	1.40192	0.0112
5906.9022	1.40194	0.01106
5905.40209	1.40184	0.01092
5903.90198	1.40164	0.01087
5902.40187	1.40149	0.01095
5900.90175	1.40153	0.01104
5899.40164	1.40156	0.01102
5897.90153	1.40148	0.01101
5896.40142	1.40146	0.01104
5894.90131	1.4015	0.01105
5893.40119	1.40148	0.01098
5891.90108	1.40134	0.01098
5890.40097	1.40124	0.01107
5888.90086	1.40129	0.01118
5887.40075	1.4014	0.0112
5885.90064	1.40149	0.01115
5884.40052	1.40149	0.01105
5882.90041	1.40139	0.01099
5881.4003	1.40127	0.011
5879.90019	1.40124	0.01108
5878.40008	1.40134	0.01108
5876.89996	1.40128	0.01101
5875.39985	1.40115	0.01103
5873.89974	1.40111	0.01115
5872.39963	1.40125	0.01123
5870.89952	1.40138	0.01117
5869.39941	1.4014	0.01105
5867.89929	1.40132	0.01096
5866.39918	1.40125	0.0109
5864.89907	1.40112	0.01088
5863.39896	1.40102	0.01094
5861.89885	1.401	0.01101
5860.39873	1.40103	0.01103
5858.89862	1.40103	0.01102
5857.39851	1.40097	0.01101
5855.8984	1.4009	0.01104
5854.39829	1.40088	0.01111
5852.89818	1.40089	0.01117
5851.39806	1.40095	0.01121
5849.89795	1.40104	0.01119
5848.39784	1.40108	0.01112
5846.89773	1.401	0.01104
5845.39762	1.40087	0.01106
5843.8975	1.40082	0.01116
5842.39739	1.4009	0.01125
5840.89728	1.40106	0.01124
5839.39717	1.40112	0.01112
5837.89706	1.40104	0.01103
5836.39695	1.40096	0.01102
5834.89683	1.40094	0.01103
5833.39672	1.40093	0.01102
5831.89661	1.40091	0.01102
5830.3965	1.40089	0.01101
5828.89639	1.40086	0.01103
5827.39627	1.4009	0.01105
5825.89616	1.401	0.011
5824.39605	1.40099	0.01088
5822.89594	1.40089	0.01078
5821.39583	1.40075	0.01075
5819.89572	1.40064	0.01079
5818.3956	1.40062	0.01084
5816.89549	1.40061	0.01086
5815.39538	1.40057	0.01086
5813.89527	1.4005	0.01089
5812.39516	1.40049	0.01095
5810.89504	1.40052	0.01098
5809.39493	1.40057	0.01097
5807.89482	1.40059	0.01089
5806.39471	1.40047	0.01084
5804.8946	1.40033	0.01087
5803.39449	1.40023	0.01099
5801.89437	1.40027	0.01114
5800.39426	1.40047	0.0112
5798.89415	1.40057	0.01111
5797.39404	1.40058	0.01103
5795.89393	1.40056	0.01095
5794.39381	1.40049	0.01087
5792.8937	1.40033	0.01085
5791.39359	1.40019	0.01095
5789.89348	1.40021	0.01111
5788.39337	1.40041	0.01117
5786.89326	1.40051	0.01109
5785.39314	1.40052	0.01102
5783.89303	1.40052	0.01096
5782.39292	1.40057	0.01087
5780.89281	1.4005	0.01075
5779.3927	1.40036	0.01069
5777.89258	1.40025	0.0107
5776.39247	1.40019	0.01074
5774.89236	1.40018	0.01075
5773.39225	1.40017	0.01072
5771.89214	1.40009	0.01068
5770.39203	1.39995	0.01069
5768.89191	1.39985	0.01076
5767.3918	1.3998	0.01085
5765.89169	1.39978	0.01093
5764.39158	1.39977	0.01101
5762.89147	1.39978	0.01112
5761.39135	1.39991	0.01122
5759.89124	1.40013	0.01119
5758.39113	1.40024	0.01105
5756.89102	1.40023	0.01087
5755.39091	1.40006	0.01072
5753.8908	1.39983	0.01072
5752.39068	1.39969	0.01082
5750.89057	1.39963	0.01096
5749.39046	1.39971	0.01109
5747.89035	1.39986	0.01111
5746.39024	1.39993	0.01103
5744.89013	1.39985	0.01095
5743.39001	1.39977	0.01097
5741.8899	1.39976	0.011
5740.38979	1.39974	0.01103
5738.88968	1.39976	0.01108
5737.38957	1.39983	0.0111
5735.88945	1.39991	0.01103
5734.38934	1.39986	0.01095
5732.88923	1.39978	0.01093
5731.38912	1.39974	0.01095
5729.88901	1.39973	0.01098
5728.3889	1.39973	0.011
5726.88878	1.39977	0.01103
5725.38867	1.39987	0.011
5723.88856	1.39995	0.01088
5722.38845	1.39989	0.01072
5720.88834	1.39972	0.01063
5719.38822	1.39954	0.01064
5717.88811	1.39942	0.01071
5716.388	1.39939	0.0108
5714.88789	1.39942	0.01085
5713.38778	1.39944	0.01085
5711.88767	1.39943	0.0108
5710.38755	1.39932	0.01077
5708.88744	1.39918	0.01082
5707.38733	1.39909	0.01093
5705.88722	1.39908	0.01107
5704.38711	1.39917	0.01116
5702.88699	1.39923	0.0112
5701.38688	1.39925	0.01125
5699.88677	1.39933	0.01133
5698.38666	1.39955	0.01132
5696.88655	1.39965	0.01119
5695.38644	1.39964	0.01106
5693.88632	1.39957	0.01097
5692.38621	1.39952	0.01093
5690.8861	1.39944	0.0109
5689.38599	1.39939	0.0109
5687.88588	1.39937	0.01091
5686.38576	1.39934	0.01091
5684.88565	1.39932	0.01091
5683.38554	1.3993	0.01092
5681.88543	1.3993	0.01094
5680.38532	1.39935	0.0109
5678.88521	1.39927	0.01084
5677.38509	1.39918	0.01087
5675.88498	1.39918	0.0109
5674.38487	1.39918	0.01091
5672.88476	1.39923	0.0109
5671.38465	1.3992	0.01082
5669.88453	1.39905	0.0108
5668.38442	1.39891	0.0109
5666.88431	1.39894	0.01105
5665.3842	1.39908	0.01113
5663.88409	1.39924	0.0111
5662.38398	1.39933	0.01099
5660.88386	1.39933	0.01086
5659.38375	1.39923	0.01075
5657.88364	1.39909	0.01072
5656.38353	1.39901	0.01076
5654.88342	1.39902	0.0108
5653.3833	1.39901	0.01078
5651.88319	1.39895	0.01078
5650.38308	1.39894	0.0108
5648.88297	1.39894	0.0108
5647.38286	1.39892	0.01079
5645.88275	1.39891	0.01078
5644.38263	1.39889	0.01075
5642.88252	1.39884	0.01074
5641.38241	1.39881	0.01075
5639.8823	1.3988	0.01073
5638.38219	1.3987	0.01072
5636.88207	1.39867	0.01075
5635.38196	1.39862	0.01076
5633.88185	1.3985	0.01083
5632.38174	1.39849	0.01098
5630.88163	1.39866	0.01108
5629.38152	1.39888	0.01103
5627.8814	1.39897	0.01084
5626.38129	1.39882	0.01067
5624.88118	1.3986	0.01066
5623.38107	1.39853	0.01076
5621.88096	1.3986	0.0108
5620.38084	1.39863	0.01073
5618.88073	1.39849	0.01067
5617.38062	1.39838	0.01073
5615.88051	1.39836	0.01077
5614.3804	1.39825	0.01083
5612.88029	1.3982	0.01096
5611.38017	1.39827	0.01109
5609.88006	1.39841	0.01115
5608.37995	1.39853	0.01113
5606.87984	1.39857	0.01109
5605.37973	1.39862	0.01107
5603.87961	1.39871	0.011
5602.3795	1.39873	0.01091
5600.87939	1.39872	0.01081
5599.37928	1.39868	0.01072
5597.87917	1.39861	0.01064
5596.37906	1.39851	0.01058
5594.87894	1.39839	0.01054
5593.37883	1.39824	0.01055
5591.87872	1.3981	0.01065
5590.37861	1.39812	0.01075
5588.8785	1.3981	0.01081
5587.37838	1.39812	0.01089
5585.87827	1.39821	0.01093
5584.37816	1.39831	0.01088
5582.87805	1.39827	0.01081
5581.37794	1.39819	0.01081
5579.87783	1.39819	0.01085
5578.37771	1.3983	0.01081
5576.8776	1.39819	0.0107
5575.37749	1.39803	0.01073
5573.87738	1.39798	0.01083
5572.37727	1.39805	0.01091
5570.87715	1.39814	0.01091
5569.37704	1.39815	0.01084
5567.87693	1.39808	0.01082
5566.37682	1.39803	0.01087
5564.87671	1.39808	0.01093
5563.3766	1.3982	0.01093
5561.87648	1.3983	0.01083
5560.37637	1.39828	0.01068
5558.87626	1.39812	0.01059
5557.37615	1.39799	0.01061
5555.87604	1.39796	0.01064
5554.37592	1.39793	0.01064
5552.87581	1.39788	0.01063
5551.3757	1.39778	0.01064
5549.87559	1.39767	0.01072
5548.37548	1.39764	0.01085
5546.87537	1.39773	0.01097
5545.37525	1.39787	0.011
5543.87514	1.39798	0.01096
5542.37503	1.39808	0.01085
5540.87492	1.39801	0.01073
5539.37481	1.39788	0.01071
5537.8747	1.39786	0.01075
5536.37458	1.39795	0.01072
5534.87447	1.39786	0.01064
5533.37436	1.39774	0.01067
5531.87425	1.39775	0.01074
5530.37414	1.39785	0.01072
5528.87402	1.39782	0.01064
5527.37391	1.39775	0.0106
5525.8738	1.39767	0.01056
5524.37369	1.39751	0.0106
5522.87358	1.39743	0.01074
5521.37347	1.39751	0.01089
5519.87335	1.3977	0.01092
5518.37324	1.39781	0.01085
5516.87313	1.39784	0.01075
5515.37302	1.3978	0.01067
5513.87291	1.39775	0.01064
5512.37279	1.39779	0.01061
5510.87268	1.3978	0.01051
5509.37257	1.39771	0.01039
5507.87246	1.39751	0.01032
5506.37235	1.39722	0.01041
5504.87224	1.39716	0.01065
5503.37212	1.39735	0.01082
5501.87201	1.39759	0.01078
5500.3719	1.39759	0.01066
5498.87179	1.39757	0.01062
5497.37168	1.39761	0.01056
5495.87156	1.39763	0.01039
5494.37145	1.39736	0.01029
5492.87134	1.3971	0.01039
5491.37123	1.39702	0.0106
5489.87112	1.39713	0.01077
5488.37101	1.39728	0.01084
5486.87089	1.39743	0.01084
5485.37078	1.39757	0.01078
5483.87067	1.39769	0.01065
5482.37056	1.39771	0.01049
5480.87045	1.39769	0.01033
5479.37033	1.39764	0.01015
5477.87022	1.39747	0.00995
5476.37011	1.39709	0.00985
5474.87	1.39665	0.01
5473.36989	1.39647	0.01039
5471.86978	1.39669	0.01074
5470.36966	1.39714	0.01081
5468.86955	1.39742	0.01058
5467.36944	1.39734	0.01028
5465.86933	1.39703	0.01017
5464.36922	1.39686	0.01024
5462.8691	1.39681	0.01031
5461.36899	1.39675	0.01035
5459.86888	1.39665	0.01045
5458.36877	1.39664	0.01061
5456.86866	1.3968	0.01073
5455.36855	1.39699	0.01072
5453.86843	1.3971	0.01061
5452.36832	1.39708	0.0105
5450.86821	1.39706	0.01042
5449.3681	1.39701	0.01034
5447.86799	1.3969	0.0103
5446.36787	1.39678	0.01034
5444.86776	1.39679	0.01041
5443.36765	1.39682	0.01042
5441.86754	1.3968	0.01041
5440.36743	1.39676	0.01047
5438.86732	1.3969	0.01054
5437.3672	1.39712	0.01043
5435.86709	1.39717	0.01017
5434.36698	1.39688	0.00999
5432.86687	1.39669	0.01
5431.36676	1.39656	0.01003
5429.86664	1.39642	0.01011
5428.36653	1.39635	0.01022
5426.86642	1.39628	0.01038
5425.36631	1.39638	0.01059
5423.8662	1.3967	0.01066
5422.36609	1.39701	0.01051
5420.86597	1.39706	0.01024
5419.36586	1.39695	0.01004
5417.86575	1.39686	0.00993
5416.36564	1.39684	0.00975
5414.86553	1.3966	0.00952
5413.36541	1.3961	0.00947
5411.8653	1.39561	0.00978
5410.36519	1.39556	0.01028
5408.86508	1.39597	0.01062
5407.36497	1.39645	0.01058
5405.86486	1.39664	0.01032
5404.36474	1.39653	0.0101
5402.86463	1.39641	0.01001
5401.36452	1.39633	0.00998
5399.86441	1.3963	0.00998
5398.3643	1.39636	0.00988
5396.86418	1.39623	0.00967
5395.36407	1.39578	0.00961
5393.86396	1.39529	0.00996
5392.36385	1.39538	0.01049
5390.86374	1.39593	0.01078
5389.36363	1.39655	0.01063
5387.86351	1.39684	0.01012
5386.3634	1.39651	0.00965
5384.86329	1.39591	0.00954
5383.36318	1.39556	0.00983
5381.86307	1.39568	0.01014
5380.36295	1.39605	0.01018
5378.86284	1.39625	0.00993
5377.36273	1.39605	0.0096
5375.86262	1.39555	0.00955
5374.36251	1.39515	0.00983
5372.8624	1.39518	0.01026
5371.36228	1.39554	0.01051
5369.86217	1.39597	0.01047
5368.36206	1.39616	0.01024
5366.86195	1.39618	0.00998
5365.36184	1.39603	0.00977
5363.86172	1.39579	0.00969
5362.36161	1.39558	0.00976
5360.8615	1.39555	0.00991
5359.36139	1.39574	0.00998
5357.86128	1.396	0.0098
5356.36117	1.39602	0.00939
5354.86105	1.39542	0.00909
5353.36094	1.39471	0.0093
5351.86083	1.39444	0.00987
5350.36072	1.39476	0.01039
5348.86061	1.39541	0.01053
5347.3605	1.39588	0.01019
5345.86038	1.39578	0.00973
5344.36027	1.39522	0.00962
5342.86016	1.39508	0.00988
5341.36005	1.39531	0.01002
5339.85994	1.39556	0.00985
5338.35982	1.39542	0.00958
5336.85971	1.39494	0.00953
5335.3596	1.39467	0.00987
5333.85949	1.39494	0.01023
5332.35938	1.39551	0.01019
5330.85927	1.39569	0.00979
5329.35915	1.39542	0.00944
5327.85904	1.39499	0.00939
5326.35893	1.39474	0.00958
5324.85882	1.39478	0.00982
5323.35871	1.39501	0.0099
5321.85859	1.39523	0.00978
5320.35848	1.39525	0.00954
5318.85837	1.39498	0.00936
5317.35826	1.3947	0.00941
5315.85815	1.39462	0.00956
5314.35804	1.39473	0.00964
5312.85792	1.39483	0.00957
5311.35781	1.3948	0.00943
5309.8577	1.39465	0.00932
5308.35759	1.39441	0.00931
5306.85748	1.39424	0.00941
5305.35736	1.39417	0.00956
5303.85725	1.39424	0.00968
5302.35714	1.39444	0.00964
5300.85703	1.39437	0.00942
5299.35692	1.39386	0.0095
5297.85681	1.39399	0.00975
5296.35669	1.3941	0.00975
5294.85658	1.39407	0.00973
5293.35647	1.39402	0.00974
5291.85636	1.39399	0.00976
5290.35625	1.39393	0.00979
5288.85613	1.39394	0.00984
5287.35602	1.39395	0.00986
5285.85591	1.39388	0.00988
5284.3558	1.3939	0.00996
5282.85569	1.39403	0.00996
5281.35558	1.39407	0.00984
5279.85546	1.3939	0.00977
5278.35535	1.39376	0.00987
5276.85524	1.3939	0.00993
5275.35513	1.39393	0.00981
5273.85502	1.39377	0.00977
5272.3549	1.39376	0.00975
5270.85479	1.39353	0.0097
5269.35468	1.39315	0.00991
5267.85457	1.39321	0.01031
5266.35446	1.39365	0.01049
5264.85435	1.39395	0.01032
5263.35423	1.39388	0.01012
5261.85412	1.39368	0.01011
5260.35401	1.39365	0.01025
5258.8539	1.39384	0.01035
5257.35379	1.3941	0.01027
5255.85367	1.39423	0.01005
5254.35356	1.3942	0.00979
5252.85345	1.394	0.00957
5251.35334	1.39367	0.00951
5249.85323	1.39343	0.00963
5248.35312	1.39347	0.00976
5246.853	1.39351	0.00973
5245.35289	1.39332	0.00974
5243.85278	1.39331	0.00986
5242.35267	1.39346	0.00985
5240.85256	1.39342	0.00973
5239.35244	1.39322	0.00969
5237.85233	1.39304	0.00979
5236.35222	1.39309	0.00994
5234.85211	1.39326	0.00991
5233.352	1.39321	0.00976
5231.85189	1.39291	0.00973
5230.35177	1.39271	0.00992
5228.85166	1.39278	0.01015
5227.35155	1.39299	0.01024
5225.85144	1.39319	0.01016
5224.35133	1.39325	0.00998
5222.85121	1.39314	0.00977
5221.3511	1.39282	0.00966
5219.85099	1.39246	0.00976
5218.35088	1.39227	0.01001
5216.85077	1.39225	0.01027
5215.35066	1.39232	0.0105
5213.85054	1.39249	0.01068
5212.35043	1.39273	0.01074
5210.85032	1.39293	0.01069
5209.35021	1.39303	0.01057
5207.8501	1.39303	0.01044
5206.34998	1.3929	0.01036
5204.84987	1.39279	0.01039
5203.34976	1.3927	0.01049
5201.84965	1.39277	0.01062
5200.34954	1.39298	0.01062
5198.84943	1.39303	0.01047
5197.34931	1.39282	0.01043
5195.8492	1.39281	0.01055
5194.34909	1.39292	0.01056
5192.84898	1.39283	0.01058
5191.34887	1.3929	0.01074
5189.84875	1.39321	0.01074
5188.34864	1.39339	0.01055
5186.84853	1.39337	0.01035
5185.34842	1.39329	0.01022
5183.84831	1.39321	0.01015
5182.3482	1.3932	0.01008
5180.84808	1.39315	0.00997
5179.34797	1.39302	0.0099
5177.84786	1.39295	0.00986
5176.34775	1.39287	0.00978
5174.84764	1.39271	0.00971
5173.34752	1.39248	0.00971
5171.84741	1.39222	0.00984
5170.3473	1.39218	0.01006
5168.84719	1.39228	0.01016
5167.34708	1.39225	0.0102
5165.84697	1.39222	0.01032
5164.34685	1.39237	0.01042
5162.84674	1.39249	0.01037
5161.34663	1.39249	0.0103
5159.84652	1.39248	0.01026
5158.34641	1.39244	0.0102
5156.8463	1.39229	0.01019
5155.34618	1.39217	0.01031
5153.84607	1.39223	0.01044
5152.34596	1.39233	0.01048
5150.84585	1.39238	0.01048
5149.34574	1.39249	0.01043
5147.84562	1.39242	0.01031
5146.34551	1.39217	0.01037
5144.8454	1.39214	0.01065
5143.34529	1.39257	0.01078
5141.84518	1.39292	0.01054
5140.34507	1.39283	0.01023
5138.84495	1.39258	0.01012
5137.34484	1.39245	0.01015
5135.84473	1.39242	0.01018
5134.34462	1.39235	0.0102
5132.84451	1.39233	0.01029
5131.34439	1.39247	0.01033
5129.84428	1.39257	0.01024
5128.34417	1.39253	0.01014
5126.84406	1.39245	0.01011
5125.34395	1.39244	0.01012
5123.84384	1.39251	0.01007
5122.34372	1.39247	0.00996
5120.84361	1.39235	0.0099
5119.3435	1.39224	0.0099
5117.84339	1.39217	0.00993
5116.34328	1.39209	0.00997
5114.84316	1.39204	0.01006
5113.34305	1.39211	0.01019
5111.84294	1.39234	0.01019
5110.34283	1.39251	0.00999
5108.84272	1.39234	0.00977
5107.34261	1.39205	0.00976
5105.84249	1.39195	0.00991
5104.34238	1.39205	0.01002
5102.84227	1.39223	0.00998
5101.34216	1.39223	0.00983
5099.84205	1.39202	0.00978
5098.34193	1.39194	0.00992
5096.84182	1.39216	0.00999
5095.34171	1.39236	0.00983
5093.8416	1.39226	0.00961
5092.34149	1.39208	0.00954
5090.84138	1.39203	0.00952
5089.34126	1.39197	0.00943
5087.84115	1.39171	0.00942
5086.34104	1.39158	0.00958
5084.84093	1.39171	0.00972
5083.34082	1.39193	0.00964
5081.8407	1.39194	0.00944
5080.34059	1.39171	0.00928
5078.84048	1.39142	0.00931
5077.34037	1.39126	0.0095
5075.84026	1.39136	0.00967
5074.34015	1.39155	0.00967
5072.84003	1.39159	0.00957
5071.33992	1.39155	0.0095
5069.83981	1.39155	0.00942
5068.3397	1.39147	0.00928
5066.83959	1.39118	0.00922
5065.33947	1.39087	0.00938
5063.83936	1.39086	0.00969
5062.33925	1.39118	0.00982
5060.83914	1.39143	0.00968
5059.33903	1.39138	0.00945
5057.83892	1.39114	0.00934
5056.3388	1.39086	0.00941
5054.83869	1.39077	0.00962
5053.33858	1.39088	0.00978
5051.83847	1.39102	0.00982
5050.33836	1.39112	0.00979
5048.83824	1.39117	0.00973
5047.33813	1.39116	0.00967
5045.83802	1.39115	0.00963
5044.33791	1.3911	0.0096
5042.8378	1.39108	0.00962
5041.33769	1.39116	0.00961
5039.83757	1.39121	0.00949
5038.33746	1.3911	0.00939
5036.83735	1.39098	0.00936
5035.33724	1.39085	0.00938
5033.83713	1.39079	0.00947
5032.33701	1.39083	0.00952
5030.8369	1.39085	0.00954
5029.33679	1.39089	0.00958
5027.83668	1.39106	0.00954
5026.33657	1.39116	0.00932
5024.83646	1.39091	0.00912
5023.33634	1.39055	0.00919
5021.83623	1.39053	0.0094
5020.33612	1.39069	0.00948
5018.83601	1.39074	0.00945
5017.3359	1.39074	0.00946
5015.83578	1.39083	0.00946
5014.33567	1.39099	0.00937
5012.83556	1.39104	0.00915
5011.33545	1.39084	0.00894
5009.83534	1.39053	0.00894
5008.33523	1.39042	0.00909
5006.83511	1.3905	0.00919
5005.335	1.39064	0.00919
5003.83489	1.39074	0.00904
5002.33478	1.39063	0.00887
5000.83467	1.39044	0.00883
4999.33455	1.39038	0.00885
4997.83444	1.39037	0.00882
4996.33433	1.39028	0.00875
4994.83422	1.39015	0.00873
4993.33411	1.39	0.00874
4991.834	1.38983	0.00885
4990.33388	1.38985	0.00902
4988.83377	1.39006	0.00906
4987.33366	1.39015	0.00891
4985.83355	1.39001	0.0088
4984.33344	1.38989	0.00877
4982.83332	1.38975	0.00878
4981.33321	1.38962	0.00886
4979.8331	1.38959	0.00898
4978.33299	1.38965	0.00907
4976.83288	1.38976	0.00911
4975.33277	1.38992	0.00904
4973.83265	1.38992	0.00887
4972.33254	1.38972	0.00877
4970.83243	1.3896	0.00883
4969.33232	1.38966	0.00887
4967.83221	1.38967	0.00877
4966.3321	1.38951	0.00871
4964.83198	1.38937	0.00875
4963.33187	1.3893	0.00883
4961.83176	1.38928	0.00891
4960.33165	1.38935	0.00894
4958.83154	1.38932	0.00891
4957.33142	1.38918	0.009
4955.83131	1.38929	0.00916
4954.3312	1.38958	0.00915
4952.83109	1.38975	0.00894
4951.33098	1.38969	0.00868
4949.83087	1.38945	0.00851
4948.33075	1.38917	0.00851
4946.83064	1.389	0.00861
4945.33053	1.38892	0.00876
4943.83042	1.38895	0.00892
4942.33031	1.38912	0.009
4940.83019	1.38929	0.00897
4939.33008	1.38944	0.00884
4937.82997	1.38947	0.00861
4936.32986	1.38923	0.00844
4934.82975	1.38897	0.00851
4933.32964	1.38904	0.00862
4931.82952	1.38922	0.00854
4930.32941	1.38916	0.00833
4928.8293	1.38888	0.00824
4927.32919	1.38863	0.00835
4925.82908	1.38867	0.00854
4924.32896	1.38895	0.00853
4922.82885	1.38903	0.00828
4921.32874	1.38877	0.00805
4919.82863	1.38843	0.00804
4918.32852	1.3882	0.00818
4916.82841	1.38812	0.00837
4915.32829	1.38819	0.00852
4913.82818	1.38832	0.00856
4912.32807	1.38842	0.00849
4910.82796	1.38835	0.00839
4909.32785	1.38818	0.00839
4907.82773	1.3881	0.00851
4906.32762	1.38822	0.00859
4904.82751	1.38834	0.00855
4903.3274	1.38838	0.00845
4901.82729	1.38837	0.00834
4900.32718	1.38833	0.00821
4898.82706	1.38816	0.00809
4897.32695	1.38791	0.00808
4895.82684	1.38771	0.00821
4894.32673	1.38768	0.00839
4892.82662	1.38779	0.00852
4891.3265	1.38796	0.00854
4889.82639	1.38813	0.00841
4888.32628	1.38808	0.0082
4886.82617	1.38786	0.00811
4885.32606	1.38774	0.00814
4883.82595	1.38771	0.00814
4882.32583	1.38757	0.00815
4880.82572	1.38751	0.00827
4879.32561	1.38764	0.0083
4877.8255	1.38769	0.00821
4876.32539	1.38762	0.00813
4874.82527	1.38759	0.00807
4873.32516	1.38748	0.00797
4871.82505	1.38725	0.00796
4870.32494	1.38708	0.00809
4868.82483	1.38709	0.00825
4867.32472	1.38722	0.0083
4865.8246	1.38729	0.00826
4864.32449	1.38729	0.00819
4862.82438	1.38725	0.00812
4861.32427	1.38711	0.00808
4859.82416	1.38694	0.00819
4858.32404	1.38705	0.00835
4856.82393	1.38738	0.0083
4855.32382	1.38749	0.008
4853.82371	1.38723	0.00773
4852.3236	1.38685	0.00772
4850.82349	1.38669	0.0079
4849.32337	1.38682	0.00799
4847.82326	1.38694	0.00787
4846.32315	1.38674	0.00767
4844.82304	1.38633	0.0077
4843.32293	1.3861	0.008
4841.82281	1.38627	0.00828
4840.3227	1.38659	0.00831
4838.82259	1.3867	0.00816
4837.32248	1.38665	0.00803
4835.82237	1.38657	0.00797
4834.32226	1.38653	0.00792
4832.82214	1.38648	0.00786
4831.32203	1.38635	0.0078
4829.82192	1.38617	0.00781
4828.32181	1.38606	0.0079
4826.8217	1.38607	0.008
4825.32158	1.38611	0.00805
4823.82147	1.38617	0.00805
4822.32136	1.38622	0.008
4820.82125	1.3862	0.00792
4819.32114	1.38617	0.00784
4817.82103	1.38613	0.00773
4816.32091	1.3859	0.00764
4814.8208	1.38564	0.00773
4813.32069	1.3856	0.00791
4811.82058	1.38569	0.00802
4810.32047	1.38581	0.00805
4808.82035	1.38597	0.00795
4807.32024	1.38598	0.00774
4805.82013	1.38573	0.00759
4804.32002	1.38548	0.00763
4802.81991	1.3854	0.00774
4801.3198	1.38544	0.00781
4799.81968	1.38549	0.00778
4798.31957	1.38543	0.00771
4796.81946	1.38528	0.0077
4795.31935	1.38519	0.00776
4793.81924	1.38518	0.00782
4792.31912	1.38518	0.00785
4790.81901	1.38524	0.00786
4789.3189	1.3853	0.00779
4787.81879	1.38529	0.00766
4786.31868	1.38518	0.00754
4784.81857	1.38501	0.00746
4783.31845	1.38481	0.00745
4781.81834	1.38466	0.00748
4780.31823	1.38448	0.00752
4778.81812	1.38422	0.00768
4777.31801	1.38417	0.00797
4775.81789	1.3844	0.00816
4774.31778	1.38463	0.00814
4772.81767	1.38473	0.00798
4771.31756	1.38462	0.0078
4769.81745	1.38431	0.00775
4768.31734	1.38404	0.00793
4766.81722	1.38401	0.0082
4765.31711	1.38417	0.0084
4763.817	1.38438	0.00847
4762.31689	1.38458	0.00843
4760.81678	1.38471	0.00832
4759.31667	1.38476	0.00817
4757.81655	1.38471	0.00801
4756.31644	1.38459	0.0079
4754.81633	1.38442	0.00786
4753.31622	1.38423	0.00793
4751.81611	1.38422	0.00807
4750.31599	1.38434	0.00812
4748.81588	1.38441	0.00808
4747.31577	1.38441	0.00801
4745.81566	1.38432	0.00798
4744.31555	1.3843	0.00805
4742.81544	1.38447	0.00805
4741.31532	1.38461	0.0079
4739.81521	1.38457	0.00768
4738.3151	1.3844	0.00752
4736.81499	1.38415	0.00746
4735.31488	1.38395	0.00755
4733.81476	1.38394	0.00767
4732.31465	1.384	0.0077
4730.81454	1.38402	0.00768
4729.31443	1.38406	0.00765
4727.81432	1.38409	0.00754
4726.31421	1.384	0.00743
4724.81409	1.38388	0.00737
4723.31398	1.38377	0.00734
4721.81387	1.38362	0.00735
4720.31376	1.38355	0.00742
4718.81365	1.38361	0.00746
4717.31353	1.38364	0.0074
4715.81342	1.3836	0.00731
4714.31331	1.38347	0.00722
4712.8132	1.38328	0.00723
4711.31309	1.38317	0.00734
4709.81298	1.38329	0.00739
4708.31286	1.38335	0.00727
4706.81275	1.38318	0.00714
4705.31264	1.38292	0.00717
4703.81253	1.3828	0.00729
4702.31242	1.38275	0.00743
4700.8123	1.38281	0.00757
4699.31219	1.38298	0.00759
4697.81208	1.38303	0.00751
4696.31197	1.38302	0.00746
4694.81186	1.38307	0.0074
4693.31175	1.38305	0.00728
4691.81163	1.38287	0.00721
4690.31152	1.38279	0.00728
4688.81141	1.38287	0.0073
4687.3113	1.38291	0.0072
4685.81119	1.38285	0.00712
4684.31107	1.38285	0.00705
4682.81096	1.38281	0.0069
4681.31085	1.38259	0.00678
4679.81074	1.38238	0.0068
4678.31063	1.38233	0.00684
4676.81052	1.38224	0.00681
4675.3104	1.38205	0.00684
4673.81029	1.382	0.00695
4672.31018	1.38205	0.00696
4670.81007	1.38196	0.00692
4669.30996	1.3818	0.00699
4667.80984	1.38182	0.00712
4666.30973	1.38194	0.00715
4664.80962	1.38203	0.00707
4663.30951	1.38202	0.00694
4661.8094	1.38187	0.00685
4660.30929	1.38172	0.0069
4658.80917	1.38176	0.00696
4657.30906	1.38188	0.00689
4655.80895	1.38186	0.00672
4654.30884	1.38167	0.00659
4652.80873	1.38147	0.00658
4651.30861	1.38136	0.00663
4649.8085	1.38132	0.00665
4648.30839	1.38127	0.00663
4646.80828	1.38115	0.00661
4645.30817	1.38103	0.00668
4643.80806	1.38106	0.00673
4642.30794	1.38106	0.00672
4640.80783	1.381	0.00672
4639.30772	1.38109	0.00671
4637.80761	1.38117	0.00653
4636.3075	1.38099	0.00632
4634.80738	1.38066	0.00625
4633.30727	1.38039	0.00635
4631.80716	1.38025	0.00652
4630.30705	1.38028	0.00668
4628.80694	1.38039	0.00671
4627.30683	1.38042	0.00666
4625.80671	1.3804	0.00659
4624.3066	1.38033	0.00651
4622.80649	1.38022	0.00643
4621.30638	1.38001	0.00639
4619.80627	1.37977	0.00647
4618.30615	1.37967	0.00662
4616.80604	1.37963	0.00676
4615.30593	1.37965	0.00691
4613.80582	1.37982	0.007
4612.30571	1.38003	0.0069
4610.8056	1.37996	0.00672
4609.30548	1.37976	0.00669
4607.80537	1.37975	0.00677
4606.30526	1.37988	0.00673
4604.80515	1.3799	0.00656
4603.30504	1.37973	0.0064
4601.80492	1.3795	0.00635
4600.30481	1.37932	0.00638
4598.8047	1.37921	0.00645
4597.30459	1.37915	0.00651
4595.80448	1.37911	0.00654
4594.30437	1.37908	0.00655
4592.80425	1.379	0.00656
4591.30414	1.37892	0.00661
4589.80403	1.37896	0.00666
4588.30392	1.37902	0.00659
4586.80381	1.37891	0.00648
4585.30369	1.37873	0.00647
4583.80358	1.37862	0.00654
4582.30347	1.3786	0.00657
4580.80336	1.37854	0.00658
4579.30325	1.37845	0.00663
4577.80314	1.37846	0.00668
4576.30302	1.37854	0.00665
4574.80291	1.3785	0.00654
4573.3028	1.3783	0.00647
4571.80269	1.3781	0.00654
4570.30258	1.37803	0.00668
4568.80247	1.37804	0.00678
4567.30235	1.37811	0.00686
4565.80224	1.37826	0.00686
4564.30213	1.37841	0.00673
4562.80202	1.37841	0.00648
4561.30191	1.37818	0.00627
4559.80179	1.37786	0.00622
4558.30168	1.3776	0.00629
4556.80157	1.37743	0.00642
4555.30146	1.37733	0.00659
4553.80135	1.37738	0.00676
4552.30124	1.37752	0.0068
4550.80112	1.37762	0.00674
4549.30101	1.37761	0.00662
4547.8009	1.3775	0.0065
4546.30079	1.37727	0.00647
4544.80068	1.37711	0.00658
4543.30056	1.37714	0.00666
4541.80045	1.37714	0.00663
4540.30034	1.37701	0.00663
4538.80023	1.37694	0.00671
4537.30012	1.37696	0.00674
4535.80001	1.37689	0.00673
4534.29989	1.37681	0.0068
4532.79978	1.37684	0.00688
4531.29967	1.37693	0.00687
4529.79956	1.37696	0.00679
4528.29945	1.37684	0.00674
4526.79933	1.37678	0.00678
4525.29922	1.37693	0.00675
4523.79911	1.37692	0.00655
4522.299	1.37662	0.00643
4520.79889	1.37636	0.00655
4519.29878	1.3764	0.00669
4517.79866	1.37646	0.00668
4516.29855	1.37636	0.00664
4514.79844	1.37627	0.0067
4513.29833	1.37631	0.00675
4511.79822	1.3764	0.00671
4510.2981	1.3764	0.0066
4508.79799	1.37629	0.00648
4507.29788	1.37607	0.00643
4505.79777	1.37585	0.00655
4504.29766	1.3759	0.00671
4502.79755	1.37609	0.00669
4501.29743	1.37605	0.00653
4499.79732	1.37583	0.00649
4498.29721	1.37575	0.00659
4496.7971	1.37584	0.00661
4495.29699	1.37586	0.0065
4493.79687	1.3757	0.00642
4492.29676	1.37555	0.00648
4490.79665	1.37557	0.00655
4489.29654	1.37567	0.00651
4487.79643	1.37568	0.00638
4486.29632	1.37557	0.00624
4484.7962	1.37538	0.00615
4483.29609	1.37514	0.00616
4481.79598	1.37497	0.00628
4480.29587	1.37494	0.00641
4478.79576	1.37503	0.00649
4477.29564	1.37518	0.00643
4475.79553	1.37515	0.00627
4474.29542	1.37498	0.00618
4472.79531	1.37488	0.00616
4471.2952	1.3748	0.00612
4469.79509	1.3747	0.00607
4468.29497	1.37459	0.00602
4466.79486	1.37438	0.00599
4465.29475	1.37413	0.0061
4463.79464	1.37413	0.00626
4462.29453	1.37423	0.00626
4460.79441	1.37411	0.00619
4459.2943	1.37393	0.00625
4457.79419	1.3739	0.00635
4456.29408	1.37389	0.00643
4454.79397	1.37393	0.00651
4453.29386	1.37415	0.00648
4451.79374	1.37425	0.00622
4450.29363	1.37397	0.006
4448.79352	1.37363	0.00602
4447.29341	1.37355	0.00614
4445.7933	1.37353	0.00617
4444.29318	1.37347	0.00617
4442.79307	1.37338	0.00616
4441.29296	1.37325	0.00619
4439.79285	1.37318	0.00627
4438.29274	1.37321	0.00632
4436.79263	1.37321	0.00629
4435.29251	1.37315	0.00627
4433.7924	1.37311	0.00627
4432.29229	1.37309	0.00624
4430.79218	1.37303	0.00617
4429.29207	1.37291	0.00613
4427.79195	1.37274	0.00613
4426.29184	1.3726	0.00623
4424.79173	1.37263	0.00633
4423.29162	1.37271	0.00633
4421.79151	1.37271	0.00625
4420.2914	1.37264	0.00617
4418.79128	1.37253	0.00611
4417.29117	1.37234	0.0061
4415.79106	1.37223	0.00619
4414.29095	1.37226	0.00625
4412.79084	1.37225	0.00622
4411.29072	1.37218	0.0062
4409.79061	1.37213	0.0062
4408.2905	1.37206	0.0062
4406.79039	1.37202	0.00625
4405.29028	1.37212	0.00625
4403.79017	1.3722	0.00608
4402.29005	1.37203	0.00588
4400.78994	1.37173	0.00586
4399.28983	1.37165	0.00594
4397.78972	1.37169	0.00588
4396.28961	1.3715	0.00575
4394.78949	1.37114	0.0058
4393.28938	1.37103	0.006
4391.78927	1.37112	0.00609
4390.28916	1.37106	0.00606
4388.78905	1.37091	0.00614
4387.28894	1.37099	0.00628
4385.78882	1.3712	0.00622
4384.28871	1.37121	0.00599
4382.7886	1.37092	0.00584
4381.28849	1.37063	0.00591
4379.78838	1.37057	0.00606
4378.28827	1.37069	0.0061
4376.78815	1.37069	0.00599
4375.28804	1.37052	0.00589
4373.78793	1.37028	0.00591
4372.28782	1.37011	0.00605
4370.78771	1.37012	0.00623
4369.28759	1.37031	0.00629
4367.78748	1.37047	0.00617
4366.28737	1.3704	0.00597
4364.78726	1.3702	0.00587
4363.28715	1.37005	0.00586
4361.78704	1.36994	0.00588
4360.28692	1.36986	0.00592
4358.78681	1.36989	0.00591
4357.2867	1.36988	0.00579
4355.78659	1.36967	0.00568
4354.28648	1.36943	0.00571
4352.78636	1.36939	0.00577
4351.28625	1.36934	0.00572
4349.78614	1.3691	0.00569
4348.28603	1.36887	0.00581
4346.78592	1.36881	0.00598
4345.28581	1.36887	0.00609
4343.78569	1.36893	0.00611
4342.28558	1.36896	0.00608
4340.78547	1.36892	0.00602
4339.28536	1.36885	0.00598
4337.78525	1.36881	0.00595
4336.28513	1.36875	0.00589
4334.78502	1.36862	0.00586
4333.28491	1.36853	0.00585
4331.7848	1.36844	0.00585
4330.28469	1.36836	0.00587
4328.78458	1.36834	0.00587
4327.28446	1.36831	0.00579
4325.78435	1.36813	0.00571
4324.28424	1.3679	0.00576
4322.78413	1.36786	0.00589
4321.28402	1.36794	0.00589
4319.7839	1.3679	0.00579
4318.28379	1.36776	0.00574
4316.78368	1.36769	0.00571
4315.28357	1.36752	0.00564
4313.78346	1.36723	0.00568
4312.28335	1.36711	0.00586
4310.78323	1.36717	0.00595
4309.28312	1.36714	0.00596
4307.78301	1.36711	0.00599
4306.2829	1.36713	0.00597
4304.78279	1.36706	0.00591
4303.28267	1.36691	0.00591
4301.78256	1.36686	0.00595
4300.28245	1.36682	0.00597
4298.78234	1.36679	0.00599
4297.28223	1.36686	0.00596
4295.78212	1.36687	0.00578
4294.282	1.3666	0.00564
4292.78189	1.36625	0.00571
4291.28178	1.36613	0.00591
4289.78167	1.36621	0.00605
4288.28156	1.36632	0.00604
4286.78144	1.36632	0.00598
4285.28133	1.36627	0.00593
4283.78122	1.36628	0.00587
4282.28111	1.36624	0.00575
4280.781	1.3661	0.00563
4279.28089	1.36593	0.00556
4277.78077	1.36575	0.00552
4276.28066	1.36549	0.00554
4274.78055	1.36528	0.0057
4273.28044	1.36531	0.0059
4271.78033	1.36551	0.00592
4270.28021	1.3656	0.00576
4268.7801	1.3654	0.00558
4267.27999	1.36515	0.00558
4265.77988	1.36503	0.00566
4264.27977	1.36504	0.00572
4262.77966	1.36509	0.00567
4261.27954	1.36507	0.00554
4259.77943	1.36489	0.00541
4258.27932	1.36468	0.00537
4256.77921	1.3645	0.00538
4255.2791	1.36435	0.00543
4253.77898	1.36426	0.00547
4252.27887	1.3642	0.00547
4250.77876	1.36405	0.00545
4249.27865	1.36387	0.00552
4247.77854	1.36382	0.00562
4246.27843	1.36384	0.00564
4244.77831	1.36378	0.00561
4243.2782	1.36368	0.00561
4241.77809	1.36363	0.00563
4240.27798	1.36364	0.0056
4238.77787	1.3636	0.0055
4237.27775	1.36344	0.00541
4235.77764	1.36324	0.00538
4234.27753	1.36306	0.00542
4232.77742	1.36294	0.00548
4231.27731	1.36288	0.00554
4229.7772	1.36285	0.00554
4228.27708	1.36278	0.00551
4226.77697	1.36267	0.00548
4225.27686	1.36253	0.00545
4223.77675	1.36235	0.00547
4222.27664	1.36218	0.00556
4220.77652	1.36215	0.00569
4219.27641	1.36223	0.00572
4217.7763	1.36224	0.00562
4216.27619	1.36209	0.0055
4214.77608	1.36181	0.00551
4213.27597	1.36162	0.00568
4211.77585	1.36174	0.00585
4210.27574	1.36194	0.00577
4208.77563	1.36188	0.00555
4207.27552	1.36162	0.00546
4205.77541	1.36145	0.00548
4204.27529	1.36138	0.00548
4202.77518	1.36129	0.00544
4201.27507	1.36114	0.00539
4199.77496	1.36097	0.00536
4198.27485	1.36075	0.00535
4196.77474	1.36048	0.00543
4195.27462	1.36028	0.00561
4193.77451	1.36024	0.00581
4192.2744	1.36029	0.00595
4190.77429	1.36037	0.00602
4189.27418	1.36048	0.00602
4187.77407	1.36053	0.00592
4186.27395	1.36046	0.00581
4184.77384	1.36037	0.00574
4183.27373	1.36031	0.00566
4181.77362	1.3602	0.00555
4180.27351	1.35992	0.00549
4178.77339	1.35965	0.00559
4177.27328	1.35962	0.00577
4175.77317	1.35974	0.00582
4174.27306	1.35978	0.00574
4172.77295	1.35973	0.00564
4171.27284	1.35965	0.00555
4169.77272	1.35954	0.00544
4168.27261	1.35936	0.00535
4166.7725	1.35916	0.00534
4165.27239	1.35903	0.00534
4163.77228	1.3589	0.00531
4162.27216	1.35872	0.0053
4160.77205	1.35856	0.00533
4159.27194	1.35839	0.00537
4157.77183	1.35822	0.00546
4156.27172	1.3582	0.00558
4154.77161	1.35826	0.00559
4153.27149	1.35817	0.00553
4151.77138	1.35807	0.00553
4150.27127	1.35803	0.00552
4148.77116	1.35797	0.00548
4147.27105	1.35789	0.00542
4145.77093	1.3578	0.00535
4144.27082	1.35764	0.00528
4142.77071	1.35747	0.00525
4141.2706	1.35729	0.00524
4139.77049	1.35714	0.00527
4138.27038	1.35705	0.00528
4136.77026	1.35691	0.00526
4135.27015	1.35671	0.00529
4133.77004	1.35663	0.00538
4132.26993	1.35665	0.00536
4130.76982	1.35652	0.00527
4129.2697	1.35629	0.00528
4127.76959	1.3562	0.00536
4126.26948	1.35622	0.00533
4124.76937	1.35612	0.0052
4123.26926	1.35585	0.00514
4121.76915	1.35561	0.00518
4120.26903	1.35549	0.00524
4118.76892	1.35535	0.00526
4117.26881	1.35517	0.00529
4115.7687	1.35502	0.00538
4114.26859	1.35491	0.00547
4112.76847	1.35486	0.00555
4111.26836	1.35488	0.00557
4109.76825	1.35486	0.00548
4108.26814	1.35468	0.00537
4106.76803	1.35437	0.00538
4105.26792	1.35416	0.00554
4103.7678	1.35417	0.00569
4102.26769	1.35425	0.0057
4100.76758	1.35427	0.0056
4099.26747	1.35417	0.00543
4097.76736	1.35388	0.0053
4096.26724	1.35354	0.00531
4094.76713	1.35329	0.00543
4093.26702	1.35311	0.00556
4091.76691	1.35298	0.0057
4090.2668	1.35293	0.00583
4088.76669	1.3529	0.00591
4087.26657	1.35285	0.00596
4085.76646	1.3528	0.00599
4084.26635	1.35274	0.00602
4082.76624	1.35271	0.00603
4081.26613	1.35263	0.00602
4079.76601	1.35252	0.00606
4078.2659	1.35252	0.00611
4076.76579	1.35263	0.00604
4075.26568	1.35259	0.00581
4073.76557	1.35226	0.00561
4072.26546	1.35181	0.00566
4070.76534	1.35157	0.00587
4069.26523	1.35154	0.00606
4067.76512	1.35158	0.00616
4066.26501	1.35164	0.00616
4064.7649	1.3516	0.00608
4063.26478	1.35145	0.00604
4061.76467	1.35134	0.00606
4060.26456	1.35133	0.00605
4058.76445	1.35127	0.00596
4057.26434	1.35109	0.00588
4055.76423	1.35087	0.00589
4054.26411	1.35077	0.00595
4052.764	1.35075	0.00595
4051.26389	1.35066	0.00589
4049.76378	1.35051	0.00583
4048.26367	1.35037	0.0058
4046.76355	1.35022	0.00576
4045.26344	1.35	0.00576
4043.76333	1.34986	0.00581
4042.26322	1.34982	0.0058
4040.76311	1.34967	0.00573
4039.263	1.34941	0.00575
4037.76288	1.3493	0.00583
4036.26277	1.34928	0.00583
4034.76266	1.34915	0.00575
4033.26255	1.34895	0.00572
4031.76244	1.34879	0.00572
4030.26232	1.34862	0.00569
4028.76221	1.34838	0.00568
4027.2621	1.34814	0.00574
4025.76199	1.34793	0.00584
4024.26188	1.34776	0.00597
4022.76177	1.3477	0.0061
4021.26165	1.34769	0.00616
4019.76154	1.34764	0.00616
4018.26143	1.34755	0.00615
4016.76132	1.34743	0.00614
4015.26121	1.34732	0.00614
4013.76109	1.34721	0.00614
4012.26098	1.34708	0.00613
4010.76087	1.34696	0.00612
4009.26076	1.34685	0.00609
4007.76065	1.34664	0.00605
4006.26054	1.34638	0.00611
4004.76042	1.34624	0.00624
4003.26031	1.34623	0.00632
4001.7602	1.34621	0.00629
4000.26009	1.34608	0.00623
3998.75998	1.34589	0.00622
3997.25986	1.34574	0.00624
3995.75975	1.34561	0.00625
3994.25964	1.34547	0.00628
3992.75953	1.34538	0.00627
3991.25942	1.34522	0.00623
3989.75931	1.34496	0.00625
3988.25919	1.34481	0.00636
3986.75908	1.34478	0.0064
3985.25897	1.34465	0.00636
3983.75886	1.34441	0.0064
3982.25875	1.34431	0.00652
3980.75864	1.34432	0.00655
3979.25852	1.34426	0.00648
3977.75841	1.34407	0.00642
3976.2583	1.34386	0.00643
3974.75819	1.34369	0.00647
3973.25808	1.34354	0.00654
3971.75796	1.34345	0.00662
3970.25785	1.34345	0.00663
3968.75774	1.3434	0.00654
3967.25763	1.3432	0.00643
3965.75752	1.34289	0.00645
3964.25741	1.3427	0.00659
3962.75729	1.34273	0.00667
3961.25718	1.34277	0.00658
3959.75707	1.34258	0.00642
3958.25696	1.34226	0.00636
3956.75685	1.34195	0.00644
3955.25673	1.3418	0.00659
3953.75662	1.34178	0.00666
3952.25651	1.34175	0.00662
3950.7564	1.34159	0.00654
3949.25629	1.34134	0.00652
3947.75618	1.3411	0.00659
3946.25606	1.341	0.00669
3944.75595	1.34096	0.00669
3943.25584	1.3408	0.00664
3941.75573	1.34057	0.00667
3940.25562	1.34048	0.00674
3938.7555	1.34044	0.00673
3937.25539	1.34033	0.00664
3935.75528	1.34009	0.00657
3934.25517	1.33985	0.00658
3932.75506	1.33964	0.00661
3931.25495	1.33944	0.00667
3929.75483	1.33927	0.00674
3928.25472	1.33916	0.00681
3926.75461	1.33909	0.00684
3925.2545	1.33898	0.00683
3923.75439	1.33885	0.00683
3922.25427	1.33877	0.0068
3920.75416	1.33868	0.0067
3919.25405	1.33846	0.00655
3917.75394	1.33809	0.00647
3916.25383	1.33767	0.00654
3914.75372	1.33738	0.00674
3913.2536	1.33725	0.00694
3911.75349	1.33717	0.00709
3910.25338	1.33713	0.00723
3908.75327	1.33722	0.0073
3907.25316	1.33735	0.00719
3905.75304	1.33731	0.00693
3904.25293	1.33702	0.00667
3902.75282	1.3366	0.00654
3901.25271	1.33617	0.00653
3899.7526	1.33566	0.00666
3898.25249	1.33529	0.00702
3896.75237	1.33535	0.0074
3895.25226	1.3356	0.00752
3893.75215	1.33579	0.00734
3892.25204	1.33559	0.00705
3890.75193	1.33505	0.007
3889.25181	1.3348	0.00725
3887.7517	1.33503	0.00733
3886.25159	1.33502	0.00703
3884.75148	1.33443	0.00687
3883.25137	1.33408	0.00708
3881.75126	1.3341	0.00716
3880.25114	1.33389	0.00705
3878.75103	1.33344	0.00715
3877.25092	1.33333	0.00741
3875.75081	1.33342	0.00745
3874.2507	1.33327	0.00739
3872.75058	1.33314	0.00741
3871.25047	1.33314	0.0073
3869.75036	1.33278	0.00714
3868.25025	1.33238	0.00723
3866.75014	1.33229	0.00734
3865.25003	1.33216	0.0073
3863.74991	1.33182	0.0073
3862.2498	1.33155	0.00743
3860.74969	1.33135	0.00762
3859.24958	1.33128	0.00786
3857.74947	1.33152	0.00799
3856.24935	1.33192	0.00776
3854.74924	1.33189	0.00713
3853.24913	1.33093	0.00675
3851.74902	1.3302	0.00704
3850.24891	1.33015	0.00738
3848.7488	1.33016	0.00745
3847.24868	1.33006	0.00741
3845.74857	1.32987	0.00734
3844.24846	1.32958	0.00734
3842.74835	1.32938	0.00742
3841.24824	1.32934	0.00743
3839.74812	1.32924	0.00729
3838.24801	1.32892	0.00712
3836.7479	1.32847	0.00711
3835.24779	1.32816	0.00725
3833.74768	1.32803	0.00736
3832.24757	1.32791	0.00735
3830.74745	1.32767	0.00731
3829.24734	1.32744	0.00732
3827.74723	1.3272	0.00733
3826.24712	1.32692	0.0074
3824.74701	1.32683	0.00749
3823.24689	1.3269	0.00738
3821.74678	1.3266	0.00709
3820.24667	1.32599	0.00707
3818.74656	1.32581	0.00719
3817.24645	1.32564	0.00707
3815.74634	1.32499	0.00702
3814.24622	1.3245	0.00734
3812.74611	1.32448	0.00764
3811.246	1.3245	0.00771
3809.74589	1.32446	0.00764
3808.24578	1.32423	0.00748
3806.74566	1.32369	0.00749
3805.24555	1.32345	0.00778
3803.74544	1.32375	0.00783
3802.24533	1.32373	0.00738
3800.74522	1.32296	0.0071
3799.24511	1.32239	0.00728
3797.74499	1.32218	0.00741
3796.24488	1.32187	0.00744
3794.74477	1.32149	0.00755
3793.24466	1.32122	0.0077
3791.74455	1.32099	0.00783
3790.24444	1.32082	0.00795
3788.74432	1.32072	0.00799
3787.24421	1.32051	0.00795
3785.7441	1.32018	0.00797
3784.24399	1.31995	0.00807
3782.74388	1.31988	0.00812
3781.24376	1.3198	0.00798
3779.74365	1.31945	0.00778
3778.24354	1.31891	0.00774
3776.74343	1.31849	0.00786
3775.24332	1.31818	0.00801
3773.74321	1.31796	0.00818
3772.24309	1.31799	0.00823
3770.74298	1.31791	0.008
3769.24287	1.31737	0.00778
3767.74276	1.31681	0.00782
3766.24265	1.31645	0.00793
3764.74253	1.31606	0.00802
3763.24242	1.31568	0.00815
3761.74231	1.31537	0.00831
3760.2422	1.31512	0.00846
3758.74209	1.31488	0.00859
3757.24198	1.31465	0.00872
3755.74186	1.31454	0.00886
3754.24175	1.3146	0.00882
3752.74164	1.31451	0.00854
3751.24153	1.31401	0.00822
3749.74142	1.31317	0.00821
3748.2413	1.31268	0.00861
3746.74119	1.31288	0.00878
3745.24108	1.31276	0.00841
3743.74097	1.31182	0.00831
3742.24086	1.3113	0.0087
3740.74075	1.31124	0.00896
3739.24063	1.31117	0.00901
3737.74052	1.31109	0.00891
3736.24041	1.31085	0.00868
3734.7403	1.31035	0.0085
3733.24019	1.30987	0.00841
3731.74007	1.30927	0.00837
3730.23996	1.3087	0.00852
3728.73985	1.30842	0.00866
3727.23974	1.30812	0.00863
3725.73963	1.30762	0.00859
3724.23952	1.30709	0.00864
3722.7394	1.30657	0.00876
3721.23929	1.30615	0.00893
3719.73918	1.30585	0.00905
3718.23907	1.30552	0.00907
3716.73896	1.30508	0.00909
3715.23884	1.30469	0.00915
3713.73873	1.30436	0.00913
3712.23862	1.30387	0.00904
3710.73851	1.30324	0.00902
3709.2384	1.3026	0.0091
3707.73829	1.30197	0.00928
3706.23817	1.30146	0.00954
3704.73806	1.30113	0.00973
3703.23795	1.3008	0.00979
3701.73784	1.30031	0.00975
3700.23773	1.29965	0.00979
3698.73761	1.29899	0.00994
3697.2375	1.29836	0.01019
3695.73739	1.29784	0.01051
3694.23728	1.29754	0.01079
3692.73717	1.29733	0.01087
3691.23706	1.297	0.01074
3689.73694	1.2963	0.01052
3688.23683	1.29516	0.01056
3686.73672	1.29421	0.01104
3685.23661	1.29377	0.01154
3683.7365	1.29335	0.01181
3682.23638	1.29276	0.01206
3680.73627	1.2922	0.01237
3679.23616	1.29173	0.0127
3677.73605	1.29147	0.0129
3676.23594	1.29095	0.01282
3674.73583	1.28984	0.01295
3673.23571	1.28911	0.01347
3671.7356	1.28874	0.01378
3670.23549	1.28785	0.01395
3668.73538	1.28688	0.01452
3667.23527	1.28643	0.01519
3665.73515	1.28604	0.01566
3664.23504	1.28554	0.01606
3662.73493	1.2851	0.01645
3661.23482	1.28463	0.01677
3659.73471	1.28406	0.01703
3658.2346	1.28334	0.0173
3656.73448	1.28238	0.01774
3655.23437	1.28153	0.01852
3653.73426	1.28125	0.01934
3652.23415	1.28118	0.01976
3650.73404	1.28065	0.01988
3649.23392	1.27961	0.02024
3647.73381	1.27868	0.02103
3646.2337	1.2782	0.02194
3644.73359	1.27801	0.02265
3643.23348	1.27766	0.02312
3641.73337	1.27703	0.02363
3640.23325	1.27645	0.02431
3638.73314	1.27601	0.02501
3637.23303	1.27554	0.0257
3635.73292	1.27514	0.02642
3634.23281	1.27481	0.02713
3632.73269	1.27455	0.02781
3631.23258	1.27439	0.02833
3629.73247	1.27391	0.02867
3628.23236	1.27302	0.02929
3626.73225	1.27248	0.03027
3625.23214	1.27226	0.03117
3623.73202	1.27201	0.03197
3622.23191	1.27186	0.03277
3620.7318	1.27184	0.0334
3619.23169	1.27152	0.03388
3617.73158	1.27098	0.03455
3616.23146	1.27074	0.03541
3614.73135	1.27067	0.03612
3613.23124	1.27041	0.03672
3611.73113	1.27009	0.03742
3610.23102	1.26988	0.03815
3608.73091	1.26964	0.03885
3607.23079	1.26934	0.03963
3605.73068	1.26925	0.04048
3604.23057	1.26931	0.04122
3602.73046	1.2693	0.0418
3601.23035	1.26915	0.04234
3599.73024	1.26892	0.04292
3598.23012	1.26864	0.04357
3596.73001	1.26839	0.04433
3595.2299	1.2683	0.04513
3593.72979	1.26832	0.04586
3592.22968	1.26824	0.0465
3590.72956	1.26815	0.0472
3589.22945	1.26823	0.04787
3587.72934	1.26822	0.0484
3586.22923	1.26799	0.04895
3584.72912	1.26783	0.04963
3583.22901	1.26775	0.05033
3581.72889	1.26766	0.05104
3580.22878	1.26768	0.05179
3578.72867	1.26784	0.05243
3577.22856	1.26789	0.05292
3575.72845	1.26773	0.0534
3574.22833	1.2675	0.054
3572.72822	1.26733	0.05475
3571.22811	1.26734	0.05554
3569.728	1.26751	0.05623
3568.22789	1.26755	0.05677
3566.72778	1.26738	0.05738
3565.22766	1.26742	0.05814
3563.72755	1.26759	0.0588
3562.22744	1.26765	0.05936
3560.72733	1.26769	0.05993
3559.22722	1.26771	0.0605
3557.7271	1.26767	0.06107
3556.22699	1.26759	0.06172
3554.72688	1.26761	0.06248
3553.22677	1.26783	0.06323
3551.72666	1.26816	0.06381
3550.22655	1.26835	0.06423
3548.72643	1.26836	0.06465
3547.22632	1.26832	0.06513
3545.72621	1.26826	0.06571
3544.2261	1.26831	0.06634
3542.72599	1.26843	0.0669
3541.22587	1.26842	0.06743
3539.72576	1.26836	0.06807
3538.22565	1.26851	0.0688
3536.72554	1.26882	0.0694
3535.22543	1.26896	0.06984
3533.72532	1.26893	0.07034
3532.2252	1.26902	0.07099
3530.72509	1.26927	0.07157
3529.22498	1.26946	0.072
3527.72487	1.26944	0.07242
3526.22476	1.26935	0.07298
3524.72464	1.26943	0.07368
3523.22453	1.26965	0.07433
3521.72442	1.26987	0.0749
3520.22431	1.27006	0.07542
3518.7242	1.27017	0.07592
3517.22409	1.27026	0.07651
3515.72397	1.2705	0.07716
3514.22386	1.2709	0.07771
3512.72375	1.27124	0.07808
3511.22364	1.27134	0.07839
3509.72353	1.27139	0.07879
3508.22341	1.27144	0.07928
3506.7233	1.27154	0.07982
3505.22319	1.27175	0.08036
3503.72308	1.27195	0.08084
3502.22297	1.2721	0.08129
3500.72286	1.27226	0.08177
3499.22274	1.27245	0.08222
3497.72263	1.27256	0.08265
3496.22252	1.27261	0.08312
3494.72241	1.27267	0.08367
3493.2223	1.27281	0.0843
3491.72218	1.2731	0.08494
3490.22207	1.27349	0.08548
3488.72196	1.27386	0.0859
3487.22185	1.27412	0.08624
3485.72174	1.27425	0.08659
3484.22163	1.27437	0.08702
3482.72151	1.27451	0.08752
3481.2214	1.27477	0.08807
3479.72129	1.27513	0.08855
3478.22118	1.27544	0.08893
3476.72107	1.27572	0.08928
3475.22095	1.27596	0.08958
3473.72084	1.27606	0.0899
3472.22073	1.27617	0.09033
3470.72062	1.27639	0.09079
3469.22051	1.27664	0.0912
3467.7204	1.27682	0.09158
3466.22028	1.277	0.09199
3464.72017	1.2772	0.09242
3463.22006	1.27743	0.09286
3461.71995	1.27768	0.09328
3460.21984	1.27793	0.09367
3458.71972	1.27812	0.09406
3457.21961	1.27836	0.09451
3455.7195	1.27869	0.09494
3454.21939	1.27903	0.0953
3452.71928	1.27931	0.09559
3451.21917	1.27952	0.09587
3449.71905	1.27967	0.09618
3448.21894	1.27982	0.09656
3446.71883	1.28003	0.09698
3445.21872	1.28029	0.09737
3443.71861	1.28052	0.09775
3442.21849	1.28079	0.09814
3440.71838	1.28107	0.09849
3439.21827	1.28127	0.09883
3437.71816	1.28149	0.09925
3436.21805	1.28186	0.09968
3434.71794	1.28223	0.09998
3433.21782	1.28245	0.10025
3431.71771	1.28267	0.10059
3430.2176	1.28298	0.10096
3428.71749	1.28332	0.10129
3427.21738	1.2836	0.10157
3425.71726	1.2839	0.10188
3424.21715	1.28424	0.10218
3422.71704	1.28457	0.10244
3421.21693	1.28491	0.10267
3419.71682	1.28521	0.10284
3418.21671	1.28538	0.103
3416.71659	1.28557	0.10325
3415.21648	1.28582	0.10352
3413.71637	1.28608	0.10375
3412.21626	1.28626	0.10394
3410.71615	1.28639	0.1042
3409.21604	1.28661	0.10453
3407.71592	1.28689	0.10483
3406.21581	1.28711	0.10509
3404.7157	1.28735	0.10539
3403.21559	1.28768	0.1057
3401.71548	1.28805	0.10594
3400.21536	1.28837	0.10609
3398.71525	1.2886	0.10622
3397.21514	1.28882	0.10639
3395.71503	1.28906	0.10654
3394.21492	1.2892	0.10666
3392.71481	1.28926	0.10685
3391.21469	1.28936	0.10716
3389.71458	1.28959	0.10751
3388.21447	1.28994	0.10783
3386.71436	1.2903	0.10801
3385.21425	1.29056	0.10812
3383.71413	1.29074	0.10824
3382.21402	1.29086	0.10838
3380.71391	1.29099	0.10861
3379.2138	1.29117	0.10887
3377.71369	1.29139	0.10913
3376.21358	1.29167	0.10937
3374.71346	1.29194	0.10956
3373.21335	1.29221	0.10972
3371.71324	1.29246	0.10983
3370.21313	1.2926	0.10993
3368.71302	1.29275	0.11009
3367.2129	1.29292	0.11025
3365.71279	1.29305	0.11041
3364.21268	1.29317	0.11062
3362.71257	1.29335	0.11086
3361.21246	1.29361	0.11109
3359.71235	1.2939	0.11124
3358.21223	1.29411	0.1113
3356.71212	1.29419	0.11136
3355.21201	1.29422	0.11151
3353.7119	1.29435	0.11175
3352.21179	1.29453	0.11196
3350.71167	1.29469	0.11213
3349.21156	1.29484	0.11231
3347.71145	1.29502	0.11248
3346.21134	1.29513	0.11262
3344.71123	1.29522	0.11282
3343.21112	1.29539	0.11307
3341.711	1.29561	0.11329
3340.21089	1.29589	0.11347
3338.71078	1.29613	0.11352
3337.21067	1.29619	0.11354
3335.71056	1.29619	0.11366
3334.21044	1.29628	0.11387
3332.71033	1.29644	0.11405
3331.21022	1.29651	0.11418
3329.71011	1.29654	0.11437
3328.21	1.29669	0.11462
3326.70989	1.29687	0.11481
3325.20977	1.29699	0.11495
3323.70966	1.29709	0.11511
3322.20955	1.29718	0.11528
3320.70944	1.29729	0.11547
3319.20933	1.29742	0.11565
3317.70921	1.29752	0.11582
3316.2091	1.29764	0.11599
3314.70899	1.29772	0.11614
3313.20888	1.29777	0.11632
3311.70877	1.29786	0.11654
3310.20866	1.29799	0.11676
3308.70854	1.29814	0.11694
3307.20843	1.29827	0.11709
3305.70832	1.29837	0.11721
3304.20821	1.29839	0.11732
3302.7081	1.29833	0.11751
3301.20798	1.29836	0.1178
3299.70787	1.29848	0.11809
3298.20776	1.29863	0.11834
3296.70765	1.29878	0.11855
3295.20754	1.29887	0.11873
3293.70743	1.29897	0.11894
3292.20731	1.29913	0.11915
3290.7072	1.29926	0.11929
3289.20709	1.2993	0.11944
3287.70698	1.29935	0.11962
3286.20687	1.29941	0.11982
3284.70675	1.29946	0.12004
3283.20664	1.29954	0.12026
3281.70653	1.29962	0.12046
3280.20642	1.29966	0.12064
3278.70631	1.29961	0.12086
3277.2062	1.29961	0.1212
3275.70608	1.29982	0.12159
3274.20597	1.30008	0.12182
3272.70586	1.30023	0.12194
3271.20575	1.30026	0.12206
3269.70564	1.30024	0.12226
3268.20552	1.30028	0.12253
3266.70541	1.30037	0.12279
3265.2053	1.30044	0.12303
3263.70519	1.30049	0.12328
3262.20508	1.30055	0.12356
3260.70497	1.3007	0.12384
3259.20485	1.3008	0.12405
3257.70474	1.30081	0.12427
3256.20463	1.30084	0.12458
3254.70452	1.30092	0.12492
3253.20441	1.30109	0.12527
3251.70429	1.30133	0.12556
3250.20418	1.30152	0.12574
3248.70407	1.30159	0.12589
3247.20396	1.30161	0.12611
3245.70385	1.30169	0.1264
3244.20374	1.3018	0.12665
3242.70362	1.30182	0.12688
3241.20351	1.30183	0.12722
3239.7034	1.30198	0.12761
3238.20329	1.30216	0.12795
3236.70318	1.30236	0.12828
3235.20306	1.30265	0.12856
3233.70295	1.30288	0.12873
3232.20284	1.30298	0.12887
3230.70273	1.30306	0.12907
3229.20262	1.30312	0.1293
3227.70251	1.30322	0.12958
3226.20239	1.30336	0.12985
3224.70228	1.3035	0.13009
3223.20217	1.30358	0.13031
3221.70206	1.30364	0.13057
3220.20195	1.30373	0.13089
3218.70183	1.30387	0.13121
3217.20172	1.30404	0.13153
3215.70161	1.30425	0.13183
3214.2015	1.30448	0.13207
3212.70139	1.30467	0.13224
3211.20128	1.30471	0.13238
3209.70116	1.30471	0.13264
3208.20105	1.30483	0.13299
3206.70094	1.30498	0.1333
3205.20083	1.30512	0.13361
3203.70072	1.30533	0.13392
3202.20061	1.30557	0.13417
3200.70049	1.30573	0.13435
3199.20038	1.3058	0.13454
3197.70027	1.30585	0.13481
3196.20016	1.30594	0.13515
3194.70005	1.30611	0.13551
3193.19993	1.30637	0.13584
3191.69982	1.30662	0.13609
3190.19971	1.30681	0.1363
3188.6996	1.30697	0.13651
3187.19949	1.30711	0.13673
3185.69938	1.30724	0.13697
3184.19926	1.30739	0.13722
3182.69915	1.3075	0.13746
3181.19904	1.30763	0.13774
3179.69893	1.30783	0.13803
3178.19882	1.308	0.13825
3176.6987	1.30809	0.13847
3175.19859	1.30819	0.13875
3173.69848	1.30834	0.13907
3172.19837	1.30853	0.13937
3170.69826	1.30872	0.13961
3169.19815	1.30884	0.13984
3167.69803	1.30891	0.1401
3166.19792	1.30899	0.14044
3164.69781	1.30918	0.14083
3163.1977	1.30942	0.14117
3161.69759	1.30964	0.14148
3160.19747	1.30991	0.14179
3158.69736	1.31018	0.14202
3157.19725	1.31035	0.14221
3155.69714	1.3105	0.14246
3154.19703	1.3107	0.14273
3152.69692	1.31089	0.14295
3151.1968	1.31099	0.14317
3149.69669	1.31106	0.14347
3148.19658	1.31123	0.14386
3146.69647	1.31149	0.14423
3145.19636	1.31178	0.14454
3143.69624	1.31205	0.1448
3142.19613	1.31231	0.14505
3140.69602	1.31257	0.14526
3139.19591	1.31276	0.14544
3137.6958	1.3129	0.14565
3136.19569	1.31307	0.1459
3134.69557	1.31323	0.14615
3133.19546	1.31337	0.14641
3131.69535	1.31351	0.14671
3130.19524	1.31369	0.14704
3128.69513	1.31393	0.14737
3127.19501	1.31418	0.14766
3125.6949	1.31438	0.14792
3124.19479	1.31457	0.14823
3122.69468	1.31482	0.14855
3121.19457	1.31511	0.14886
3119.69446	1.3154	0.14912
3118.19434	1.31564	0.14935
3116.69423	1.3159	0.14961
3115.19412	1.3162	0.14983
3113.69401	1.31639	0.14998
3112.1939	1.31649	0.15018
3110.69378	1.31663	0.15049
3109.19367	1.31682	0.15082
3107.69356	1.31704	0.15117
3106.19345	1.31733	0.15152
3104.69334	1.31768	0.15183
3103.19323	1.31795	0.15205
3101.69311	1.31819	0.15231
3100.193	1.3185	0.15259
3098.69289	1.31877	0.15281
3097.19278	1.319	0.15304
3095.69267	1.31925	0.1533
3094.19255	1.31948	0.15356
3092.69244	1.31974	0.15386
3091.19233	1.32006	0.15416
3089.69222	1.32037	0.15441
3088.19211	1.32066	0.15466
3086.692	1.32099	0.15493
3085.19188	1.32142	0.15516
3083.69177	1.32178	0.15525
3082.19166	1.32194	0.15531
3080.69155	1.32205	0.1555
3079.19144	1.32226	0.15581
3077.69132	1.32261	0.15609
3076.19121	1.32293	0.15626
3074.6911	1.32311	0.15637
3073.19099	1.32321	0.15659
3071.69088	1.3234	0.1569
3070.19077	1.32364	0.15722
3068.69065	1.32392	0.15757
3067.19054	1.32433	0.1579
3065.69043	1.32473	0.1581
3064.19032	1.32501	0.15824
3062.69021	1.32522	0.15841
3061.19009	1.32544	0.15866
3059.68998	1.32571	0.15894
3058.18987	1.32599	0.15921
3056.68976	1.32629	0.1595
3055.18965	1.32664	0.15979
3053.68954	1.32705	0.16006
3052.18942	1.32752	0.16024
3050.68931	1.32782	0.16029
3049.1892	1.32796	0.1604
3047.68909	1.32819	0.16068
3046.18898	1.32854	0.16095
3044.68886	1.32887	0.16116
3043.18875	1.32917	0.16136
3041.68864	1.32952	0.16155
3040.18853	1.32981	0.16169
3038.68842	1.33	0.16185
3037.18831	1.33023	0.16213
3035.68819	1.33059	0.16243
3034.18808	1.33097	0.16264
3032.68797	1.33127	0.16279
3031.18786	1.33152	0.163
3029.68775	1.33182	0.16325
3028.18763	1.33216	0.1635
3026.68752	1.33251	0.16373
3025.18741	1.33291	0.16395
3023.6873	1.33326	0.16411
3022.18719	1.33354	0.16426
3020.68708	1.33384	0.16449
3019.18696	1.33419	0.16472
3017.68685	1.33453	0.16495
3016.18674	1.33495	0.1652
3014.68663	1.33542	0.16538
3013.18652	1.33582	0.16546
3011.68641	1.33615	0.16553
3010.18629	1.3364	0.16561
3008.68618	1.3366	0.16577
3007.18607	1.33689	0.16603
3005.68596	1.33727	0.16629
3004.18585	1.33765	0.16646
3002.68573	1.33795	0.16664
3001.18562	1.3383	0.16689
2999.68551	1.33877	0.16713
2998.1854	1.33923	0.16727
2996.68529	1.33961	0.16735
2995.18518	1.33993	0.16747
2993.68506	1.34029	0.16764
2992.18495	1.34073	0.16781
2990.68484	1.34116	0.16789
2989.18473	1.34147	0.16792
2987.68462	1.34173	0.16804
2986.1845	1.34205	0.16822
2984.68439	1.34242	0.1684
2983.18428	1.3428	0.16856
2981.68417	1.34323	0.16871
2980.18406	1.34363	0.16881
2978.68395	1.34398	0.16888
2977.18383	1.34432	0.16899
2975.68372	1.34467	0.16912
2974.18361	1.34506	0.16924
2972.6835	1.34541	0.16932
2971.18339	1.34572	0.16942
2969.68327	1.34606	0.16958
2968.18316	1.34646	0.16972
2966.68305	1.34679	0.16982
2965.18294	1.34712	0.16999
2963.68283	1.34759	0.17019
2962.18272	1.3481	0.17027
2960.6826	1.34845	0.17026
2959.18249	1.34871	0.17032
2957.68238	1.34903	0.17049
2956.18227	1.34946	0.17069
2954.68216	1.34995	0.17083
2953.18204	1.35039	0.17087
2951.68193	1.35075	0.17089
2950.18182	1.35106	0.17097
2948.68171	1.35144	0.17114
2947.1816	1.35193	0.17129
2945.68149	1.3524	0.17134
2944.18137	1.3528	0.17137
2942.68126	1.35316	0.17142
2941.18115	1.35354	0.17151
2939.68104	1.35396	0.17163
2938.18093	1.35441	0.17174
2936.68081	1.35488	0.17184
2935.1807	1.35536	0.17191
2933.68059	1.35585	0.17198
2932.18048	1.35641	0.17206
2930.68037	1.35704	0.17205
2929.18026	1.35759	0.1719
2927.68014	1.35798	0.17172
2926.18003	1.35835	0.17163
2924.67992	1.3588	0.17159
2923.17981	1.35925	0.17145
2921.6797	1.3596	0.17129
2920.17958	1.35991	0.17116
2918.67947	1.36019	0.17106
2917.17936	1.36045	0.17102
2915.67925	1.36083	0.17103
2914.17914	1.36127	0.17097
2912.67903	1.36157	0.17081
2911.17891	1.36177	0.17072
2909.6788	1.36207	0.17074
2908.17869	1.36246	0.17073
2906.67858	1.36278	0.17064
2905.17847	1.36301	0.17059
2903.67835	1.36332	0.17064
2902.17824	1.36377	0.17066
2900.67813	1.36419	0.17055
2899.17802	1.36444	0.17039
2897.67791	1.36461	0.17032
2896.1778	1.3649	0.17039
2894.67768	1.3653	0.17042
2893.17757	1.36566	0.17036
2891.67746	1.36596	0.17031
2890.17735	1.36629	0.17028
2888.67724	1.36662	0.17024
2887.17712	1.36694	0.17019
2885.67701	1.36725	0.17015
2884.1769	1.36752	0.17011
2882.67679	1.3678	0.17012
2881.17668	1.36816	0.17019
2879.67657	1.36858	0.17019
2878.17645	1.36893	0.17014
2876.67634	1.36928	0.17016
2875.17623	1.36978	0.17019
2873.67612	1.37033	0.1701
2872.17601	1.37075	0.16986
2870.67589	1.371	0.16963
2869.17578	1.37124	0.16953
2867.67567	1.37157	0.16947
2866.17556	1.37189	0.16936
2864.67545	1.37211	0.16926
2863.17534	1.37237	0.16929
2861.67522	1.37283	0.16936
2860.17511	1.37338	0.16931
2858.675	1.37383	0.16912
2857.17489	1.37423	0.16893
2855.67478	1.37464	0.16872
2854.17466	1.37501	0.16846
2852.67455	1.37528	0.16817
2851.17444	1.37546	0.16791
2849.67433	1.37561	0.16772
2848.17422	1.37578	0.16759
2846.67411	1.37594	0.1675
2845.17399	1.37615	0.16749
2843.67388	1.37647	0.1675
2842.17377	1.37682	0.16745
2840.67366	1.37723	0.1674
2839.17355	1.37774	0.16725
2837.67343	1.37808	0.16689
2836.17332	1.37815	0.16657
2834.67321	1.37821	0.16646
2833.1731	1.37846	0.16647
2831.67299	1.37882	0.16641
2830.17288	1.37913	0.16626
2828.67276	1.37938	0.16608
2827.17265	1.3796	0.16594
2825.67254	1.37983	0.16584
2824.17243	1.38011	0.16574
2822.67232	1.38035	0.16561
2821.17221	1.38056	0.16552
2819.67209	1.38087	0.16548
2818.17198	1.38123	0.16539
2816.67187	1.38155	0.16525
2815.17176	1.38186	0.16511
2813.67165	1.38219	0.16496
2812.17153	1.38251	0.16478
2810.67142	1.38282	0.16458
2809.17131	1.38307	0.16435
2807.6712	1.38328	0.16417
2806.17109	1.38357	0.16403
2804.67098	1.38389	0.16382
2803.17086	1.38405	0.16355
2801.67075	1.38413	0.1634
2800.17064	1.38435	0.16339
2798.67053	1.38473	0.16335
2797.17042	1.38511	0.16322
2795.6703	1.38548	0.16303
2794.17019	1.38582	0.16281
2792.67008	1.38615	0.16256
2791.16997	1.38647	0.16229
2789.66986	1.38676	0.16201
2788.16975	1.38705	0.16172
2786.66963	1.38734	0.16138
2785.16952	1.38753	0.16098
2783.66941	1.38759	0.16061
2782.1693	1.38761	0.16033
2780.66919	1.38764	0.16015
2779.16907	1.38774	0.16007
2777.66896	1.38802	0.16003
2776.16885	1.38842	0.15986
2774.66874	1.38873	0.15954
2773.16863	1.38894	0.15918
2771.66852	1.38909	0.15882
2770.1684	1.38915	0.15847
2768.66829	1.38916	0.1582
2767.16818	1.38922	0.15801
2765.66807	1.38934	0.15784
2764.16796	1.38948	0.15766
2762.66784	1.38965	0.15746
2761.16773	1.38982	0.15724
2759.66762	1.38999	0.157
2758.16751	1.39014	0.15673
2756.6674	1.39025	0.15643
2755.16729	1.39031	0.15615
2753.66717	1.39034	0.15591
2752.16706	1.39039	0.15571
2750.66695	1.39049	0.15552
2749.16684	1.3906	0.15532
2747.66673	1.39072	0.15508
2746.16661	1.39078	0.15482
2744.6665	1.3908	0.15457
2743.16639	1.39082	0.15437
2741.66628	1.39084	0.1542
2740.16617	1.39092	0.15404
2738.66606	1.39103	0.15386
2737.16594	1.3911	0.15364
2735.66583	1.39116	0.15342
2734.16572	1.39118	0.1532
2732.66561	1.39117	0.15298
2731.1655	1.39112	0.15281
2729.66538	1.39109	0.15272
2728.16527	1.39117	0.1527
2726.66516	1.39139	0.15262
2725.16505	1.39163	0.15241
2723.66494	1.39172	0.1521
2722.16483	1.39171	0.1518
2720.66471	1.39168	0.15158
2719.1646	1.39165	0.15138
2717.66449	1.39161	0.15121
2716.16438	1.3916	0.15108
2714.66427	1.39161	0.15094
2713.16415	1.3916	0.15079
2711.66404	1.39159	0.15068
2710.16393	1.39163	0.15059
2708.66382	1.39168	0.15047
2707.16371	1.39172	0.15034
2705.6636	1.39175	0.15022
2704.16348	1.39181	0.15009
2702.66337	1.39185	0.14996
2701.16326	1.39191	0.14984
2699.66315	1.39201	0.1497
2698.16304	1.39207	0.14948
2696.66292	1.39202	0.14927
2695.16281	1.39194	0.14914
2693.6627	1.39195	0.14907
2692.16259	1.39201	0.14899
2690.66248	1.39206	0.14885
2689.16237	1.39208	0.14871
2687.66225	1.39208	0.14858
2686.16214	1.39208	0.14848
2684.66203	1.39209	0.1484
2683.16192	1.39219	0.14835
2681.66181	1.39233	0.14823
2680.16169	1.39244	0.14804
2678.66158	1.39249	0.14782
2677.16147	1.39251	0.14761
2675.66136	1.3925	0.1474
2674.16125	1.39243	0.14719
2672.66114	1.39235	0.14704
2671.16102	1.39231	0.14693
2669.66091	1.39229	0.1468
2668.1608	1.39223	0.14666
2666.66069	1.39218	0.14657
2665.16058	1.39218	0.14649
2663.66046	1.3922	0.14638
2662.16035	1.39217	0.14623
2660.66024	1.39214	0.14611
2659.16013	1.3921	0.14597
2657.66002	1.39201	0.14585
2656.15991	1.39194	0.14577
2654.65979	1.39193	0.14572
2653.15968	1.39193	0.1456
2651.65957	1.39183	0.14547
2650.15946	1.39172	0.14542
2648.65935	1.39172	0.1454
2647.15923	1.39173	0.14532
2645.65912	1.39168	0.14522
2644.15901	1.39164	0.14514
2642.6589	1.39159	0.14504
2641.15879	1.39147	0.14496
2639.65868	1.39135	0.14494
2638.15856	1.39132	0.14497
2636.65845	1.39136	0.14497
2635.15834	1.3914	0.1449
2633.65823	1.39137	0.14479
2632.15812	1.39129	0.14468
2630.658	1.39115	0.14462
2629.15789	1.39102	0.14463
2627.65778	1.39098	0.14468
2626.15767	1.39098	0.1447
2624.65756	1.39097	0.1447
2623.15745	1.39096	0.14468
2621.65733	1.39092	0.14466
2620.15722	1.39088	0.14465
2618.65711	1.39082	0.14465
2617.157	1.39078	0.14469
2615.65689	1.3908	0.14475
2614.15678	1.39084	0.14476
2612.65666	1.39085	0.14474
2611.15655	1.39084	0.14472
2609.65644	1.39084	0.14471
2608.15633	1.39081	0.14468
2606.65622	1.39073	0.14468
2605.1561	1.39067	0.14473
2603.65599	1.39066	0.14479
2602.15588	1.39063	0.14485
2600.65577	1.39063	0.14496
2599.15566	1.39071	0.14507
2597.65555	1.39084	0.14513
2596.15543	1.39093	0.14513
2594.65532	1.39096	0.14511
2593.15521	1.391	0.14513
2591.6551	1.39108	0.14515
2590.15499	1.39111	0.14514
2588.65487	1.39112	0.14516
2587.15476	1.39119	0.14522
2585.65465	1.3913	0.14524
2584.15454	1.39138	0.14522
2582.65443	1.39142	0.14521
2581.15432	1.39147	0.14521
2579.6542	1.39154	0.14521
2578.15409	1.39157	0.1452
2576.65398	1.39159	0.14523
2575.15387	1.39167	0.1453
2573.65376	1.3918	0.14535
2572.15364	1.39196	0.14535
2570.65353	1.3921	0.1453
2569.15342	1.39219	0.14521
2567.65331	1.39222	0.14513
2566.1532	1.39224	0.14511
2564.65309	1.39233	0.1451
2563.15297	1.39241	0.14505
2561.65286	1.39242	0.145
2560.15275	1.39245	0.14499
2558.65264	1.39251	0.145
2557.15253	1.3926	0.14502
2555.65241	1.39274	0.145
2554.1523	1.39286	0.14493
2552.65219	1.39292	0.14482
2551.15208	1.39291	0.14474
2549.65197	1.3929	0.14472
2548.15186	1.39296	0.14474
2546.65174	1.39306	0.14473
2545.15163	1.39319	0.14468
2543.65152	1.39326	0.14457
2542.15141	1.39323	0.14448
2540.6513	1.39323	0.14445
2539.15118	1.39326	0.14443
2537.65107	1.39327	0.1444
2536.15096	1.39329	0.14441
2534.65085	1.39335	0.14442
2533.15074	1.39344	0.14442
2531.65063	1.39352	0.14439
2530.15051	1.39358	0.14434
2528.6504	1.39364	0.1443
2527.15029	1.39373	0.14425
2525.65018	1.39377	0.14416
2524.15007	1.39376	0.14409
2522.64995	1.39375	0.14405
2521.14984	1.39375	0.14403
2519.64973	1.39375	0.14402
2518.14962	1.39376	0.14402
2516.64951	1.39378	0.14405
2515.1494	1.39384	0.14407
2513.64928	1.3939	0.14407
2512.14917	1.39393	0.14406
2510.64906	1.39396	0.14408
2509.14895	1.394	0.14411
2507.64884	1.39408	0.14415
2506.14872	1.39419	0.14418
2504.64861	1.3943	0.14417
2503.1485	1.39435	0.14415
2501.64839	1.39439	0.14418
2500.14828	1.39453	0.14424
2498.64817	1.39472	0.14424
2497.14805	1.39486	0.14416
2495.64794	1.39492	0.14408
2494.14783	1.39495	0.14403
2492.64772	1.395	0.14403
2491.14761	1.3951	0.14404
2489.64749	1.39522	0.14404
2488.14738	1.39534	0.14401
2486.64727	1.39545	0.14397
2485.14716	1.39552	0.14391
2483.64705	1.39557	0.1439
2482.14694	1.39568	0.14393
2480.64682	1.39585	0.14394
2479.14671	1.39602	0.1439
2477.6466	1.39615	0.14384
2476.14649	1.39628	0.1438
2474.64638	1.39644	0.14376
2473.14626	1.39663	0.14369
2471.64615	1.39679	0.14358
2470.14604	1.39691	0.14346
2468.64593	1.39702	0.14337
2467.14582	1.39716	0.14328
2465.64571	1.39732	0.14317
2464.14559	1.39747	0.14303
2462.64548	1.39756	0.14286
2461.14537	1.39762	0.14272
2459.64526	1.39772	0.1426
2458.14515	1.39781	0.14246
2456.64503	1.39787	0.14232
2455.14492	1.39792	0.14221
2453.64481	1.398	0.14211
2452.1447	1.39813	0.14202
2450.64459	1.39824	0.14187
2449.14448	1.39832	0.14173
2447.64436	1.39842	0.1416
2446.14425	1.39853	0.14144
2444.64414	1.39861	0.14127
2443.14403	1.39867	0.14111
2441.64392	1.39876	0.14097
2440.1438	1.39888	0.14079
2438.64369	1.39897	0.14057
2437.14358	1.39902	0.14034
2435.64347	1.39905	0.14011
2434.14336	1.39902	0.13988
2432.64325	1.39898	0.13971
2431.14313	1.39901	0.13955
2429.64302	1.39903	0.13934
2428.14291	1.39898	0.13911
2426.6428	1.39889	0.13894
2425.14269	1.39887	0.13882
2423.64258	1.39889	0.13867
2422.14246	1.39886	0.13847
2420.64235	1.39876	0.13829
2419.14224	1.3987	0.13816
2417.64213	1.39868	0.13804
2416.14202	1.39863	0.13789
2414.6419	1.39857	0.13776
2413.14179	1.39855	0.13765
2411.64168	1.39856	0.13751
2410.14157	1.39851	0.13732
2408.64146	1.39843	0.13715
2407.14135	1.39835	0.13701
2405.64123	1.39827	0.13688
2404.14112	1.39819	0.13675
2402.64101	1.39813	0.13664
2401.1409	1.39809	0.13652
2399.64079	1.398	0.13635
2398.14067	1.39786	0.13621
2396.64056	1.39774	0.13614
2395.14045	1.39769	0.13606
2393.64034	1.39759	0.13593
2392.14023	1.39743	0.13583
2390.64012	1.39729	0.13579
2389.14	1.39721	0.13578
2387.63989	1.39716	0.13575
2386.13978	1.39709	0.13571
2384.63967	1.39702	0.13568
2383.13956	1.397	0.13567
2381.63944	1.39697	0.13561
2380.13933	1.39688	0.13556
2378.63922	1.39679	0.13558
2377.13911	1.39676	0.13567
2375.639	1.39688	0.13577
2374.13889	1.39711	0.1358
2372.63877	1.39741	0.13571
2371.13866	1.39766	0.13545
2369.63855	1.3977	0.13507
2368.13844	1.39759	0.13476
2366.63833	1.39748	0.13455
2365.13821	1.39738	0.13443
2363.6381	1.39747	0.13434
2362.13799	1.39759	0.13408
2360.63788	1.39754	0.13375
2359.13777	1.39749	0.13345
2357.63766	1.3974	0.13311
2356.13754	1.39721	0.13272
2354.63743	1.39687	0.13237
2353.13732	1.39643	0.13212
2351.63721	1.39591	0.13202
2350.1371	1.39543	0.13216
2348.63698	1.3953	0.1325
2347.13687	1.39555	0.13274
2345.63676	1.39587	0.13263
2344.13665	1.3959	0.13231
2342.63654	1.39582	0.13204
2341.13643	1.39578	0.13176
2339.63631	1.3956	0.13138
2338.1362	1.3952	0.13107
2336.63609	1.39476	0.13093
2335.13598	1.39439	0.13095
2333.63587	1.3942	0.13108
2332.13575	1.39428	0.13115
2330.63564	1.3944	0.13099
2329.13553	1.39433	0.13064
2327.63542	1.39403	0.13029
2326.13531	1.39365	0.13005
2324.6352	1.39326	0.12989
2323.13508	1.3929	0.1298
2321.63497	1.39255	0.12972
2320.13486	1.39218	0.12967
2318.63475	1.39177	0.12967
2317.13464	1.39142	0.12976
2315.63452	1.39122	0.12987
2314.13441	1.39106	0.12988
2312.6343	1.39079	0.12981
2311.13419	1.39038	0.12978
2309.63408	1.39	0.1299
2308.13397	1.38978	0.13007
2306.63385	1.38962	0.13017
2305.13374	1.38939	0.1302
2303.63363	1.38911	0.13024
2302.13352	1.38881	0.13033
2300.63341	1.38854	0.13046
2299.13329	1.38829	0.1306
2297.63318	1.38801	0.13076
2296.13307	1.38782	0.13098
2294.63296	1.3877	0.13115
2293.13285	1.38755	0.13128
2291.63274	1.38736	0.1314
2290.13262	1.38715	0.13154
2288.63251	1.38696	0.13172
2287.1324	1.38684	0.13192
2285.63229	1.38672	0.13208
2284.13218	1.3866	0.13222
2282.63206	1.38643	0.13237
2281.13195	1.38628	0.13256
2279.63184	1.38619	0.13276
2278.13173	1.38608	0.13293
2276.63162	1.38597	0.13312
2275.13151	1.38593	0.13333
2273.63139	1.38594	0.13348
2272.13128	1.38587	0.13356
2270.63117	1.38571	0.13367
2269.13106	1.38559	0.13386
2267.63095	1.38554	0.13406
2266.13083	1.38549	0.13423
2264.63072	1.38546	0.1344
2263.13061	1.38542	0.13456
2261.6305	1.38535	0.13471
2260.13039	1.38533	0.13492
2258.63028	1.38538	0.13509
2257.13016	1.38539	0.13521
2255.63005	1.38538	0.13533
2254.12994	1.38535	0.13544
2252.62983	1.3853	0.13558
2251.12972	1.38532	0.13575
2249.6296	1.38536	0.13589
2248.12949	1.38536	0.136
2246.62938	1.38535	0.13614
2245.12927	1.38538	0.13629
2243.62916	1.38545	0.13642
2242.12905	1.38551	0.13652
2240.62893	1.38554	0.13663
2239.12882	1.38561	0.13675
2237.62871	1.38573	0.13684
2236.1286	1.38584	0.13686
2234.62849	1.38585	0.13685
2233.12838	1.38582	0.13687
2231.62826	1.38584	0.13695
2230.12815	1.3859	0.13701
2228.62804	1.38592	0.13702
2227.12793	1.38589	0.13706
2225.62782	1.38589	0.13715
2224.1277	1.38595	0.13725
2222.62759	1.38605	0.1373
2221.12748	1.38611	0.1373
2219.62737	1.38613	0.13729
2218.12726	1.38613	0.1373
2216.62715	1.38613	0.13732
2215.12703	1.38611	0.13735
2213.62692	1.3861	0.13741
2212.12681	1.38614	0.13749
2210.6267	1.38624	0.13756
2209.12659	1.38634	0.13757
2207.62647	1.38643	0.13755
2206.12636	1.38648	0.13748
2204.62625	1.38645	0.13742
2203.12614	1.38643	0.13742
2201.62603	1.38645	0.13743
2200.12592	1.38651	0.13742
2198.6258	1.38651	0.13736
2197.12569	1.38646	0.13733
2195.62558	1.38646	0.13735
2194.12547	1.3865	0.13735
2192.62536	1.38654	0.1373
2191.12524	1.38649	0.13721
2189.62513	1.38636	0.13721
2188.12502	1.38635	0.13729
2186.62491	1.38642	0.13733
2185.1248	1.38647	0.13732
2183.62469	1.38653	0.13729
2182.12457	1.38657	0.13723
2180.62446	1.38656	0.13716
2179.12435	1.38655	0.13709
2177.62424	1.38651	0.13704
2176.12413	1.38648	0.13701
2174.62401	1.38649	0.13699
2173.1239	1.3865	0.13693
2171.62379	1.38645	0.13686
2170.12368	1.38638	0.13683
2168.62357	1.38635	0.13684
2167.12346	1.38639	0.13683
2165.62334	1.38641	0.13677
2164.12323	1.38639	0.1367
2162.62312	1.38634	0.13664
2161.12301	1.38633	0.13663
2159.6229	1.38638	0.1366
2158.12278	1.3864	0.13649
2156.62267	1.38634	0.1364
2155.12256	1.38632	0.13634
2153.62245	1.38632	0.13627
2152.12234	1.38631	0.13618
2150.62223	1.38626	0.13607
2149.12211	1.38618	0.13599
2147.622	1.38616	0.13594
2146.12189	1.38615	0.13586
2144.62178	1.38613	0.13578
2143.12167	1.38614	0.13566
2141.62155	1.38609	0.1355
2140.12144	1.38596	0.13537
2138.62133	1.38584	0.13531
2137.12122	1.38582	0.13529
2135.62111	1.38583	0.1352
2134.121	1.3858	0.13508
2132.62088	1.38579	0.13497
2131.12077	1.38581	0.13481
2129.62066	1.38577	0.13459
2128.12055	1.38564	0.13436
2126.62044	1.38544	0.13417
2125.12032	1.38525	0.13405
2123.62021	1.38512	0.13398
2122.1201	1.38504	0.13389
2120.61999	1.38497	0.13377
2119.11988	1.3849	0.13362
2117.61977	1.38478	0.13343
2116.11965	1.38464	0.13325
2114.61954	1.38448	0.13308
2113.11943	1.38433	0.1329
2111.61932	1.38413	0.13269
2110.11921	1.38386	0.13252
2108.61909	1.38362	0.13243
2107.11898	1.38346	0.13232
2105.61887	1.38325	0.13216
2104.11876	1.38297	0.13204
2102.61865	1.38275	0.13198
2101.11854	1.38258	0.13189
2099.61842	1.38238	0.13175
2098.11831	1.38211	0.13162
2096.6182	1.38186	0.13154
2095.11809	1.38164	0.13146
2093.61798	1.38138	0.13137
2092.11786	1.38119	0.13133
2090.61775	1.38103	0.13122
2089.11764	1.38078	0.13105
2087.61753	1.38049	0.13092
2086.11742	1.38019	0.1308
2084.61731	1.37989	0.13071
2083.11719	1.37957	0.13062
2081.61708	1.37922	0.13058
2080.11697	1.37893	0.13057
2078.61686	1.37864	0.13054
2077.11675	1.37836	0.13053
2075.61663	1.37814	0.13052
2074.11652	1.37791	0.13046
2072.61641	1.37766	0.13036
2071.1163	1.37729	0.13023
2069.61619	1.37684	0.13019
2068.11608	1.37649	0.13027
2066.61596	1.37623	0.13033
2065.11585	1.37597	0.13035
2063.61574	1.3757	0.13036
2062.11563	1.37545	0.13036
2060.61552	1.37516	0.13033
2059.1154	1.37483	0.1303
2057.61529	1.37449	0.13031
2056.11518	1.37416	0.13036
2054.61507	1.37388	0.13042
2053.11496	1.37364	0.13048
2051.61485	1.37343	0.1305
2050.11473	1.37317	0.13046
2048.61462	1.37287	0.13044
2047.11451	1.3726	0.13041
2045.6144	1.37228	0.13033
2044.11429	1.37183	0.13026
2042.61418	1.37135	0.13031
2041.11406	1.37096	0.13047
2039.61395	1.37072	0.13064
2038.11384	1.37053	0.13071
2036.61373	1.37026	0.13071
2035.11362	1.36994	0.13071
2033.6135	1.36959	0.13076
2032.11339	1.36933	0.13082
2030.61328	1.36904	0.13082
2029.11317	1.36867	0.13084
2027.61306	1.36839	0.13089
2026.11295	1.36807	0.13088
2024.61283	1.36768	0.13089
2023.11272	1.36731	0.13094
2021.61261	1.36694	0.13101
2020.1125	1.36661	0.13109
2018.61239	1.36629	0.13116
2017.11227	1.366	0.13121
2015.61216	1.36568	0.13121
2014.11205	1.36531	0.13119
2012.61194	1.36489	0.13117
2011.11183	1.36439	0.13118
2009.61172	1.36389	0.1313
2008.1116	1.36353	0.13147
2006.61149	1.36321	0.13156
2005.11138	1.36279	0.13158
2003.61127	1.36233	0.13166
2002.11116	1.36189	0.13178
2000.61104	1.36146	0.1319
1999.11093	1.36103	0.13204
1997.61082	1.36063	0.13221
1996.11071	1.3603	0.13235
1994.6106	1.35996	0.1324
1993.11049	1.35945	0.1324
1991.61037	1.35888	0.13251
1990.11026	1.35838	0.13269
1988.61015	1.3579	0.13289
1987.11004	1.35744	0.13308
1985.60993	1.35695	0.13329
1984.10981	1.35655	0.13353
1982.6097	1.35614	0.1337
1981.10959	1.35561	0.13387
1979.60948	1.35516	0.13412
1978.10937	1.35475	0.13434
1976.60926	1.35428	0.13452
1975.10914	1.35375	0.13474
1973.60903	1.35324	0.13502
1972.10892	1.35282	0.13533
1970.60881	1.35238	0.13559
1969.1087	1.35194	0.13586
1967.60858	1.35154	0.13612
1966.10847	1.35106	0.13633
1964.60836	1.35056	0.1366
1963.10825	1.35005	0.13687
1961.60814	1.3495	0.13718
1960.10803	1.349	0.13757
1958.60791	1.34858	0.13797
1957.1078	1.34819	0.13834
1955.60769	1.34781	0.13865
1954.10758	1.34736	0.13894
1952.60747	1.34687	0.13926
1951.10735	1.34637	0.13961
1949.60724	1.3459	0.14001
1948.10713	1.34547	0.14041
1946.60702	1.34502	0.1408
1945.10691	1.34458	0.14121
1943.6068	1.3442	0.14163
1942.10668	1.3438	0.14199
1940.60657	1.34332	0.14234
1939.10646	1.34283	0.14274
1937.60635	1.34232	0.1432
1936.10624	1.34189	0.14372
1934.60612	1.34155	0.14421
1933.10601	1.34117	0.14464
1931.6059	1.34077	0.14508
1930.10579	1.34035	0.14552
1928.60568	1.33994	0.14599
1927.10557	1.33957	0.14646
1925.60545	1.33914	0.1469
1924.10534	1.33872	0.14738
1922.60523	1.33829	0.14787
1921.10512	1.33789	0.14842
1919.60501	1.33762	0.14894
1918.10489	1.33721	0.14934
1916.60478	1.33669	0.14981
1915.10467	1.33624	0.1504
1913.60456	1.33588	0.15104
1912.10445	1.33564	0.15164
1910.60434	1.33538	0.15211
1909.10422	1.33497	0.15253
1907.60411	1.33449	0.15301
1906.104	1.33401	0.15358
1904.60389	1.33358	0.15423
1903.10378	1.33323	0.15491
1901.60366	1.33296	0.15556
1900.10355	1.3327	0.15613
1898.60344	1.33233	0.15666
1897.10333	1.33191	0.15726
1895.60322	1.33158	0.15793
1894.10311	1.33128	0.15857
1892.60299	1.33098	0.15921
1891.10288	1.33071	0.15983
1889.60277	1.33039	0.1604
1888.10266	1.33	0.16101
1886.60255	1.32962	0.16168
1885.10243	1.32928	0.16239
1883.60232	1.329	0.1631
1882.10221	1.32871	0.16378
1880.6021	1.32839	0.16447
1879.10199	1.3281	0.16519
1877.60188	1.32777	0.16592
1876.10176	1.3275	0.1667
1874.60165	1.32727	0.16746
1873.10154	1.32701	0.16823
1871.60143	1.32685	0.16903
1870.10132	1.32671	0.16974
1868.6012	1.32649	0.1704
1867.10109	1.32617	0.17107
1865.60098	1.32579	0.17185
1864.10087	1.32557	0.17275
1862.60076	1.32543	0.1736
1861.10065	1.32527	0.17441
1859.60053	1.32512	0.17522
1858.10042	1.32495	0.176
1856.60031	1.32476	0.17681
1855.1002	1.32456	0.17763
1853.60009	1.32436	0.1785
1852.09997	1.32425	0.17942
1850.59986	1.32415	0.18029
1849.09975	1.32402	0.18117
1847.59964	1.32394	0.18209
1846.09953	1.32394	0.18302
1844.59942	1.32395	0.18388
1843.0993	1.32386	0.18468
1841.59919	1.32376	0.18557
1840.09908	1.32375	0.18651
1838.59897	1.32373	0.18739
1837.09886	1.32367	0.18831
1835.59875	1.32369	0.1893
1834.09863	1.32379	0.19027
1832.59852	1.32394	0.1912
1831.09841	1.3241	0.19203
1829.5983	1.32408	0.19279
1828.09819	1.32402	0.19369
1826.59807	1.32411	0.19468
1825.09796	1.32419	0.19559
1823.59785	1.32423	0.19652
1822.09774	1.32428	0.1975
1820.59763	1.32442	0.19856
1819.09752	1.32471	0.1996
1817.5974	1.32492	0.20051
1816.09729	1.32516	0.20145
1814.59718	1.32539	0.20234
1813.09707	1.32556	0.20323
1811.59696	1.32578	0.20417
1810.09684	1.32594	0.20509
1808.59673	1.32615	0.2061
1807.09662	1.32647	0.20712
1805.59651	1.32677	0.20807
1804.0964	1.32708	0.20902
1802.59629	1.32739	0.20997
1801.09617	1.3277	0.21093
1799.59606	1.32806	0.21191
1798.09595	1.32842	0.21287
1796.59584	1.32883	0.21385
1795.09573	1.32927	0.21479
1793.59561	1.32969	0.21571
1792.0955	1.33013	0.21661
1790.59539	1.33051	0.21749
1789.09528	1.33085	0.21842
1787.59517	1.33129	0.21946
1786.09506	1.33182	0.22046
1784.59494	1.33235	0.22139
1783.09483	1.33286	0.22231
1781.59472	1.33337	0.22321
1780.09461	1.33384	0.2241
1778.5945	1.33424	0.22504
1777.09438	1.33471	0.22613
1775.59427	1.33543	0.22729
1774.09416	1.33621	0.22827
1772.59405	1.33689	0.22912
1771.09394	1.33748	0.22998
1769.59383	1.33803	0.23093
1768.09371	1.33868	0.23199
1766.5936	1.33941	0.23304
1765.09349	1.34017	0.23411
1763.59338	1.34114	0.23522
1762.09327	1.34215	0.23613
1760.59315	1.34299	0.23694
1759.09304	1.34385	0.23784
1757.59293	1.34477	0.23877
1756.09282	1.34576	0.23969
1754.59271	1.34675	0.24055
1753.0926	1.34779	0.24145
1751.59248	1.34897	0.24229
1750.09237	1.35007	0.24293
1748.59226	1.35101	0.24352
1747.09215	1.35176	0.24419
1745.59204	1.35252	0.24516
1744.09192	1.35376	0.24644
1742.59181	1.35535	0.24745
1741.0917	1.35684	0.24808
1739.59159	1.35817	0.24858
1738.09148	1.35933	0.24909
1736.59137	1.36054	0.24975
1735.09125	1.36194	0.25047
1733.59114	1.36341	0.25102
1732.09103	1.36472	0.25144
1730.59092	1.36602	0.25197
1729.09081	1.36745	0.25254
1727.59069	1.36898	0.25306
1726.09058	1.37052	0.25345
1724.59047	1.37199	0.25377
1723.09036	1.37346	0.2541
1721.59025	1.37494	0.25446
1720.09014	1.37657	0.25487
1718.59002	1.37843	0.25515
1717.08991	1.38007	0.25508
1715.5898	1.38156	0.25508
1714.08969	1.3831	0.25513
1712.58958	1.38468	0.2552
1711.08946	1.38637	0.25525
1709.58935	1.38802	0.25517
1708.08924	1.38973	0.25509
1706.58913	1.39148	0.25488
1705.08902	1.39311	0.25455
1703.58891	1.39468	0.25427
1702.08879	1.39645	0.25406
1700.58868	1.39835	0.25362
1699.08857	1.4	0.25293
1697.58846	1.40157	0.25228
1696.08835	1.40312	0.25157
1694.58823	1.40449	0.25081
1693.08812	1.40585	0.25019
1691.58801	1.40737	0.2496
1690.0879	1.40887	0.24888
1688.58779	1.41028	0.24816
1687.08768	1.41197	0.24756
1685.58756	1.41392	0.24662
1684.08745	1.4154	0.24509
1682.58734	1.41623	0.24367
1681.08723	1.41718	0.24274
1679.58712	1.41837	0.24191
1678.087	1.41972	0.24101
1676.58689	1.42117	0.23991
1675.08678	1.42234	0.23853
1673.58667	1.42326	0.23726
1672.08656	1.42442	0.23619
1670.58645	1.42573	0.23489
1669.08633	1.42662	0.23329
1667.58622	1.42721	0.23189
1666.08611	1.42805	0.23081
1664.586	1.42915	0.22966
1663.08589	1.43021	0.22821
1661.58577	1.43094	0.2266
1660.08566	1.4315	0.22515
1658.58555	1.4321	0.22387
1657.08544	1.43287	0.22273
1655.58533	1.43416	0.22154
1654.08522	1.43553	0.21964
1652.5851	1.43554	0.21719
1651.08499	1.43538	0.21569
1649.58488	1.43608	0.21456
1648.08477	1.43689	0.21291
1646.58466	1.43704	0.21089
1645.08455	1.43691	0.20926
1643.58443	1.43712	0.20797
1642.08432	1.4375	0.20658
1640.58421	1.43785	0.2051
1639.0841	1.43838	0.20362
1637.58399	1.43907	0.20183
1636.08387	1.43922	0.19952
1634.58376	1.43861	0.19741
1633.08365	1.43817	0.19594
1631.58354	1.43819	0.1946
1630.08343	1.43836	0.19304
1628.58332	1.43832	0.19125
1627.0832	1.43812	0.18947
1625.58309	1.43801	0.18772
1624.08298	1.4378	0.18581
1622.58287	1.43718	0.18383
1621.08276	1.43647	0.18216
1619.58264	1.43616	0.18068
1618.08253	1.43592	0.17883
1616.58242	1.43501	0.17671
1615.08231	1.43382	0.17505
1613.5822	1.43308	0.17374
1612.08209	1.43253	0.17222
1610.58197	1.43173	0.17048
1609.08186	1.43066	0.16878
1607.58175	1.42951	0.16727
1606.08164	1.42844	0.16589
1604.58153	1.42744	0.1645
1603.08141	1.42636	0.16307
1601.5813	1.42517	0.16165
1600.08119	1.42388	0.16028
1598.58108	1.42256	0.15901
1597.08097	1.42123	0.1578
1595.58086	1.41978	0.15662
1594.08074	1.41829	0.1556
1592.58063	1.41689	0.15472
1591.08052	1.41563	0.15386
1589.58041	1.41438	0.15292
1588.0803	1.41294	0.15197
1586.58018	1.41152	0.15115
1585.08007	1.41012	0.15036
1583.57996	1.40865	0.1496
1582.07985	1.40718	0.14894
1580.57974	1.40571	0.14843
1579.07963	1.40464	0.14806
1577.57951	1.40384	0.14727
1576.0794	1.40218	0.14603
1574.57929	1.4	0.14539
1573.07918	1.39847	0.14537
1571.57907	1.39748	0.14516
1570.07895	1.39624	0.14454
1568.57884	1.39453	0.14399
1567.07873	1.39302	0.14382
1565.57862	1.39175	0.14367
1564.07851	1.39039	0.14352
1562.5784	1.38934	0.14357
1561.07828	1.38898	0.14337
1559.57817	1.38831	0.14225
1558.07806	1.38605	0.14101
1556.57795	1.384	0.14083
1555.07784	1.38256	0.14083
1553.57772	1.38109	0.14071
1552.07761	1.3797	0.14063
1550.5775	1.37829	0.14049
1549.07739	1.37669	0.14042
1547.57728	1.37525	0.14062
1546.07717	1.37418	0.14086
1544.57705	1.37315	0.14089
1543.07694	1.37217	0.14091
1541.57683	1.37159	0.14068
1540.07672	1.37033	0.13982
1538.57661	1.36811	0.13927
1537.07649	1.36628	0.13954
1535.57638	1.36514	0.13995
1534.07627	1.36411	0.13995
1532.57616	1.36255	0.13975
1531.07605	1.36093	0.13995
1529.57594	1.35976	0.14029
1528.07582	1.35861	0.14043
1526.57571	1.35735	0.1405
1525.0756	1.35597	0.14064
1523.57549	1.35485	0.14092
1522.07538	1.35386	0.14096
1520.57526	1.35235	0.14088
1519.07515	1.35098	0.14116
1517.57504	1.34988	0.14135
1516.07493	1.34843	0.14139
1514.57482	1.34695	0.14171
1513.07471	1.3457	0.14217
1511.57459	1.34449	0.14264
1510.07448	1.34365	0.14324
1508.57437	1.34339	0.1435
1507.07426	1.34254	0.14285
1505.57415	1.34036	0.14227
1504.07403	1.33832	0.14275
1502.57392	1.33704	0.14363
1501.07381	1.33622	0.14434
1499.5737	1.33548	0.14473
1498.07359	1.33478	0.14487
1496.57348	1.33379	0.14464
1495.07336	1.33215	0.14446
1493.57325	1.33071	0.14479
1492.07314	1.32961	0.14516
1490.57303	1.32858	0.14532
1489.07292	1.3273	0.14527
1487.5728	1.32566	0.14528
1486.07269	1.32403	0.1456
1484.57258	1.32256	0.1461
1483.07247	1.32127	0.14663
1481.57236	1.32002	0.14707
1480.07225	1.31864	0.14752
1478.57213	1.31746	0.14813
1477.07202	1.31645	0.14862
1475.57191	1.3154	0.14899
1474.0718	1.31445	0.14924
1472.57169	1.31316	0.14923
1471.07157	1.31149	0.14938
1469.57146	1.30999	0.14987
1468.07135	1.30869	0.15043
1466.57124	1.3075	0.1509
1465.07113	1.30616	0.15123
1463.57102	1.30463	0.15168
1462.0709	1.30331	0.15238
1460.57079	1.30234	0.1531
1459.07068	1.30164	0.15351
1457.57057	1.30059	0.15336
1456.07046	1.29867	0.1532
1454.57035	1.29683	0.15372
1453.07023	1.29545	0.15441
1451.57012	1.29408	0.15495
1450.07001	1.29273	0.1555
1448.5699	1.29147	0.15599
1447.06979	1.29007	0.15637
1445.56967	1.28866	0.15679
1444.06956	1.28719	0.15714
1442.56945	1.28551	0.15753
1441.06934	1.28384	0.15811
1439.56923	1.28234	0.15882
1438.06912	1.28106	0.15944
1436.569	1.27948	0.15974
1435.06889	1.27755	0.16023
1433.56878	1.2759	0.16111
1432.06867	1.27448	0.16194
1430.56856	1.27309	0.16262
1429.06844	1.27155	0.16317
1427.56833	1.26985	0.16379
1426.06822	1.26832	0.16456
1424.56811	1.26678	0.1652
1423.068	1.26504	0.16587
1421.56789	1.2635	0.16672
1420.06777	1.26209	0.16741
1418.56766	1.26041	0.16788
1417.06755	1.25852	0.16847
1415.56744	1.25664	0.16922
1414.06733	1.25479	0.17006
1412.56721	1.25295	0.17095
1411.0671	1.25118	0.17189
1409.56699	1.24943	0.1728
1408.06688	1.24762	0.1737
1406.56677	1.24586	0.17464
1405.06666	1.24401	0.17549
1403.56654	1.24195	0.1764
1402.06643	1.24005	0.17761
1400.56632	1.23841	0.17879
1399.06621	1.23665	0.1797
1397.5661	1.23469	0.18062
1396.06598	1.23277	0.18168
1394.56587	1.23082	0.18269
1393.06576	1.22871	0.18369
1391.56565	1.22654	0.18488
1390.06554	1.22455	0.18625
1388.56543	1.22272	0.18751
1387.06531	1.22069	0.18853
1385.5652	1.21843	0.18962
1384.06509	1.21613	0.19088
1382.56498	1.21385	0.19227
1381.06487	1.21161	0.19371
1379.56475	1.20932	0.19515
1378.06464	1.20701	0.19665
1376.56453	1.20464	0.19818
1375.06442	1.20225	0.19982
1373.56431	1.19988	0.20153
1372.0642	1.19743	0.20323
1370.56408	1.19496	0.20506
1369.06397	1.1925	0.20696
1367.56386	1.18996	0.2089
1366.06375	1.18741	0.211
1364.56364	1.18493	0.2132
1363.06352	1.18243	0.21542
1361.56341	1.17988	0.2177
1360.0633	1.1773	0.22013
1358.56319	1.1748	0.2227
1357.06308	1.17228	0.22529
1355.56297	1.16972	0.228
1354.06285	1.16721	0.23088
1352.56274	1.16472	0.23387
1351.06263	1.16234	0.23704
1349.56252	1.1601	0.24027
1348.06241	1.15784	0.24343
1346.56229	1.15553	0.24669
1345.06218	1.15324	0.25015
1343.56207	1.15104	0.25378
1342.06196	1.14894	0.25753
1340.56185	1.14698	0.26142
1339.06174	1.14521	0.26539
1337.56162	1.14351	0.26929
1336.06151	1.14178	0.27322
1334.5614	1.14012	0.27735
1333.06129	1.13865	0.28165
1331.56118	1.13738	0.28599
1330.06106	1.13624	0.29028
1328.56095	1.13517	0.2946
1327.06084	1.13424	0.29899
1325.56073	1.13348	0.30339
1324.06062	1.13283	0.30772
1322.56051	1.13226	0.31206
1321.06039	1.13179	0.31642
1319.56028	1.13146	0.32081
1318.06017	1.13131	0.32519
1316.56006	1.1313	0.32945
1315.05995	1.13135	0.33362
1313.55983	1.13148	0.33775
1312.05972	1.13173	0.34181
1310.55961	1.13202	0.34575
1309.0595	1.13235	0.34962
1307.55939	1.13272	0.35344
1306.05928	1.13313	0.35719
1304.55916	1.13361	0.36092
1303.05905	1.13418	0.36455
1301.55894	1.13476	0.36801
1300.05883	1.1353	0.37137
1298.55872	1.1358	0.37467
1297.0586	1.1363	0.37793
1295.55849	1.1368	0.38112
1294.05838	1.13726	0.38421
1292.55827	1.13765	0.38725
1291.05816	1.13801	0.39026
1289.55805	1.13832	0.39321
1288.05793	1.13854	0.3961
1286.55782	1.1387	0.39898
1285.05771	1.13877	0.40182
1283.5576	1.13873	0.40465
1282.05749	1.13857	0.40751
1280.55737	1.13832	0.41042
1279.05726	1.13799	0.41338
1277.55715	1.13752	0.41634
1276.05704	1.13692	0.41946
1274.55693	1.13628	0.42274
1273.05682	1.13559	0.42611
1271.5567	1.13485	0.42961
1270.05659	1.13403	0.43318
1268.55648	1.13312	0.43697
1267.05637	1.13221	0.44098
1265.55626	1.13132	0.44515
1264.05615	1.13045	0.44954
1262.55603	1.12965	0.45407
1261.05592	1.12885	0.45875
1259.55581	1.12811	0.46369
1258.0557	1.12749	0.46881
1256.55559	1.12697	0.47409
1255.05547	1.12656	0.47951
1253.55536	1.12623	0.48511
1252.05525	1.12604	0.49094
1250.55514	1.12603	0.4969
1249.05503	1.12618	0.50306
1247.55492	1.12657	0.50939
1246.0548	1.12718	0.51581
1244.55469	1.12802	0.52232
1243.05458	1.12908	0.5289
1241.55447	1.13036	0.53555
1240.05436	1.13186	0.54227
1238.55424	1.13361	0.54903
1237.05413	1.1356	0.55584
1235.55402	1.13788	0.5627
1234.05391	1.14044	0.56946
1232.5538	1.14319	0.57616
1231.05369	1.14619	0.58288
1229.55357	1.14944	0.58947
1228.05346	1.15287	0.59598
1226.55335	1.15651	0.60241
1225.05324	1.1603	0.60875
1223.55313	1.16432	0.61511
1222.05301	1.1686	0.6213
1220.5529	1.17304	0.62737
1219.05279	1.17771	0.6333
1217.55268	1.18251	0.63895
1216.05257	1.18739	0.64455
1214.55246	1.19242	0.65001
1213.05234	1.19754	0.65531
1211.55223	1.20281	0.66056
1210.05212	1.2082	0.66555
1208.55201	1.21362	0.67044
1207.0519	1.21916	0.67524
1205.55178	1.22472	0.67985
1204.05167	1.23038	0.68451
1202.55156	1.23619	0.68898
1201.05145	1.24203	0.6933
1199.55134	1.24796	0.69757
1198.05123	1.25397	0.7017
1196.55111	1.26006	0.70578
1195.051	1.26626	0.70972
1193.55089	1.27249	0.71354
1192.05078	1.27882	0.71735
1190.55067	1.28528	0.72102
1189.05055	1.2918	0.72457
1187.55044	1.29842	0.72806
1186.05033	1.30514	0.73142
1184.55022	1.31193	0.73468
1183.05011	1.31881	0.73787
1181.55	1.32579	0.74098
1180.04988	1.3329	0.7441
1178.54977	1.34025	0.74713
1177.04966	1.34777	0.74995
1175.54955	1.35546	0.7527
1174.04944	1.36338	0.75524
1172.54932	1.37143	0.75752
1171.04921	1.37966	0.75966
1169.5491	1.38804	0.7615
1168.04899	1.39658	0.76316
1166.54888	1.40531	0.76448
1165.04877	1.41408	0.76546
1163.54865	1.423	0.76627
1162.04854	1.43204	0.76665
1160.54843	1.44112	0.76676
1159.04832	1.45038	0.76658
1157.54821	1.45969	0.76586
1156.04809	1.46901	0.7648
1154.54798	1.47833	0.7632
1153.04787	1.48747	0.76116
1151.54776	1.49656	0.75882
1150.04765	1.50552	0.75598
1148.54754	1.51435	0.75283
1147.04742	1.52307	0.74921
1145.54731	1.53149	0.74506
1144.0472	1.53963	0.74057
1142.54709	1.5474	0.73566
1141.04698	1.55482	0.73053
1139.54686	1.56198	0.72513
1138.04675	1.56874	0.71937
1136.54664	1.57512	0.71343
1135.04653	1.58116	0.70724
1133.54642	1.58678	0.70079
1132.04631	1.59194	0.69415
1130.54619	1.59665	0.68738
1129.04608	1.60091	0.68051
1127.54597	1.60474	0.67356
1126.04586	1.60806	0.66648
1124.54575	1.61085	0.65943
1123.04563	1.61324	0.65249
1121.54552	1.61513	0.64556
1120.04541	1.61662	0.63883
1118.5453	1.61781	0.6322
1117.04519	1.61855	0.6256
1115.54508	1.61893	0.6192
1114.04496	1.61889	0.61284
1112.54485	1.61838	0.6067
1111.04474	1.61753	0.60082
1109.54463	1.61626	0.59515
1108.04452	1.61475	0.58984
1106.5444	1.61292	0.58466
1105.04429	1.61062	0.57972
1103.54418	1.60804	0.5752
1102.04407	1.60513	0.57099
1100.54396	1.60197	0.56721
1099.04385	1.59862	0.56373
1097.54373	1.59483	0.56052
1096.04362	1.59079	0.55788
1094.54351	1.58654	0.55569
1093.0434	1.58207	0.55397
1091.54329	1.57738	0.55271
1090.04317	1.57234	0.55197
1088.54306	1.56714	0.55202
1087.04295	1.5619	0.55278
1085.54284	1.55661	0.55426
1084.04273	1.55135	0.55651
1082.54262	1.54613	0.55954
1081.0425	1.54107	0.56352
1079.54239	1.53637	0.56847
1078.04228	1.53212	0.5743
1076.54217	1.52839	0.58105
1075.04206	1.52538	0.58876
1073.54194	1.52329	0.59732
1072.04183	1.52227	0.60661
1070.54172	1.52234	0.61639
1069.04161	1.52351	0.62656
1067.5415	1.52596	0.63712
1066.04139	1.5297	0.64773
1064.54127	1.53464	0.65825
1063.04116	1.54086	0.66861
1061.54105	1.54825	0.67853
1060.04094	1.55682	0.68805
1058.54083	1.56654	0.69684
1057.04072	1.57711	0.70476
1055.5406	1.58857	0.71199
1054.04049	1.60081	0.71825
1052.54038	1.61372	0.72365
1051.04027	1.62742	0.72814
1049.54016	1.64174	0.73141
1048.04004	1.65656	0.73343
1046.53993	1.67153	0.73398
1045.03982	1.68643	0.73337
1043.53971	1.70151	0.73177
1042.0396	1.71657	0.72884
1040.53949	1.73147	0.72467
1039.03937	1.74601	0.71912
1037.53926	1.75987	0.71235
1036.03915	1.77313	0.70464
1034.53904	1.78565	0.69594
1033.03893	1.7974	0.68645
1031.53881	1.80836	0.67614
1030.0387	1.81831	0.66509
1028.53859	1.8273	0.65354
1027.03848	1.83528	0.64152
1025.53837	1.84217	0.62918
1024.03826	1.84812	0.61677
1022.53814	1.85318	0.60424
1021.03803	1.85728	0.59163
1019.53792	1.86045	0.57908
1018.03781	1.86269	0.56666
1016.5377	1.86406	0.55453
1015.03758	1.86477	0.54279
1013.53747	1.86471	0.53132
1012.03736	1.86404	0.52041
1010.53725	1.86303	0.50996
1009.03714	1.86156	0.49985
1007.53703	1.85974	0.49013
1006.03691	1.85743	0.48072
1004.5368	1.85474	0.47183
1003.03669	1.85187	0.46341
1001.53658	1.84872	0.45537
1000.03647	1.84546	0.44779
998.53635	1.84205	0.44052
997.03624	1.83843	0.43363
995.53613	1.8348	0.42711
994.03602	1.83094	0.42082
992.53591	1.82697	0.41498
991.0358	1.82305	0.40951
989.53568	1.81907	0.40433
988.03557	1.81522	0.39948
986.53546	1.81133	0.39477
985.03535	1.80742	0.39032
983.53524	1.80362	0.38605
982.03512	1.79968	0.38184
980.53501	1.7956	0.37789
979.0349	1.79152	0.37424
977.53479	1.78754	0.37086
976.03468	1.78363	0.36762
974.53457	1.7797	0.36452
973.03445	1.77582	0.36161
971.53434	1.77202	0.35883
970.03423	1.76822	0.35611
968.53412	1.7644	0.35348
967.03401	1.76053	0.35091
965.53389	1.75653	0.34846
964.03378	1.75251	0.34623
962.53367	1.74854	0.34414
961.03356	1.74457	0.34214
959.53345	1.7406	0.34022
958.03334	1.73649	0.33831
956.53322	1.73222	0.33656
955.03311	1.72794	0.335
953.533	1.72355	0.33354
952.03289	1.71906	0.33222
950.53278	1.71444	0.33106
949.03266	1.70968	0.33011
947.53255	1.7049	0.32937
946.03244	1.69991	0.32876
944.53233	1.69475	0.32845
943.03222	1.68952	0.32842
941.53211	1.68407	0.32864
940.03199	1.6785	0.32928
938.53188	1.67287	0.33032
937.03177	1.66718	0.33176
935.53166	1.66141	0.33362
934.03155	1.65552	0.33598
932.53143	1.64977	0.339
931.03132	1.64417	0.34251
929.53121	1.6386	0.34656
928.0311	1.63323	0.35127
926.53099	1.62809	0.35665
925.03088	1.62336	0.36277
923.53076	1.61916	0.36956
922.03065	1.61548	0.37699
920.53054	1.61252	0.38513
919.03043	1.61048	0.39388
917.53032	1.6094	0.40309
916.0302	1.60932	0.41259
914.53009	1.61021	0.42232
913.02998	1.61217	0.43227
911.52987	1.61536	0.4423
910.02976	1.61972	0.45213
908.52965	1.62518	0.46168
907.02953	1.63181	0.47089
905.52942	1.63964	0.47953
904.02931	1.64856	0.48737
902.5292	1.65832	0.49413
901.02909	1.66867	0.49989
899.52897	1.67971	0.50473
898.02886	1.69137	0.50845
896.52875	1.70345	0.5109
895.02864	1.71574	0.51201
893.52853	1.72797	0.51181
892.02842	1.74016	0.51049
890.5283	1.75219	0.50789
889.02819	1.76375	0.50405
887.52808	1.7748	0.49916
886.02797	1.7852	0.49324
884.52786	1.79493	0.48646
883.02774	1.80384	0.47878
881.52763	1.81169	0.47042
880.02752	1.81871	0.46168
878.52741	1.82486	0.45247
877.0273	1.82995	0.44292
875.52719	1.83411	0.43326
874.02707	1.83732	0.42358
872.52696	1.83975	0.41402
871.02685	1.84137	0.40458
869.52674	1.84224	0.3954
868.02663	1.84254	0.38655
866.52652	1.84227	0.37798
865.0264	1.84149	0.3698
863.52629	1.84039	0.36203
862.02618	1.83905	0.35457
860.52607	1.83737	0.34731
859.02596	1.83524	0.34031
857.52584	1.83279	0.33378
856.02573	1.8303	0.32768
854.52562	1.82771	0.32181
853.02551	1.8249	0.31617
851.5254	1.82195	0.31085
850.02529	1.81894	0.3058
848.52517	1.81581	0.30096
847.02506	1.81252	0.29636
845.52495	1.80908	0.29209
844.02484	1.80582	0.28819
842.52473	1.80263	0.28433
841.02461	1.79914	0.28057
839.5245	1.7956	0.27717
838.02439	1.79218	0.27404
836.52428	1.78886	0.27106
835.02417	1.7855	0.26813
833.52406	1.78202	0.26539
832.02394	1.77872	0.26291
830.52383	1.77547	0.26041
829.02372	1.77207	0.25799
827.52361	1.7687	0.25571
826.0235	1.76513	0.25349
824.52338	1.76144	0.25155
823.02327	1.75772	0.24993
821.52316	1.7542	0.24869
820.02305	1.7511	0.24762
818.52294	1.74813	0.24646
817.02283	1.74519	0.24526
815.52271	1.7422	0.24407
814.0226	1.73918	0.24297
812.52249	1.73625	0.24198
811.02238	1.73329	0.24101
809.52227	1.73027	0.24015
808.02215	1.72741	0.23946
806.52204	1.72466	0.23876
805.02193	1.7218	0.23802
803.52182	1.71888	0.23743
802.02171	1.71609	0.237
800.5216	1.71336	0.23657
799.02148	1.71053	0.23617
797.52137	1.70767	0.23596
796.02126	1.70497	0.23595
794.52115	1.70249	0.236
793.02104	1.70009	0.23602
791.52092	1.69768	0.23603
790.02081	1.69529	0.23611
788.5207	1.69302	0.23626
787.02059	1.6908	0.23638
785.52048	1.6885	0.23653
784.02037	1.68632	0.23684
782.52025	1.68433	0.23716
781.02014	1.68242	0.23742
779.52003	1.68051	0.2376
778.01992	1.67847	0.23776
776.51981	1.67645	0.23805
775.01969	1.67453	0.23841
773.51958	1.67268	0.23879
772.01947	1.67092	0.23918
770.51936	1.66924	0.23952
769.01925	1.66753	0.23979
767.51914	1.66569	0.24005
766.01902	1.66376	0.24045
764.51891	1.66204	0.24107
763.0188	1.66058	0.24166
761.51869	1.65917	0.2421
760.01858	1.65764	0.24245
758.51846	1.65603	0.24287
757.01835	1.6546	0.24342
755.51824	1.65334	0.24391
754.01813	1.65201	0.24425
752.51802	1.65063	0.24459
751.01791	1.6493	0.24497
749.51779	1.64797	0.24531
748.01768	1.64668	0.24568
746.51757	1.64553	0.24601
745.01746	1.64433	0.24617
743.51735	1.64298	0.24627
742.01723	1.64149	0.24643
740.51712	1.64012	0.24674
739.01701	1.63891	0.24695
737.5169	1.63746	0.24701
736.01679	1.63594	0.24721
734.51668	1.63454	0.24748
733.01656	1.63318	0.2477
731.51645	1.6318	0.24786
730.01634	1.63032	0.24798
728.51623	1.62881	0.24814
727.01612	1.62734	0.24831
725.516	1.62579	0.24843
724.01589	1.62423	0.24857
722.51578	1.62263	0.24866
721.01567	1.62086	0.24875
719.51556	1.61901	0.24894
718.01545	1.61717	0.24925
716.51533	1.6154	0.24963
715.01522	1.6137	0.25
713.51511	1.61198	0.25031
712.015	1.61018	0.25056
710.51489	1.60825	0.25083
709.01477	1.60628	0.25117
707.51466	1.60426	0.25154
706.01455	1.60212	0.25198
704.51444	1.60001	0.25256
703.01433	1.59794	0.25319
701.51422	1.5959	0.25384
700.0141	1.59378	0.25448
698.51399	1.59157	0.2552
697.01388	1.58947	0.25606
695.51377	1.58746	0.25688
694.01366	1.58526	0.25761
692.51354	1.58299	0.25851
691.01343	1.58094	0.2595
689.51332	1.57878	0.2603
688.01321	1.57631	0.26111
686.5131	1.57374	0.26217
685.01299	1.57125	0.26349
683.51287	1.56901	0.26495
682.01276	1.56686	0.26632
680.51265	1.56468	0.26765
679.01254	1.56252	0.26898
677.51243	1.56032	0.27023
676.01232	1.558	0.27146
674.5122	1.55552	0.2727
673.01209	1.55284	0.27407
671.51198	1.55031	0.27573
670.01187	1.54812	0.27732
668.51176	1.54534	0.27844
667.01164	1.54179	0.28005
665.51153	1.53912	0.28255
664.01142	1.53696	0.28474
662.51131	1.53444	0.28648
661.0112	1.53168	0.28824
659.51109	1.52871	0.29003
658.01097	1.52535	0.29197
656.51086	1.52202	0.29437
655.01075	1.51882	0.29693
653.51064	1.51549	0.29955
652.01053	1.51215	0.30242
650.51041	1.50891	0.30546
649.0103	1.50564	0.30853
647.51019	1.50227	0.31168
646.01008	1.49872	0.31494
644.50997	1.49499	0.31846
643.00986	1.49124	0.32231
641.50974	1.48753	0.32642
640.00963	1.48375	0.33071
638.50952	1.4798	0.33525
637.00941	1.47574	0.34025
635.5093	1.4719	0.34579
634.00918	1.4682	0.35159
632.50907	1.46449	0.35766
631.00896	1.46084	0.36416
629.50885	1.45728	0.3711
628.00874	1.45392	0.37859
626.50863	1.45091	0.3866
625.00851	1.44825	0.395
623.5084	1.44596	0.4038
622.00829	1.44399	0.41294
620.50818	1.44249	0.42259
619.00807	1.44165	0.43261
617.50795	1.44133	0.44274
616.00784	1.44149	0.45301
614.50773	1.44191	0.46331
613.00762	1.44275	0.47406
611.50751	1.44442	0.48512
610.0074	1.44635	0.49588
608.50728	1.44857	0.50709
607.00717	1.45163	0.51879
605.50706	1.45547	0.53051
604.00695	1.45997	0.54204
602.50684	1.46471	0.55328
601.00672	1.46972	0.56485
599.50661	1.47543	0.57691
598.0065	1.48185	0.58913
596.50639	1.48902	0.60159
595.00628	1.49697	0.61431
593.50617	1.50596	0.62753
592.00605	1.51647	0.64114
590.50594	1.52837	0.65447
589.00583	1.54152	0.66772
587.50572	1.55666	0.68126
586.00561	1.57403	0.6941
584.50549	1.59318	0.70568
583.00538	1.61434	0.71631
581.50527	1.63776	0.72536
580.00516	1.66346	0.73223
578.50505	1.69096	0.73581
577.00494	1.71933	0.73589
575.50482	1.74897	0.73275
574.00471	1.77866	0.72445
572.5046	1.80662	0.71127
571.00449	1.83226	0.69393
569.50438	1.85395	0.67261
568.00426	1.87151	0.64926
566.50415	1.88465	0.62431
565.00404	1.89291	0.59923
563.50393	1.89804	0.57555
562.00382	1.89991	0.55263
560.50371	1.89892	0.53161
559.00359	1.89621	0.51271
557.50348	1.89209	0.49575
556.00337	1.88734	0.48064
554.50326	1.88142	0.4668
553.00315	1.87493	0.455
551.50303	1.86873	0.44487
550.00292	1.86236	0.43583
548.50281	1.85642	0.42819
547.0027	1.851	0.42117
545.50259	1.84548	0.41449
544.00248	1.83981	0.40845
542.50236	1.83414	0.40317
541.00225	1.82875	0.39861
539.50214	1.82351	0.3945
538.00203	1.81823	0.39095
536.50192	1.81351	0.38818
535.0018	1.80953	0.38561
533.50169	1.80537	0.38284
532.00158	1.80115	0.38047
530.50147	1.79738	0.37846
529.00136	1.79358	0.37647
527.50125	1.78997	0.3748
526.00113	1.78653	0.37322
524.50102	1.78308	0.37179
523.00091	1.7799	0.37055
521.5008	1.77677	0.36932
520.00069	1.77381	0.36819
518.50057	1.77081	0.3669
517.00046	1.76733	0.36571
515.50035	1.76404	0.36503
514.00024	1.76096	0.36447
512.50013	1.75788	0.36396
511.00002	1.75464	0.36353
509.4999	1.7513	0.36355
507.99979	1.74877	0.36408
506.49968	1.7464	0.36412
504.99957	1.74367	0.36411
503.49946	1.74121	0.36429
501.99934	1.73842	0.36428
500.49923	1.73559	0.36465
498.99912	1.73285	0.36515
497.49901	1.73005	0.36584
495.9989	1.72758	0.36675
494.49879	1.72502	0.36753
492.99867	1.72235	0.3685
491.49856	1.71983	0.36965
489.99845	1.7172	0.37083
488.49834	1.71456	0.37226
486.99823	1.71196	0.37389
485.49812	1.70935	0.37576
483.998	1.70694	0.37799
482.49789	1.70496	0.3804
480.99778	1.70307	0.38266
479.49767	1.70099	0.3849
477.99756	1.69878	0.38747
476.49744	1.69697	0.39054
474.99733	1.69565	0.39363
473.49722	1.69406	0.39647
471.99711	1.69249	0.39969
470.497	1.69121	0.4031
468.99689	1.68964	0.40661
467.49677	1.68822	0.41085
465.99666	1.68751	0.41575
464.49655	1.68789	0.421
462.99644	1.68918	0.42576
461.49633	1.69009	0.42972
459.99621	1.69091	0.43401
458.4961	1.69212	0.43867
456.99599	1.69398	0.44379
455.49588	1.69745	0.44895
453.99577	1.70107	0.45279
452.49566	1.7048	0.4564
450.99554	1.70907	0.45952
449.49543	1.7131	0.46195
447.99532	1.71758	0.46404
446.49521	1.72108	0.46503
444.9951	1.72435	0.46693
443.49498	1.72995	0.46926
441.99487	1.73524	0.46871
440.49476	1.73757	0.46658
438.99465	1.73815	0.46621
437.49454	1.74019	0.46798
435.99443	1.74335	0.46984
434.49431	1.74718	0.47125
432.9942	1.75153	0.47209
431.49409	1.7558	0.47198
429.99398	1.75939	0.4713
428.49387	1.76296	0.47082
426.99375	1.76686	0.47009
425.49364	1.77031	0.46868
423.99353	1.77342	0.46722
422.49342	1.77671	0.4657
420.99331	1.77955	0.46358
419.4932	1.78163	0.46145
417.99308	1.78386	0.45986
416.49297	1.78652	0.45824
414.99286	1.7892	0.45613
413.49275	1.79169	0.45352
411.99264	1.7936	0.45043
410.49252	1.79486	0.44728
408.99241	1.79592	0.44435
407.4923	1.79683	0.44133
405.99219	1.79724	0.43814
404.49208	1.79722	0.43507
402.99197	1.79703	0.43218
401.49185	1.79655	0.42922
399.99174	1.79537	0.42618
