#SUBSTANCE=Sulphuric acid
#DESCRIPTION=Refractive indices of 65 wt% sulphuric acid from 400 to 7500 cm-1 at 263 K
#TEMPERATURE=263 K
#CONCENTRATION=65 wt%
#DOI=10.1021/jp026576n
#REFERENCE=Spectroscopic Study of Aqueous H2SO4 at Different Temperatures and Compositions:  Variations in Dissociation and Optical Properties
##Cathrine E. Lund Myhre,†, Daniel H. Christensen,‡, Flemming M. Nicolaisen,‡ and, and Claus J. Nielsen*,†
##The Journal of Physical Chemistry A 2003 107 (12), 1979-1991 
#FORMAT=WAVN N K
7498.52083	1.41398	0.01826
7497.02072	1.41414	0.01812
7495.52061	1.41416	0.01792
7494.0205	1.41405	0.01774
7492.52039	1.41379	0.01765
7491.02027	1.41354	0.01773
7489.52016	1.41342	0.01794
7488.02005	1.41351	0.01813
7486.51994	1.41367	0.01824
7485.01983	1.41391	0.01823
7483.51971	1.41406	0.01806
7482.0196	1.41398	0.01789
7480.51949	1.41379	0.01785
7479.01938	1.41379	0.01793
7477.51927	1.41386	0.01789
7476.01916	1.41379	0.01781
7474.51904	1.41364	0.01781
7473.01893	1.41359	0.0179
7471.51882	1.41359	0.01795
7470.01871	1.41356	0.01803
7468.5186	1.41369	0.01807
7467.01848	1.41367	0.01804
7465.51837	1.4136	0.01811
7464.01826	1.41368	0.01823
7462.51815	1.41394	0.01825
7461.01804	1.41411	0.0181
7459.51793	1.41409	0.01789
7458.01781	1.41389	0.0178
7456.5177	1.41381	0.01782
7455.01759	1.4138	0.01783
7453.51748	1.41377	0.0178
7452.01737	1.41365	0.01782
7450.51725	1.4136	0.01791
7449.01714	1.41363	0.01801
7447.51703	1.41378	0.01808
7446.01692	1.41402	0.01795
7444.51681	1.41392	0.01772
7443.0167	1.41366	0.01765
7441.51658	1.41347	0.01778
7440.01647	1.41349	0.01792
7438.51636	1.41354	0.018
7437.01625	1.4136	0.01804
7435.51614	1.41368	0.01807
7434.01602	1.41378	0.01801
7432.51591	1.41372	0.01795
7431.0158	1.41369	0.01796
7429.51569	1.41371	0.01797
7428.01558	1.41373	0.01792
7426.51547	1.41357	0.01792
7425.01535	1.41354	0.01807
7423.51524	1.41368	0.01817
7422.01513	1.4139	0.01813
7420.51502	1.41396	0.01799
7419.01491	1.4139	0.01786
7417.51479	1.41377	0.01779
7416.01468	1.41363	0.01783
7414.51457	1.41365	0.0179
7413.01446	1.41365	0.01791
7411.51435	1.41362	0.01794
7410.01424	1.41359	0.01801
7408.51412	1.41374	0.01806
7407.01401	1.4138	0.01798
7405.5139	1.41375	0.01791
7404.01379	1.41363	0.01794
7402.51368	1.41371	0.01799
7401.01356	1.41369	0.01794
7399.51345	1.41362	0.01798
7398.01334	1.41362	0.01806
7396.51323	1.41377	0.01809
7395.01312	1.41377	0.01801
7393.51301	1.4137	0.01801
7392.01289	1.41368	0.01806
7390.51278	1.41366	0.01815
7389.01267	1.41376	0.01827
7387.51256	1.41396	0.01832
7386.01245	1.41422	0.0183
7384.51233	1.41463	0.01804
7383.01222	1.41458	0.01755
7381.51211	1.41412	0.01726
7380.012	1.4136	0.01737
7378.51189	1.41363	0.01762
7377.01178	1.41365	0.01767
7375.51166	1.41362	0.01773
7374.01155	1.41364	0.01777
7372.51144	1.41361	0.01782
7371.01133	1.4137	0.0179
7369.51122	1.41383	0.01787
7368.0111	1.41388	0.01777
7366.51099	1.41381	0.01769
7365.01088	1.41373	0.01766
7363.51077	1.41367	0.01767
7362.01066	1.41363	0.01768
7360.51055	1.41357	0.0177
7359.01043	1.41356	0.01773
7357.51032	1.41349	0.01771
7356.01021	1.41325	0.01784
7354.5101	1.41321	0.01814
7353.00999	1.41352	0.0184
7351.50987	1.41393	0.01838
7350.00976	1.41412	0.01822
7348.50965	1.41411	0.0181
7347.00954	1.41424	0.01809
7345.50943	1.41453	0.01798
7344.00932	1.41485	0.01761
7342.5092	1.41489	0.01697
7341.00909	1.41417	0.01637
7339.50898	1.41315	0.01639
7338.00887	1.41244	0.01692
7336.50876	1.41225	0.01768
7335.00864	1.41257	0.01841
7333.50853	1.41336	0.01887
7332.00842	1.41443	0.01875
7330.50831	1.41516	0.01798
7329.0082	1.41485	0.01701
7327.50809	1.41396	0.01659
7326.00797	1.41317	0.01671
7324.50786	1.41272	0.01714
7323.00775	1.41267	0.01765
7321.50764	1.41292	0.01803
7320.00753	1.41329	0.01818
7318.50741	1.41349	0.0182
7317.0073	1.41376	0.0182
7315.50719	1.41404	0.01803
7314.00708	1.41418	0.01769
7312.50697	1.41375	0.01751
7311.00686	1.41376	0.01764
7309.50674	1.41396	0.01748
7308.00663	1.4138	0.01717
7306.50652	1.41312	0.01715
7305.00641	1.41279	0.0176
7303.5063	1.41298	0.01809
7302.00619	1.41352	0.01824
7300.50607	1.41372	0.01818
7299.00596	1.41405	0.01814
7297.50585	1.41443	0.01786
7296.00574	1.41457	0.01734
7294.50563	1.41415	0.01688
7293.00551	1.41365	0.01677
7291.5054	1.41329	0.01686
7290.00529	1.41311	0.01698
7288.50518	1.41288	0.01711
7287.00507	1.41269	0.01734
7285.50496	1.41263	0.01764
7284.00484	1.41275	0.01793
7282.50473	1.41305	0.0181
7281.00462	1.41328	0.01808
7279.50451	1.41341	0.01801
7278.0044	1.41346	0.01795
7276.50428	1.41354	0.01788
7275.00417	1.41352	0.01777
7273.50406	1.41344	0.01772
7272.00395	1.41337	0.01773
7270.50384	1.41338	0.01773
7269.00373	1.41318	0.01773
7267.50361	1.41309	0.01798
7266.0035	1.41341	0.01817
7264.50339	1.41382	0.01805
7263.00328	1.41389	0.01769
7261.50317	1.41356	0.01742
7260.00305	1.41304	0.01755
7258.50294	1.41301	0.01791
7257.00283	1.41328	0.01815
7255.50272	1.41362	0.01814
7254.00261	1.41381	0.01795
7252.5025	1.41375	0.01773
7251.00238	1.41347	0.01766
7249.50227	1.41323	0.01788
7248.00216	1.41337	0.01823
7246.50205	1.41408	0.01834
7245.00194	1.41471	0.01788
7243.50182	1.41472	0.017
7242.00171	1.41377	0.01646
7240.5016	1.41261	0.01667
7239.00149	1.41209	0.01756
7237.50138	1.41257	0.01853
7236.00127	1.41397	0.01874
7234.50115	1.41504	0.01796
7233.00104	1.41473	0.01675
7231.50093	1.41357	0.01629
7230.00082	1.41257	0.0166
7228.50071	1.41239	0.01723
7227.00059	1.41255	0.01768
7225.50048	1.41287	0.01791
7224.00037	1.41319	0.01791
7222.50026	1.41336	0.01776
7221.00015	1.41329	0.01757
7219.50004	1.41306	0.01751
7217.99992	1.41284	0.01762
7216.49981	1.41277	0.01782
7214.9997	1.41282	0.01801
7213.49959	1.41291	0.01815
7211.99948	1.41298	0.01829
7210.49936	1.41311	0.0185
7208.99925	1.41361	0.01867
7207.49914	1.41424	0.01843
7205.99903	1.41455	0.0178
7204.49892	1.41406	0.01725
7202.99881	1.41349	0.01716
7201.49869	1.41313	0.01736
7199.99858	1.41307	0.01762
7198.49847	1.41315	0.01781
7196.99836	1.41336	0.01788
7195.49825	1.4135	0.01776
7193.99813	1.41338	0.01765
7192.49802	1.41317	0.01768
7190.99791	1.4131	0.01787
7189.4978	1.41318	0.01806
7187.99769	1.41337	0.01826
7186.49758	1.41386	0.01831
7184.99746	1.41446	0.018
7183.49735	1.41461	0.01726
7181.99724	1.41396	0.01664
7180.49713	1.41296	0.01661
7178.99702	1.41235	0.01714
7177.4969	1.41231	0.01783
7175.99679	1.41277	0.01833
7174.49668	1.41336	0.0185
7172.99657	1.41396	0.01835
7171.49646	1.41435	0.01788
7169.99635	1.41429	0.01731
7168.49623	1.41377	0.01695
7166.99612	1.41323	0.01698
7165.49601	1.41298	0.01729
7163.9959	1.41315	0.01752
7162.49579	1.4134	0.01749
7160.99567	1.41334	0.01729
7159.49556	1.41309	0.01724
7157.99545	1.41286	0.01734
7156.49534	1.41278	0.01752
7154.99523	1.41273	0.0177
7153.49512	1.41279	0.01794
7151.995	1.41303	0.01809
7150.49489	1.41321	0.01815
7148.99478	1.4135	0.01816
7147.49467	1.41379	0.01799
7145.99456	1.41389	0.01772
7144.49444	1.41383	0.01749
7142.99433	1.41379	0.01729
7141.49422	1.41362	0.01703
7139.99411	1.41318	0.01694
7138.494	1.41279	0.01711
7136.99389	1.41275	0.01742
7135.49377	1.41291	0.01757
7133.99366	1.41299	0.01757
7132.49355	1.41287	0.01762
7130.99344	1.41293	0.01778
7129.49333	1.41314	0.01784
7127.99321	1.41334	0.01771
7126.4931	1.4132	0.01758
7124.99299	1.41306	0.01763
7123.49288	1.41311	0.01777
7121.99277	1.4134	0.01779
7120.49266	1.41377	0.01749
7118.99254	1.41357	0.01697
7117.49243	1.41288	0.01674
7115.99232	1.41213	0.01703
7114.49221	1.41193	0.01762
7112.9921	1.41213	0.01817
7111.49198	1.41261	0.0185
7109.99187	1.41319	0.0185
7108.49176	1.41355	0.01823
7106.99165	1.41359	0.01789
7105.49154	1.41339	0.01766
7103.99143	1.41312	0.01765
7102.49131	1.413	0.0178
7100.9912	1.41311	0.01798
7099.49109	1.41339	0.01801
7097.99098	1.41367	0.01783
7096.49087	1.41369	0.01751
7094.99076	1.4134	0.01726
7093.49064	1.41306	0.01727
7091.99053	1.41292	0.01739
7090.49042	1.41287	0.01748
7088.99031	1.41275	0.01757
7087.4902	1.41271	0.01777
7085.99008	1.41289	0.0179
7084.48997	1.41303	0.01791
7082.98986	1.4132	0.01784
7081.48975	1.41322	0.01764
7079.98964	1.41294	0.01755
7078.48953	1.41265	0.01771
7076.98941	1.41268	0.01803
7075.4893	1.413	0.01821
7073.98919	1.41341	0.01809
7072.48908	1.41342	0.01784
7070.98897	1.41329	0.0177
7069.48885	1.41317	0.01768
7067.98874	1.41312	0.01766
7066.48863	1.41293	0.01771
7064.98852	1.41293	0.01788
7063.48841	1.41309	0.01795
7061.9883	1.41324	0.01792
7060.48818	1.41331	0.01781
7058.98807	1.41324	0.0177
7057.48796	1.41315	0.01768
7055.98785	1.41312	0.01766
7054.48774	1.41298	0.01765
7052.98762	1.41282	0.01776
7051.48751	1.41284	0.01799
7049.9874	1.41313	0.01808
7048.48729	1.41333	0.01799
7046.98718	1.41337	0.01781
7045.48707	1.41322	0.01766
7043.98695	1.41293	0.01771
7042.48684	1.41286	0.01793
7040.98673	1.41308	0.01813
7039.48662	1.41338	0.01808
7037.98651	1.4135	0.01789
7036.48639	1.41336	0.01774
7034.98628	1.41327	0.01772
7033.48617	1.41321	0.01772
7031.98606	1.41314	0.01778
7030.48595	1.41318	0.01787
7028.98584	1.41331	0.0179
7027.48572	1.41342	0.01783
7025.98561	1.41346	0.01773
7024.4855	1.41347	0.01761
7022.98539	1.41336	0.01748
7021.48528	1.41316	0.01744
7019.98516	1.41294	0.01757
7018.48505	1.41305	0.01771
7016.98494	1.41314	0.0177
7015.48483	1.4131	0.01766
7013.98472	1.41297	0.01771
7012.48461	1.41293	0.01786
7010.98449	1.41311	0.01801
7009.48438	1.41337	0.01799
7007.98427	1.41353	0.01783
7006.48416	1.41353	0.01762
7004.98405	1.41337	0.01745
7003.48393	1.41314	0.01742
7001.98382	1.41293	0.01752
7000.48371	1.41284	0.01772
6998.9836	1.41297	0.01792
6997.48349	1.41319	0.01796
6995.98338	1.41332	0.01787
6994.48326	1.41325	0.01782
6992.98315	1.41324	0.01789
6991.48304	1.4134	0.01797
6989.98293	1.4137	0.01789
6988.48282	1.41386	0.01763
6986.9827	1.41383	0.01732
6985.48259	1.41357	0.01704
6983.98248	1.41314	0.01696
6982.48237	1.41279	0.01712
6980.98226	1.41265	0.01741
6979.48215	1.41273	0.01769
6977.98203	1.41301	0.01785
6976.48192	1.41335	0.01777
6974.98181	1.41341	0.0175
6973.4817	1.41319	0.01732
6971.98159	1.41287	0.01737
6970.48147	1.41278	0.01757
6968.98136	1.41291	0.01775
6967.48125	1.41312	0.01777
6965.98114	1.41323	0.01765
6964.48103	1.41313	0.01754
6962.98092	1.41298	0.01755
6961.4808	1.41295	0.01767
6959.98069	1.41307	0.01774
6958.48058	1.41317	0.01771
6956.98047	1.41318	0.01764
6955.48036	1.41317	0.01762
6953.98024	1.41319	0.01756
6952.48013	1.41308	0.01751
6950.98002	1.41303	0.01753
6949.47991	1.41299	0.01754
6947.9798	1.41291	0.01759
6946.47969	1.41286	0.01768
6944.97957	1.4129	0.0178
6943.47946	1.41303	0.01788
6941.97935	1.41318	0.01784
6940.47924	1.41316	0.01779
6938.97913	1.4132	0.01779
6937.47901	1.41322	0.01776
6935.9789	1.41319	0.01779
6934.47879	1.41335	0.01779
6932.97868	1.41343	0.01766
6931.47857	1.41334	0.01752
6929.97846	1.41312	0.01754
6928.47834	1.41309	0.01769
6926.97823	1.41327	0.0178
6925.47812	1.41347	0.01772
6923.97801	1.41347	0.01759
6922.4779	1.41338	0.01756
6920.97778	1.4135	0.01758
6919.47767	1.41368	0.01742
6917.97756	1.41367	0.01714
6916.47745	1.41333	0.01694
6914.97734	1.41298	0.01698
6913.47723	1.41277	0.01718
6911.97711	1.41277	0.01741
6910.477	1.41291	0.01755
6908.97689	1.41303	0.01758
6907.47678	1.41312	0.01757
6905.97667	1.41319	0.01751
6904.47656	1.4131	0.01747
6902.97644	1.41309	0.01752
6901.47633	1.41315	0.01754
6899.97622	1.4132	0.01753
6898.47611	1.41328	0.01748
6896.976	1.41327	0.0174
6895.47588	1.41323	0.01735
6893.97577	1.41318	0.01729
6892.47566	1.413	0.0173
6890.97555	1.41296	0.01743
6889.47544	1.41306	0.01753
6887.97533	1.41321	0.01751
6886.47521	1.4132	0.01744
6884.9751	1.41317	0.01744
6883.47499	1.41323	0.01746
6881.97488	1.41335	0.01736
6880.47477	1.41318	0.01728
6878.97465	1.41312	0.01736
6877.47454	1.41321	0.0174
6875.97443	1.41332	0.01735
6874.47432	1.41329	0.01727
6872.97421	1.41327	0.01723
6871.4741	1.41329	0.0172
6869.97398	1.41332	0.01709
6868.47387	1.4132	0.01697
6866.97376	1.41298	0.01693
6865.47365	1.41277	0.01706
6863.97354	1.41272	0.01727
6862.47342	1.4129	0.01744
6860.97331	1.41315	0.01745
6859.4732	1.4133	0.01729
6857.97309	1.41323	0.01711
6856.47298	1.41299	0.01709
6854.97287	1.413	0.01722
6853.47275	1.41312	0.0172
6851.97264	1.4131	0.01715
6850.47253	1.41308	0.01714
6848.97242	1.41318	0.01711
6847.47231	1.41318	0.01694
6845.97219	1.41295	0.01687
6844.47208	1.41279	0.01694
6842.97197	1.4127	0.01706
6841.47186	1.41273	0.01721
6839.97175	1.4129	0.01728
6838.47164	1.41307	0.01722
6836.97152	1.41308	0.01708
6835.47141	1.41297	0.017
6833.9713	1.41288	0.01702
6832.47119	1.41292	0.01703
6830.97108	1.41287	0.01698
6829.47096	1.41281	0.01701
6827.97085	1.41285	0.01701
6826.47074	1.4128	0.01697
6824.97063	1.41269	0.01698
6823.47052	1.41265	0.01708
6821.97041	1.41274	0.01714
6820.47029	1.41282	0.01709
6818.97018	1.41276	0.01703
6817.47007	1.41268	0.01704
6815.96996	1.41266	0.01708
6814.46985	1.41269	0.0171
6812.96973	1.41263	0.01709
6811.46962	1.41257	0.01716
6809.96951	1.41261	0.01726
6808.4694	1.41274	0.0173
6806.96929	1.41288	0.01725
6805.46918	1.41292	0.01711
6803.96906	1.41281	0.01701
6802.46895	1.41269	0.01701
6800.96884	1.41264	0.01707
6799.46873	1.41264	0.01711
6797.96862	1.41265	0.01714
6796.4685	1.41266	0.01717
6794.96839	1.41274	0.01719
6793.46828	1.41283	0.01713
6791.96817	1.41284	0.01703
6790.46806	1.41278	0.01694
6788.96795	1.41267	0.01689
6787.46783	1.41255	0.01689
6785.96772	1.41248	0.01692
6784.46761	1.41236	0.01697
6782.9675	1.4123	0.01709
6781.46739	1.41228	0.0172
6779.96727	1.41228	0.01737
6778.46716	1.41254	0.01748
6776.96705	1.41271	0.0174
6775.46694	1.41274	0.0173
6773.96683	1.41269	0.01726
6772.46672	1.4127	0.01725
6770.9666	1.41273	0.01725
6769.46649	1.41276	0.01722
6767.96638	1.41279	0.01719
6766.46627	1.41286	0.01713
6764.96616	1.41282	0.01703
6763.46604	1.41275	0.017
6761.96593	1.41275	0.01697
6760.46582	1.41271	0.0169
6758.96571	1.41253	0.01686
6757.4656	1.4124	0.01699
6755.96549	1.4125	0.0171
6754.46537	1.41268	0.01707
6752.96526	1.41266	0.01692
6751.46515	1.4125	0.01686
6749.96504	1.41235	0.01692
6748.46493	1.41233	0.01702
6746.96481	1.41244	0.01707
6745.4647	1.41244	0.01697
6743.96459	1.41223	0.01699
6742.46448	1.41216	0.01716
6740.96437	1.41229	0.01732
6739.46426	1.41252	0.01733
6737.96414	1.41266	0.0172
6736.46403	1.41262	0.01702
6734.96392	1.4124	0.01692
6733.46381	1.41218	0.01702
6731.9637	1.41215	0.01717
6730.46358	1.4122	0.01729
6728.96347	1.41219	0.01738
6727.46336	1.41226	0.01756
6725.96325	1.41254	0.01764
6724.46314	1.41282	0.01756
6722.96303	1.41297	0.01736
6721.46291	1.41297	0.01715
6719.9628	1.41287	0.01698
6718.46269	1.41271	0.01689
6716.96258	1.41259	0.01687
6715.46247	1.41248	0.01688
6713.96236	1.41236	0.01695
6712.46224	1.41232	0.01706
6710.96213	1.41239	0.01717
6709.46202	1.41252	0.01718
6707.96191	1.41261	0.01712
6706.4618	1.4126	0.01703
6704.96168	1.41253	0.01698
6703.46157	1.41249	0.017
6701.96146	1.41255	0.01697
6700.46135	1.41256	0.01687
6698.96124	1.41242	0.01676
6697.46113	1.4122	0.01677
6695.96101	1.41201	0.0169
6694.4609	1.4119	0.01713
6692.96079	1.41208	0.01738
6691.46068	1.41234	0.01742
6689.96057	1.41247	0.01737
6688.46045	1.41255	0.01731
6686.96034	1.41265	0.01724
6685.46023	1.41271	0.0171
6683.96012	1.41266	0.01696
6682.46001	1.41252	0.01688
6680.9599	1.41244	0.01687
6679.45978	1.41234	0.01684
6677.95967	1.41215	0.0169
6676.45956	1.41207	0.01707
6674.95945	1.41213	0.01724
6673.45934	1.4123	0.01734
6671.95922	1.41251	0.01735
6670.45911	1.41275	0.01719
6668.959	1.41269	0.01692
6667.45889	1.41243	0.01682
6665.95878	1.41218	0.01693
6664.45867	1.41224	0.0171
6662.95855	1.41233	0.01716
6661.45844	1.41244	0.01719
6659.95833	1.41259	0.01713
6658.45822	1.41262	0.01698
6656.95811	1.41249	0.01688
6655.45799	1.41236	0.01692
6653.95788	1.41239	0.01699
6652.45777	1.41249	0.01698
6650.95766	1.41255	0.01689
6649.45755	1.41252	0.01676
6647.95744	1.41238	0.01665
6646.45732	1.41211	0.01665
6644.95721	1.41195	0.01683
6643.4571	1.41199	0.01704
6641.95699	1.41221	0.0171
6640.45688	1.41229	0.01704
6638.95676	1.41227	0.01697
6637.45665	1.4122	0.01696
6635.95654	1.41215	0.017
6634.45643	1.41214	0.01707
6632.95632	1.41227	0.01711
6631.45621	1.41235	0.01701
6629.95609	1.41222	0.01695
6628.45598	1.41208	0.01704
6626.95587	1.41218	0.01719
6625.45576	1.41242	0.0172
6623.95565	1.4126	0.01699
6622.45553	1.41237	0.0168
6620.95542	1.41212	0.01685
6619.45531	1.41208	0.01704
6617.9552	1.41231	0.01711
6616.45509	1.4124	0.01703
6614.95498	1.41239	0.01693
6613.45486	1.41233	0.01688
6611.95475	1.41227	0.01686
6610.45464	1.41214	0.0169
6608.95453	1.41216	0.01701
6607.45442	1.41226	0.01704
6605.9543	1.41233	0.01701
6604.45419	1.41235	0.01696
6602.95408	1.41236	0.01692
6601.45397	1.41235	0.01687
6599.95386	1.41229	0.01684
6598.45375	1.41222	0.01687
6596.95363	1.41233	0.01691
6595.45352	1.41241	0.01679
6593.95341	1.41227	0.01669
6592.4533	1.41207	0.01673
6590.95319	1.41205	0.01688
6589.45307	1.41218	0.01695
6587.95296	1.41233	0.0169
6586.45285	1.41237	0.01676
6584.95274	1.41224	0.01663
6583.45263	1.41207	0.01662
6581.95252	1.41195	0.01665
6580.4524	1.41174	0.01677
6578.95229	1.41172	0.01701
6577.45218	1.41188	0.01721
6575.95207	1.41216	0.01727
6574.45196	1.41239	0.01718
6572.95184	1.41248	0.017
6571.45173	1.41243	0.01684
6569.95162	1.4123	0.01676
6568.45151	1.41217	0.01678
6566.9514	1.4122	0.01685
6565.45129	1.41228	0.01684
6563.95117	1.41229	0.01679
6562.45106	1.41233	0.01671
6560.95095	1.41219	0.01663
6559.45084	1.41206	0.0167
6557.95073	1.4121	0.01678
6556.45061	1.41219	0.01679
6554.9505	1.41224	0.01673
6553.45039	1.41226	0.01667
6551.95028	1.41226	0.01653
6550.45017	1.41201	0.01645
6548.95006	1.41182	0.01655
6547.44994	1.41181	0.01672
6545.94983	1.41196	0.01676
6544.44972	1.41192	0.01673
6542.94961	1.41184	0.01678
6541.4495	1.41185	0.01691
6539.94938	1.41202	0.01697
6538.44927	1.41219	0.0169
6536.94916	1.41216	0.01676
6535.44905	1.41204	0.01674
6533.94894	1.412	0.0168
6532.44883	1.41217	0.0168
6530.94871	1.41214	0.01667
6529.4486	1.412	0.01664
6527.94849	1.4119	0.01672
6526.44838	1.41197	0.01682
6524.94827	1.41206	0.01683
6523.44816	1.41212	0.01679
6521.94804	1.41213	0.01673
6520.44793	1.41209	0.01669
6518.94782	1.41203	0.01669
6517.44771	1.41203	0.01674
6515.9476	1.41212	0.01676
6514.44748	1.41221	0.0167
6512.94737	1.41221	0.01659
6511.44726	1.41213	0.0165
6509.94715	1.41202	0.01645
6508.44704	1.41183	0.01651
6506.94693	1.41182	0.01667
6505.44681	1.41195	0.01675
6503.9467	1.41209	0.01671
6502.44659	1.41202	0.01667
6500.94648	1.41211	0.01669
6499.44637	1.41221	0.01658
6497.94625	1.41215	0.01646
6496.44614	1.41204	0.01641
6494.94603	1.41198	0.01642
6493.44592	1.41193	0.01643
6491.94581	1.41188	0.01647
6490.4457	1.41189	0.01653
6488.94558	1.41202	0.01656
6487.44547	1.41215	0.01645
6485.94536	1.41214	0.01624
6484.44525	1.41183	0.01614
6482.94514	1.41163	0.01624
6481.44502	1.41161	0.01639
6479.94491	1.41169	0.01645
6478.4448	1.41172	0.01643
6476.94469	1.41164	0.01641
6475.44458	1.41153	0.01648
6473.94447	1.41151	0.01664
6472.44435	1.41172	0.01675
6470.94424	1.41191	0.0167
6469.44413	1.41199	0.01655
6467.94402	1.41192	0.01641
6466.44391	1.41174	0.01636
6464.94379	1.41158	0.01644
6463.44368	1.41159	0.01662
6461.94357	1.41182	0.01668
6460.44346	1.412	0.01657
6458.94335	1.41197	0.01639
6457.44324	1.41185	0.01631
6455.94312	1.41174	0.01628
6454.44301	1.41162	0.01631
6452.9429	1.4116	0.01638
6451.44279	1.4116	0.0164
6449.94268	1.41155	0.01645
6448.44256	1.41156	0.01652
6446.94245	1.41163	0.01657
6445.44234	1.41172	0.01657
6443.94223	1.4118	0.0165
6442.44212	1.41176	0.01642
6440.94201	1.41172	0.01639
6439.44189	1.41167	0.01638
6437.94178	1.41162	0.01641
6436.44167	1.41164	0.01643
6434.94156	1.41166	0.01643
6433.44145	1.41168	0.01642
6431.94133	1.4117	0.01636
6430.44122	1.41159	0.01632
6428.94111	1.41145	0.01637
6427.441	1.41143	0.01653
6425.94089	1.4116	0.01661
6424.44078	1.41169	0.0166
6422.94066	1.41176	0.01658
6421.44055	1.41188	0.01655
6419.94044	1.41202	0.0164
6418.44033	1.41193	0.01621
6416.94022	1.41176	0.01614
6415.4401	1.41165	0.01619
6413.93999	1.41168	0.01618
6412.43988	1.41157	0.01617
6410.93977	1.41154	0.01623
6409.43966	1.41156	0.01626
6407.93955	1.41158	0.01627
6406.43943	1.4116	0.0163
6404.93932	1.41173	0.01629
6403.43921	1.41181	0.01614
6401.9391	1.41167	0.01599
6400.43899	1.41142	0.01599
6398.93887	1.41135	0.01613
6397.43876	1.41144	0.01623
6395.93865	1.41159	0.0162
6394.43854	1.41163	0.01609
6392.93843	1.41156	0.01596
6391.43832	1.41139	0.01588
6389.9382	1.41115	0.01596
6388.43809	1.41108	0.01613
6386.93798	1.41117	0.01629
6385.43787	1.41134	0.01633
6383.93776	1.41147	0.01623
6382.43764	1.41138	0.01613
6380.93753	1.4113	0.01614
6379.43742	1.41128	0.01618
6377.93731	1.4113	0.01621
6376.4372	1.41132	0.01623
6374.93709	1.41139	0.01624
6373.43697	1.41147	0.01618
6371.93686	1.41148	0.01605
6370.43675	1.41131	0.01599
6368.93664	1.4112	0.01605
6367.43653	1.41124	0.01614
6365.93641	1.41139	0.01609
6364.4363	1.4113	0.01597
6362.93619	1.41112	0.01596
6361.43608	1.41104	0.01609
6359.93597	1.41114	0.01617
6358.43586	1.41124	0.01614
6356.93574	1.41125	0.01605
6355.43563	1.41114	0.01599
6353.93552	1.41096	0.01608
6352.43541	1.41102	0.01622
6350.9353	1.41123	0.01626
6349.43518	1.41133	0.01611
6347.93507	1.4112	0.016
6346.43496	1.41107	0.01603
6344.93485	1.41111	0.01609
6343.43474	1.41118	0.01604
6341.93463	1.41112	0.01596
6340.43451	1.411	0.01596
6338.9344	1.41098	0.016
6337.43429	1.411	0.01599
6335.93418	1.41095	0.01594
6334.43407	1.41078	0.01594
6332.93395	1.41062	0.01607
6331.43384	1.41059	0.01628
6329.93373	1.41077	0.01645
6328.43362	1.41106	0.01646
6326.93351	1.41111	0.01631
6325.4334	1.41104	0.01626
6323.93328	1.41101	0.0163
6322.43317	1.41116	0.01631
6320.93306	1.41124	0.0162
6319.43295	1.41121	0.01607
6317.93284	1.4111	0.01598
6316.43273	1.41091	0.016
6314.93261	1.41087	0.01611
6313.4325	1.41089	0.01618
6311.93239	1.41093	0.01627
6310.43228	1.41114	0.01629
6308.93217	1.4113	0.01616
6307.43205	1.41126	0.01594
6305.93194	1.41101	0.01587
6304.43183	1.41087	0.01597
6302.93172	1.41102	0.01606
6301.43161	1.41112	0.01591
6299.9315	1.41092	0.01582
6298.43138	1.41073	0.01588
6296.93127	1.41074	0.01602
6295.43116	1.41082	0.01605
6293.93105	1.41084	0.01605
6292.43094	1.41086	0.01603
6290.93082	1.41083	0.016
6289.43071	1.41078	0.01601
6287.9306	1.41074	0.01607
6286.43049	1.41082	0.01611
6284.93038	1.41087	0.01609
6283.43027	1.4109	0.01605
6281.93015	1.41091	0.01598
6280.43004	1.41081	0.01594
6278.92993	1.41073	0.01598
6277.42982	1.41074	0.01605
6275.92971	1.41082	0.01605
6274.42959	1.41086	0.016
6272.92948	1.41077	0.01594
6271.42937	1.4107	0.01599
6269.92926	1.41073	0.01603
6268.42915	1.41075	0.01605
6266.92904	1.41083	0.01605
6265.42892	1.41087	0.01597
6263.92881	1.41082	0.0159
6262.4287	1.4107	0.01589
6260.92859	1.41068	0.01595
6259.42848	1.41074	0.01599
6257.92836	1.41081	0.01592
6256.42825	1.4107	0.01587
6254.92814	1.41069	0.0159
6253.42803	1.41071	0.01587
6251.92792	1.41066	0.01584
6250.42781	1.41062	0.01584
6248.92769	1.41059	0.01583
6247.42758	1.41052	0.01582
6245.92747	1.41042	0.01587
6244.42736	1.41036	0.01597
6242.92725	1.41041	0.01609
6241.42713	1.4105	0.01614
6239.92702	1.41058	0.01616
6238.42691	1.41066	0.01616
6236.9268	1.41075	0.01613
6235.42669	1.41082	0.01605
6233.92658	1.41084	0.01597
6232.42646	1.41089	0.01585
6230.92635	1.41079	0.01571
6229.42624	1.41056	0.01566
6227.92613	1.41035	0.01582
6226.42602	1.41047	0.01601
6224.9259	1.41075	0.01602
6223.42579	1.41088	0.01579
6221.92568	1.41067	0.01562
6220.42557	1.41043	0.01563
6218.92546	1.41038	0.01575
6217.42535	1.4104	0.01579
6215.92523	1.41036	0.01586
6214.42512	1.41043	0.01591
6212.92501	1.41048	0.0159
6211.4249	1.41049	0.01589
6209.92479	1.41052	0.01589
6208.42467	1.41062	0.01584
6206.92456	1.41058	0.01573
6205.42445	1.41046	0.01569
6203.92434	1.41038	0.01575
6202.42423	1.41047	0.01579
6200.92412	1.41054	0.01572
6199.424	1.41049	0.0156
6197.92389	1.4103	0.01556
6196.42378	1.41012	0.01564
6194.92367	1.41006	0.01581
6193.42356	1.41017	0.01596
6191.92344	1.41038	0.01597
6190.42333	1.41041	0.01591
6188.92322	1.41048	0.01588
6187.42311	1.41056	0.0158
6185.923	1.41056	0.01564
6184.42289	1.41033	0.01556
6182.92277	1.41022	0.01564
6181.42266	1.41021	0.01571
6179.92255	1.41025	0.01576
6178.42244	1.41035	0.01573
6176.92233	1.41031	0.01565
6175.42221	1.41018	0.01564
6173.9221	1.4101	0.01575
6172.42199	1.41025	0.01582
6170.92188	1.41031	0.01578
6169.42177	1.41033	0.01573
6167.92166	1.41035	0.01565
6166.42154	1.41026	0.01558
6164.92143	1.41008	0.0156
6163.42132	1.41002	0.01576
6161.92121	1.4102	0.01585
6160.4211	1.41036	0.01581
6158.92098	1.41043	0.01569
6157.42087	1.41043	0.01557
6155.92076	1.41038	0.01544
6154.42065	1.41022	0.01537
6152.92054	1.41009	0.01538
6151.42043	1.41002	0.01542
6149.92031	1.40998	0.01545
6148.4202	1.40993	0.01549
6146.92009	1.40994	0.01553
6145.41998	1.40995	0.01553
6143.91987	1.4099	0.01551
6142.41975	1.4098	0.01555
6140.91964	1.40978	0.01566
6139.41953	1.40983	0.01574
6137.91942	1.40992	0.01578
6136.41931	1.41002	0.01576
6134.9192	1.41006	0.0157
6133.41908	1.41006	0.01564
6131.91897	1.41002	0.0156
6130.41886	1.40998	0.0156
6128.91875	1.41005	0.0156
6127.41864	1.41008	0.0155
6125.91853	1.40996	0.01541
6124.41841	1.4098	0.01541
6122.9183	1.40971	0.0155
6121.41819	1.40973	0.0156
6119.91808	1.40982	0.01561
6118.41797	1.40978	0.0156
6116.91785	1.40979	0.01562
6115.41774	1.4098	0.01561
6113.91763	1.40977	0.01562
6112.41752	1.40979	0.01564
6110.91741	1.40982	0.01564
6109.4173	1.40982	0.01561
6107.91718	1.40978	0.01562
6106.41707	1.40981	0.01563
6104.91696	1.40985	0.01561
6103.41685	1.40983	0.01554
6101.91674	1.40973	0.01553
6100.41662	1.40968	0.01559
6098.91651	1.40975	0.01564
6097.4164	1.4098	0.0156
6095.91629	1.40976	0.01557
6094.41618	1.40973	0.01556
6092.91607	1.40969	0.01558
6091.41595	1.40967	0.01563
6089.91584	1.40971	0.01569
6088.41573	1.40987	0.0157
6086.91562	1.40995	0.01559
6085.41551	1.40993	0.01546
6083.91539	1.40983	0.01539
6082.41528	1.40973	0.01537
6080.91517	1.40968	0.01539
6079.41506	1.40962	0.01538
6077.91495	1.40953	0.01544
6076.41484	1.40955	0.01552
6074.91472	1.40964	0.01555
6073.41461	1.40969	0.0155
6071.9145	1.40965	0.01546
6070.41439	1.40961	0.01544
6068.91428	1.40958	0.01544
6067.41416	1.40955	0.01545
6065.91405	1.40954	0.01548
6064.41394	1.40957	0.01549
6062.91383	1.40956	0.01546
6061.41372	1.40949	0.01545
6059.91361	1.40941	0.01554
6058.41349	1.40956	0.0156
6056.91338	1.40959	0.01554
6055.41327	1.40954	0.01553
6053.91316	1.40952	0.01558
6052.41305	1.4096	0.01563
6050.91293	1.40976	0.01561
6049.41282	1.40985	0.01547
6047.91271	1.4098	0.01534
6046.4126	1.40971	0.01527
6044.91249	1.40968	0.01523
6043.41238	1.40962	0.01514
6041.91226	1.40946	0.01513
6040.41215	1.40936	0.01518
6038.91204	1.40931	0.01524
6037.41193	1.40931	0.01531
6035.91182	1.40935	0.01535
6034.4117	1.40939	0.01534
6032.91159	1.40938	0.01531
6031.41148	1.40932	0.0153
6029.91137	1.40924	0.01537
6028.41126	1.40932	0.01544
6026.91115	1.40944	0.01542
6025.41103	1.40947	0.01531
6023.91092	1.40936	0.01522
6022.41081	1.40913	0.01529
6020.9107	1.40916	0.01548
6019.41059	1.40935	0.01554
6017.91047	1.40949	0.01549
6016.41036	1.40954	0.01539
6014.91025	1.40952	0.01531
6013.41014	1.4095	0.01525
6011.91003	1.40947	0.0152
6010.40992	1.40937	0.01518
6008.9098	1.40937	0.01521
6007.40969	1.40943	0.01518
6005.90958	1.40945	0.01504
6004.40947	1.40917	0.015
6002.90936	1.40909	0.01516
6001.40924	1.40921	0.01525
5999.90913	1.40935	0.01518
5998.40902	1.4092	0.01511
5996.90891	1.40916	0.01518
5995.4088	1.40924	0.01521
5993.90869	1.40933	0.01515
5992.40857	1.40924	0.01506
5990.90846	1.40914	0.01507
5989.40835	1.40913	0.01515
5987.90824	1.40923	0.01515
5986.40813	1.4092	0.01512
5984.90801	1.40928	0.01511
5983.4079	1.40932	0.01499
5981.90779	1.40921	0.01488
5980.40768	1.40906	0.01487
5978.90757	1.409	0.01491
5977.40746	1.40896	0.01493
5975.90734	1.40887	0.01498
5974.40723	1.40884	0.01508
5972.90712	1.40895	0.01519
5971.40701	1.40911	0.01516
5969.9069	1.40918	0.01501
5968.40678	1.40895	0.01498
5966.90667	1.40901	0.01509
5965.40656	1.40917	0.01504
5963.90645	1.40917	0.01491
5962.40634	1.40901	0.01487
5960.90623	1.40905	0.01491
5959.40611	1.40914	0.01483
5957.906	1.40909	0.01469
5956.40589	1.40888	0.01462
5954.90578	1.40875	0.01468
5953.40567	1.4087	0.01475
5951.90555	1.40869	0.01483
5950.40544	1.40873	0.01489
5948.90533	1.40881	0.01491
5947.40522	1.40893	0.01487
5945.90511	1.40901	0.01471
5944.405	1.40889	0.01455
5942.90488	1.40868	0.01449
5941.40477	1.40852	0.01453
5939.90466	1.40844	0.0146
5938.40455	1.40835	0.01469
5936.90444	1.40836	0.01481
5935.40433	1.40844	0.0149
5933.90421	1.40855	0.0149
5932.4041	1.40859	0.01487
5930.90399	1.40864	0.01484
5929.40388	1.40869	0.01478
5927.90377	1.40874	0.01468
5926.40365	1.40875	0.01451
5924.90354	1.40855	0.01435
5923.40343	1.40832	0.01434
5921.90332	1.4082	0.01438
5920.40321	1.40805	0.01443
5918.9031	1.40796	0.01453
5917.40298	1.40788	0.01462
5915.90287	1.40781	0.01476
5914.40276	1.40783	0.01492
5912.90265	1.40796	0.01503
5911.40254	1.40812	0.01504
5909.90242	1.4082	0.01499
5908.40231	1.40817	0.01495
5906.9022	1.40818	0.01495
5905.40209	1.40825	0.01495
5903.90198	1.40835	0.01486
5902.40187	1.40834	0.01471
5900.90175	1.40818	0.01458
5899.40164	1.40796	0.01457
5897.90153	1.40776	0.01469
5896.40142	1.40773	0.01487
5894.90131	1.40786	0.01501
5893.40119	1.40799	0.015
5891.90108	1.40802	0.01494
5890.40097	1.40799	0.01492
5888.90086	1.40803	0.0149
5887.40075	1.40801	0.01481
5885.90064	1.40786	0.01477
5884.40052	1.40771	0.01485
5882.90041	1.4077	0.01498
5881.4003	1.40777	0.01505
5879.90019	1.40781	0.01507
5878.40008	1.4078	0.01508
5876.89996	1.40777	0.01513
5875.39985	1.40782	0.01523
5873.89974	1.408	0.01523
5872.39963	1.40805	0.01516
5870.89952	1.40804	0.01511
5869.39941	1.40804	0.0151
5867.89929	1.40809	0.01508
5866.39918	1.40814	0.01501
5864.89907	1.40809	0.01491
5863.39896	1.40799	0.01488
5861.89885	1.40791	0.0149
5860.39873	1.40787	0.01495
5858.89862	1.40789	0.015
5857.39851	1.40793	0.01503
5855.8984	1.40798	0.01505
5854.39829	1.40809	0.01503
5852.89818	1.40816	0.01492
5851.39806	1.40813	0.01477
5849.89795	1.40796	0.0147
5848.39784	1.4078	0.01475
5846.89773	1.40785	0.01485
5845.39762	1.40794	0.01482
5843.8975	1.4079	0.01474
5842.39739	1.40774	0.01474
5840.89728	1.40773	0.01483
5839.39717	1.40779	0.01485
5837.89706	1.40783	0.01483
5836.39695	1.40782	0.01479
5834.89683	1.40776	0.01476
5833.39672	1.40769	0.01479
5831.89661	1.40768	0.01485
5830.3965	1.40779	0.01488
5828.89639	1.40788	0.0148
5827.39627	1.40785	0.01468
5825.89616	1.4077	0.01462
5824.39605	1.40755	0.01466
5822.89594	1.40754	0.01477
5821.39583	1.40759	0.01482
5819.89572	1.40764	0.01482
5818.3956	1.4077	0.01477
5816.89549	1.40759	0.01472
5815.39538	1.4075	0.0148
5813.89527	1.40758	0.01489
5812.39516	1.40777	0.01486
5810.89504	1.40778	0.0147
5809.39493	1.40766	0.01462
5807.89482	1.40752	0.01464
5806.39471	1.40749	0.01472
5804.8946	1.40759	0.01475
5803.39449	1.40761	0.01466
5801.89437	1.40747	0.01463
5800.39426	1.40739	0.0147
5798.89415	1.40738	0.01481
5797.39404	1.40748	0.01491
5795.89393	1.40766	0.01492
5794.39381	1.40784	0.01482
5792.8937	1.40789	0.01464
5791.39359	1.40785	0.01448
5789.89348	1.40775	0.01431
5788.39337	1.40748	0.01427
5786.89326	1.40738	0.01436
5785.39314	1.4074	0.01439
5783.89303	1.40738	0.01435
5782.39292	1.40725	0.01433
5780.89281	1.40713	0.01441
5779.3927	1.40713	0.01454
5777.89258	1.40725	0.01456
5776.39247	1.40726	0.01452
5774.89236	1.4072	0.01452
5773.39225	1.4072	0.01458
5771.89214	1.40732	0.01457
5770.39203	1.40737	0.01449
5768.89191	1.40738	0.01438
5767.3918	1.40729	0.01425
5765.89169	1.40707	0.01421
5764.39158	1.40686	0.0143
5762.89147	1.40684	0.01447
5761.39135	1.40691	0.01456
5759.89124	1.40697	0.01462
5758.39113	1.40707	0.01464
5756.89102	1.40719	0.01459
5755.39091	1.40722	0.01447
5753.8908	1.40713	0.01439
5752.39068	1.40705	0.01437
5750.89057	1.40702	0.01439
5749.39046	1.40702	0.01438
5747.89035	1.40701	0.01436
5746.39024	1.40702	0.01433
5744.89013	1.40697	0.01427
5743.39001	1.4069	0.01424
5741.8899	1.40683	0.01423
5740.38979	1.40675	0.01424
5738.88968	1.40665	0.01429
5737.38957	1.40665	0.01439
5735.88945	1.40676	0.0144
5734.38934	1.40676	0.01435
5732.88923	1.4067	0.01431
5731.38912	1.40664	0.01433
5729.88901	1.40664	0.01434
5728.3889	1.40664	0.01433
5726.88878	1.40661	0.0143
5725.38867	1.40654	0.01429
5723.88856	1.40648	0.01433
5722.38845	1.40652	0.01433
5720.88834	1.40648	0.01427
5719.38822	1.40633	0.01424
5717.88811	1.40613	0.01435
5716.388	1.40608	0.01455
5714.88789	1.40625	0.01472
5713.38778	1.40645	0.01472
5711.88767	1.40655	0.01461
5710.38755	1.40649	0.01453
5708.88744	1.40646	0.0145
5707.38733	1.40643	0.01446
5705.88722	1.40633	0.01443
5704.38711	1.40617	0.0145
5702.88699	1.40621	0.01465
5701.38688	1.40631	0.01468
5699.88677	1.40636	0.01466
5698.38666	1.40636	0.01463
5696.88655	1.40634	0.01461
5695.38644	1.4063	0.01461
5693.88632	1.40624	0.01467
5692.38621	1.40628	0.01476
5690.8861	1.40643	0.01479
5689.38599	1.40656	0.01471
5687.88588	1.40658	0.01458
5686.38576	1.40649	0.01448
5684.88565	1.40641	0.01443
5683.38554	1.40631	0.0144
5681.88543	1.40617	0.01444
5680.38532	1.40609	0.01456
5678.88521	1.40621	0.01468
5677.38509	1.40633	0.01464
5675.88498	1.4063	0.01456
5674.38487	1.40617	0.01457
5672.88476	1.40615	0.01467
5671.38465	1.40627	0.01474
5669.88453	1.40641	0.01468
5668.38442	1.40634	0.01458
5666.88431	1.40624	0.0146
5665.3842	1.40626	0.0147
5663.88409	1.40644	0.01468
5662.38398	1.40648	0.01457
5660.88386	1.4064	0.01448
5659.38375	1.40634	0.0145
5657.88364	1.40638	0.0145
5656.38353	1.40643	0.01443
5654.88342	1.40631	0.01436
5653.3833	1.40626	0.01442
5651.88319	1.40639	0.0144
5650.38308	1.4064	0.01427
5648.88297	1.40624	0.01418
5647.38286	1.4061	0.01423
5645.88275	1.40611	0.0143
5644.38263	1.40624	0.01425
5642.88252	1.40614	0.01411
5641.38241	1.40589	0.01409
5639.8823	1.40567	0.01426
5638.38219	1.40572	0.01449
5636.88207	1.40593	0.01461
5635.38196	1.40613	0.01458
5633.88185	1.40623	0.01447
5632.38174	1.40625	0.01435
5630.88163	1.40621	0.01423
5629.38152	1.4061	0.01414
5627.8814	1.40596	0.01415
5626.38129	1.40596	0.01417
5624.88118	1.40589	0.01415
5623.38107	1.40581	0.01417
5621.88096	1.40577	0.01424
5620.38084	1.40586	0.01426
5618.88073	1.40584	0.0142
5617.38062	1.40575	0.0142
5615.88051	1.40568	0.01426
5614.3804	1.40575	0.01431
5612.88029	1.40579	0.01429
5611.38017	1.40572	0.01424
5609.88006	1.40557	0.01435
5608.37995	1.40567	0.01452
5606.87984	1.40599	0.01454
5605.37973	1.40617	0.01431
5603.87961	1.40605	0.01411
5602.3795	1.40594	0.01402
5600.87939	1.40587	0.01395
5599.37928	1.40571	0.01386
5597.87917	1.40545	0.01392
5596.37906	1.40539	0.01408
5594.87894	1.40547	0.01418
5593.37883	1.40555	0.01418
5591.87872	1.40555	0.01414
5590.37861	1.40552	0.0141
5588.8785	1.40546	0.01408
5587.37838	1.40535	0.0141
5585.87827	1.40527	0.01421
5584.37816	1.40536	0.01431
5582.87805	1.40547	0.0143
5581.37794	1.40549	0.01423
5579.87783	1.40539	0.01423
5578.37771	1.40544	0.01427
5576.8776	1.4055	0.01424
5575.37749	1.4055	0.01417
5573.87738	1.40541	0.01414
5572.37727	1.40536	0.01415
5570.87715	1.40537	0.01417
5569.37704	1.40536	0.01412
5567.87693	1.40527	0.01409
5566.37682	1.40508	0.01415
5564.87671	1.40505	0.01432
5563.3766	1.40514	0.01445
5561.87648	1.4053	0.01452
5560.37637	1.40552	0.01447
5558.87626	1.40557	0.0143
5557.37615	1.40547	0.01419
5555.87604	1.40534	0.01419
5554.37592	1.40534	0.01422
5552.87581	1.40533	0.01422
5551.3757	1.4053	0.01424
5549.87559	1.40531	0.0143
5548.37548	1.40542	0.01432
5546.87537	1.40548	0.01426
5545.37525	1.40552	0.0142
5543.87514	1.40553	0.0141
5542.37503	1.40546	0.01402
5540.87492	1.40533	0.01401
5539.37481	1.40534	0.01409
5537.8747	1.40548	0.01404
5536.37458	1.40546	0.0139
5534.87447	1.40528	0.01383
5533.37436	1.40514	0.01391
5531.87425	1.40517	0.014
5530.37414	1.4053	0.01398
5528.87402	1.40523	0.0139
5527.37391	1.40515	0.01393
5525.8738	1.40521	0.01395
5524.37369	1.4053	0.01388
5522.87358	1.4052	0.01375
5521.37347	1.40501	0.01373
5519.87335	1.40486	0.01387
5518.37324	1.40501	0.01396
5516.87313	1.40503	0.01393
5515.37302	1.40497	0.01394
5513.87291	1.40497	0.01403
5512.37279	1.40512	0.01408
5510.87268	1.40538	0.014
5509.37257	1.40547	0.0137
5507.87246	1.40523	0.01344
5506.37235	1.40482	0.01339
5504.87224	1.40452	0.01359
5503.37212	1.40452	0.01391
5501.87201	1.40481	0.01405
5500.3719	1.405	0.014
5498.87179	1.40498	0.01392
5497.37168	1.40501	0.01397
5495.87156	1.40526	0.01394
5494.37145	1.4056	0.01364
5492.87134	1.40535	0.01316
5491.37123	1.40487	0.013
5489.87112	1.4045	0.01309
5488.37101	1.40431	0.01324
5486.87089	1.40412	0.01342
5485.37078	1.40402	0.01369
5483.87067	1.40409	0.01397
5482.37056	1.4043	0.01418
5480.87045	1.40454	0.01432
5479.37033	1.40504	0.01439
5477.87022	1.40568	0.01395
5476.37011	1.40564	0.01317
5474.87	1.4047	0.01271
5473.36989	1.40381	0.01308
5471.86978	1.40372	0.01375
5470.36966	1.4043	0.01413
5468.86955	1.40474	0.01403
5467.36944	1.40483	0.01378
5465.86933	1.40469	0.0137
5464.36922	1.40478	0.01369
5462.8691	1.40497	0.01352
5461.36899	1.40483	0.01318
5459.86888	1.40431	0.01311
5458.36877	1.40401	0.01332
5456.86866	1.40393	0.01362
5455.36855	1.40401	0.01389
5453.86843	1.40424	0.01414
5452.36832	1.40474	0.01422
5450.86821	1.40519	0.014
5449.3681	1.40544	0.01356
5447.86799	1.40536	0.01304
5446.36787	1.40485	0.01272
5444.86776	1.40443	0.01272
5443.36765	1.40421	0.01284
5441.86754	1.40409	0.01287
5440.36743	1.40365	0.01311
5438.86732	1.40388	0.01357
5437.3672	1.40442	0.01362
5435.86709	1.40478	0.01321
5434.36698	1.40428	0.0129
5432.86687	1.40398	0.01305
5431.36676	1.40419	0.01324
5429.86664	1.40461	0.01288
5428.36653	1.40401	0.01243
5426.86642	1.40312	0.01257
5425.36631	1.40276	0.01331
5423.8662	1.4032	0.01384
5422.36609	1.40363	0.01401
5420.86597	1.40383	0.01406
5419.36586	1.40412	0.01421
5417.86575	1.40474	0.01421
5416.36564	1.40561	0.0137
5414.86553	1.4057	0.0127
5413.36541	1.40502	0.01186
5411.8653	1.40386	0.0116
5410.36519	1.40283	0.01201
5408.86508	1.4025	0.0128
5407.36497	1.40278	0.01349
5405.86486	1.40339	0.01378
5404.36474	1.40391	0.01367
5402.86463	1.40397	0.01341
5401.36452	1.40385	0.01336
5399.86441	1.4039	0.01348
5398.3643	1.40439	0.01344
5396.86418	1.40481	0.01297
5395.36407	1.40462	0.01219
5393.86396	1.40361	0.01181
5392.36385	1.40244	0.01226
5390.86374	1.4024	0.01327
5389.36363	1.40331	0.01387
5387.86351	1.40449	0.01343
5386.3634	1.40439	0.01255
5384.86329	1.40335	0.01214
5383.36318	1.40253	0.01267
5381.86307	1.40264	0.01351
5380.36295	1.40376	0.01383
5378.86284	1.40469	0.01327
5377.36273	1.40462	0.0122
5375.86262	1.4035	0.01167
5374.36251	1.40234	0.012
5372.8624	1.40208	0.01284
5371.36228	1.40254	0.01347
5369.86217	1.40325	0.01358
5368.36206	1.40357	0.01337
5366.86195	1.4037	0.01313
5365.36184	1.40372	0.01289
5363.86172	1.40362	0.01261
5362.36161	1.40316	0.01249
5360.8615	1.40274	0.01273
5359.36139	1.4027	0.01321
5357.86128	1.40321	0.01363
5356.36117	1.40431	0.01339
5354.86105	1.40455	0.01246
5353.36094	1.40376	0.01171
5351.86083	1.40252	0.0119
5350.36072	1.40221	0.01273
5348.86061	1.40299	0.01336
5347.3605	1.4041	0.01311
5345.86038	1.40449	0.01205
5344.36027	1.40307	0.01143
5342.86016	1.40221	0.01199
5341.36005	1.40257	0.01278
5339.85994	1.40374	0.01251
5338.35982	1.40358	0.01164
5336.85971	1.40236	0.01129
5335.3596	1.40152	0.01198
5333.85949	1.4018	0.01272
5332.35938	1.40249	0.01301
5330.85927	1.40306	0.01281
5329.35915	1.40329	0.01233
5327.85904	1.40304	0.01178
5326.35893	1.40219	0.01164
5324.85882	1.40169	0.01204
5323.35871	1.40171	0.01253
5321.85859	1.40208	0.01277
5320.35848	1.40232	0.01277
5318.85837	1.40251	0.01266
5317.35826	1.40253	0.01247
5315.85815	1.40237	0.01237
5314.35804	1.40222	0.0124
5312.85792	1.40214	0.01253
5311.35781	1.4023	0.01268
5309.8577	1.40267	0.01255
5308.35759	1.40273	0.01218
5306.85748	1.40226	0.01191
5305.35736	1.4018	0.01208
5303.85725	1.40175	0.01242
5302.35714	1.40209	0.01256
5300.85703	1.40231	0.01241
5299.35692	1.40218	0.01217
5297.85681	1.40182	0.01219
5296.35669	1.40167	0.01245
5294.85658	1.40195	0.0127
5293.35647	1.40244	0.01263
5291.85636	1.4027	0.01214
5290.35625	1.40215	0.01173
5288.85613	1.40157	0.01181
5287.35602	1.40141	0.01221
5285.85591	1.40171	0.01237
5284.3558	1.40183	0.0123
5282.85569	1.40179	0.0122
5281.35558	1.40168	0.01217
5279.85546	1.40159	0.0122
5278.35535	1.4015	0.01228
5276.85524	1.40152	0.01239
5275.35513	1.40161	0.01246
5273.85502	1.40172	0.01247
5272.3549	1.40186	0.0124
5270.85479	1.40185	0.01229
5269.35468	1.40182	0.01225
5267.85457	1.40192	0.01227
5266.35446	1.40238	0.01199
5264.85435	1.4023	0.01135
5263.35423	1.40149	0.01083
5261.85412	1.40027	0.01109
5260.35401	1.3997	0.01202
5258.8539	1.40034	0.01294
5257.35379	1.4014	0.01304
5255.85367	1.402	0.01238
5254.35356	1.40128	0.01192
5252.85345	1.40073	0.01223
5251.35334	1.40106	0.01278
5249.85323	1.40208	0.01258
5248.35312	1.40223	0.01185
5246.853	1.40164	0.01126
5245.35289	1.40086	0.01119
5243.85278	1.4003	0.01151
5242.35267	1.40008	0.01202
5240.85256	1.40036	0.01248
5239.35244	1.40077	0.0126
5237.85233	1.40104	0.01254
5236.35222	1.40119	0.01241
5234.85211	1.40137	0.01221
5233.352	1.40131	0.01187
5231.85189	1.4009	0.01172
5230.35177	1.40048	0.01195
5228.85166	1.40084	0.01225
5227.35155	1.40124	0.012
5225.85144	1.40112	0.01153
5224.35133	1.40035	0.01142
5222.85121	1.39995	0.01183
5221.3511	1.40013	0.01226
5219.85099	1.40061	0.01226
5218.35088	1.40058	0.01204
5216.85077	1.40025	0.012
5215.35066	1.40003	0.01227
5213.85054	1.40018	0.01261
5212.35043	1.40062	0.01282
5210.85032	1.40133	0.01268
5209.35021	1.40186	0.01201
5207.8501	1.40166	0.01102
5206.34998	1.40026	0.01053
5204.84987	1.39907	0.01102
5203.34976	1.39874	0.01206
5201.84965	1.39943	0.01281
5200.34954	1.40041	0.01289
5198.84943	1.40083	0.01239
5197.34931	1.4006	0.0119
5195.8492	1.40001	0.01188
5194.34909	1.39988	0.01215
5192.84898	1.40005	0.01236
5191.34887	1.40025	0.01237
5189.84875	1.40037	0.01234
5188.34864	1.40058	0.01221
5186.84853	1.40068	0.01192
5185.34842	1.40038	0.01158
5183.84831	1.39982	0.01164
5182.3482	1.39969	0.01196
5180.84808	1.3999	0.01217
5179.34797	1.40013	0.01213
5177.84786	1.40014	0.012
5176.34775	1.39999	0.01196
5174.84764	1.39999	0.01201
5173.34752	1.40003	0.012
5171.84741	1.40002	0.01193
5170.3473	1.39987	0.01196
5168.84719	1.3999	0.01208
5167.34708	1.40008	0.01211
5165.84697	1.40026	0.01199
5164.34685	1.4003	0.01177
5162.84674	1.4001	0.01159
5161.34663	1.39988	0.01159
5159.84652	1.39981	0.01167
5158.34641	1.39991	0.01171
5156.8463	1.39998	0.01161
5155.34618	1.39994	0.01147
5153.84607	1.3998	0.01139
5152.34596	1.39974	0.01135
5150.84585	1.39983	0.01117
5149.34574	1.39913	0.01104
5147.84562	1.39905	0.01129
5146.34551	1.39896	0.01148
5144.8454	1.39901	0.01166
5143.34529	1.39911	0.01174
5141.84518	1.39918	0.01178
5140.34507	1.39929	0.0118
5138.84495	1.39942	0.01173
5137.34484	1.3995	0.0116
5135.84473	1.39951	0.01138
5134.34462	1.39927	0.01117
5132.84451	1.39889	0.01118
5131.34439	1.39871	0.01139
5129.84428	1.39877	0.01158
5128.34417	1.39897	0.01162
5126.84406	1.39915	0.01143
5125.34395	1.39893	0.01118
5123.84384	1.39849	0.01119
5122.34372	1.39828	0.01146
5120.84361	1.39839	0.01169
5119.3435	1.39856	0.01177
5117.84339	1.39871	0.01174
5116.34328	1.39877	0.01159
5114.84316	1.39857	0.01146
5113.34305	1.3983	0.01156
5111.84294	1.39835	0.01175
5110.34283	1.39852	0.01176
5108.84272	1.39846	0.01171
5107.34261	1.39838	0.0118
5105.84249	1.39859	0.01185
5104.34238	1.39877	0.01167
5102.84227	1.39856	0.01147
5101.34216	1.39824	0.01153
5099.84205	1.39826	0.01173
5098.34193	1.3985	0.01173
5096.84182	1.39855	0.01158
5095.34171	1.39845	0.01142
5093.8416	1.3982	0.01135
5092.34149	1.39793	0.01147
5090.84138	1.39792	0.01169
5089.34126	1.39805	0.0118
5087.84115	1.39815	0.01181
5086.34104	1.39821	0.01179
5084.84093	1.39825	0.01177
5083.34082	1.3984	0.0117
5081.8407	1.39845	0.01146
5080.34059	1.39808	0.01129
5078.84048	1.39777	0.01147
5077.34037	1.39795	0.01169
5075.84026	1.39823	0.01159
5074.34015	1.3982	0.01132
5072.84003	1.39786	0.01115
5071.33992	1.39745	0.01125
5069.83981	1.39728	0.01157
5068.3397	1.39745	0.01185
5066.83959	1.39776	0.0119
5065.33947	1.39792	0.01176
5063.83936	1.39785	0.01159
5062.33925	1.39762	0.01158
5060.83914	1.39755	0.01173
5059.33903	1.3977	0.01184
5057.83892	1.39794	0.01177
5056.3388	1.39796	0.01157
5054.83869	1.3978	0.01143
5053.33858	1.39765	0.01142
5051.83847	1.39759	0.01144
5050.33836	1.3975	0.01146
5048.83824	1.39746	0.01151
5047.33813	1.39747	0.01156
5045.83802	1.39753	0.01155
5044.33791	1.39755	0.01147
5042.8378	1.39744	0.01141
5041.33769	1.39736	0.01143
5039.83757	1.39735	0.01145
5038.33746	1.39734	0.01145
5036.83735	1.39734	0.01143
5035.33724	1.39732	0.01135
5033.83713	1.39716	0.01129
5032.33701	1.39697	0.01138
5030.8369	1.39698	0.01151
5029.33679	1.39706	0.01153
5027.83668	1.39703	0.0115
5026.33657	1.39694	0.01153
5024.83646	1.39695	0.0116
5023.33634	1.39701	0.01161
5021.83623	1.39697	0.01159
5020.33612	1.39692	0.01163
5018.83601	1.39695	0.01169
5017.3359	1.39703	0.01172
5015.83578	1.39716	0.01166
5014.33567	1.39715	0.01151
5012.83556	1.39692	0.0115
5011.33545	1.39689	0.01164
5009.83534	1.39714	0.01166
5008.33523	1.39721	0.01149
5006.83511	1.39707	0.01137
5005.335	1.39695	0.01137
5003.83489	1.39692	0.0114
5002.33478	1.39695	0.0114
5000.83467	1.39696	0.01135
4999.33455	1.3969	0.0113
4997.83444	1.39689	0.01127
4996.33433	1.39684	0.01121
4994.83422	1.39671	0.01119
4993.33411	1.39662	0.01128
4991.834	1.39669	0.01134
4990.33388	1.3968	0.0113
4988.83377	1.39682	0.01118
4987.33366	1.39673	0.01107
4985.83355	1.39656	0.01104
4984.33344	1.39649	0.01109
4982.83332	1.3965	0.0111
4981.33321	1.39643	0.01109
4979.8331	1.39641	0.01112
4978.33299	1.39645	0.0111
4976.83288	1.39644	0.01103
4975.33277	1.3963	0.01098
4973.83265	1.39617	0.01102
4972.33254	1.39614	0.01111
4970.83243	1.39621	0.01116
4969.33232	1.3963	0.0111
4967.83221	1.39622	0.01099
4966.3321	1.39602	0.01102
4964.83198	1.39602	0.01112
4963.33187	1.3961	0.01115
4961.83176	1.3961	0.01114
4960.33165	1.39616	0.01114
4958.83154	1.3962	0.01104
4957.33142	1.39609	0.01099
4955.83131	1.39606	0.01103
4954.3312	1.39614	0.011
4952.83109	1.39611	0.01091
4951.33098	1.39605	0.01087
4949.83087	1.39605	0.01084
4948.33075	1.396	0.01077
4946.83064	1.3959	0.01077
4945.33053	1.39593	0.01079
4943.83042	1.39603	0.0107
4942.33031	1.39594	0.01053
4940.83019	1.39576	0.01044
4939.33008	1.39557	0.01044
4937.82997	1.3954	0.01053
4936.32986	1.39537	0.01068
4934.82975	1.3955	0.01074
4933.32964	1.39558	0.01066
4931.82952	1.39553	0.01058
4930.32941	1.39551	0.01053
4928.8293	1.39548	0.01044
4927.32919	1.39537	0.01033
4925.82908	1.39511	0.01029
4924.32896	1.39487	0.01044
4922.82885	1.3949	0.01065
4921.32874	1.39509	0.01073
4919.82863	1.39522	0.01065
4918.32852	1.3952	0.01052
4916.82841	1.3951	0.01046
4915.32829	1.39506	0.01041
4913.82818	1.39496	0.01036
4912.32807	1.3948	0.01037
4910.82796	1.39474	0.01045
4909.32785	1.39475	0.0105
4907.82773	1.39478	0.01051
4906.32762	1.39481	0.01047
4904.82751	1.39477	0.01042
4903.3274	1.39472	0.01039
4901.82729	1.39471	0.01035
4900.32718	1.39467	0.01026
4898.82706	1.39448	0.01019
4897.32695	1.39422	0.01027
4895.82684	1.39417	0.01048
4894.32673	1.39438	0.01058
4892.82662	1.39452	0.01048
4891.3265	1.39446	0.01034
4889.82639	1.39429	0.01029
4888.32628	1.39417	0.01033
4886.82617	1.39415	0.01041
4885.32606	1.39419	0.01044
4883.82595	1.39425	0.0104
4882.32583	1.39423	0.01032
4880.82572	1.39414	0.01025
4879.32561	1.39405	0.01023
4877.8255	1.39396	0.0102
4876.32539	1.39381	0.01019
4874.82527	1.39361	0.01026
4873.32516	1.39342	0.01048
4871.82505	1.39354	0.01081
4870.32494	1.39397	0.01091
4868.82483	1.3943	0.01072
4867.32472	1.39436	0.01042
4865.8246	1.39418	0.01018
4864.32449	1.39393	0.01011
4862.82438	1.39381	0.01017
4861.32427	1.39386	0.01018
4859.82416	1.39386	0.01009
4858.32404	1.39371	0.01002
4856.82393	1.39362	0.01003
4855.32382	1.39358	0.00998
4853.82371	1.39332	0.00994
4852.3236	1.39303	0.01017
4850.82349	1.3932	0.01053
4849.32337	1.39375	0.01054
4847.82326	1.39402	0.01016
4846.32315	1.3938	0.00977
4844.82304	1.39334	0.00965
4843.32293	1.39306	0.00978
4841.82281	1.393	0.00995
4840.3227	1.39299	0.01011
4838.82259	1.39319	0.01021
4837.32248	1.3935	0.01005
4835.82237	1.39346	0.00971
4834.32226	1.39307	0.00952
4832.82214	1.39272	0.00962
4831.32203	1.39266	0.00979
4829.82192	1.39269	0.00985
4828.32181	1.39264	0.00989
4826.8217	1.39263	0.00995
4825.32158	1.39269	0.00996
4823.82147	1.39269	0.00991
4822.32136	1.39267	0.00987
4820.82125	1.39267	0.00979
4819.32114	1.39251	0.00971
4817.82103	1.39231	0.00975
4816.32091	1.39227	0.00985
4814.8208	1.39225	0.00991
4813.32069	1.39228	0.00997
4811.82058	1.39237	0.00993
4810.32047	1.39228	0.00984
4808.82035	1.39209	0.00989
4807.32024	1.39211	0.01003
4805.82013	1.3922	0.01009
4804.32002	1.39231	0.0101
4802.81991	1.39251	0.01003
4801.3198	1.39265	0.00979
4799.81968	1.39251	0.00952
4798.31957	1.39225	0.00938
4796.81946	1.39204	0.00935
4795.31935	1.39182	0.00939
4793.81924	1.39171	0.00951
4792.31912	1.39179	0.00957
4790.81901	1.3918	0.00947
4789.3189	1.39159	0.00942
4787.81879	1.39144	0.00952
4786.31868	1.39157	0.00957
4784.81857	1.3916	0.00942
4783.31845	1.39132	0.0093
4781.81834	1.39099	0.0094
4780.31823	1.39086	0.00964
4778.81812	1.39094	0.00985
4777.31801	1.39115	0.00994
4775.81789	1.39137	0.00981
4774.31778	1.39129	0.00955
4772.81767	1.39087	0.00948
4771.31756	1.39058	0.00971
4769.81745	1.39063	0.00998
4768.31734	1.39075	0.01013
4766.81722	1.39091	0.01022
4765.31711	1.39112	0.0102
4763.817	1.39127	0.01005
4762.31689	1.3912	0.00988
4760.81678	1.39104	0.00982
4759.31667	1.39097	0.00986
4757.81655	1.39098	0.00987
4756.31644	1.39099	0.00984
4754.81633	1.39093	0.00979
4753.31622	1.39082	0.0098
4751.81611	1.39075	0.00986
4750.31599	1.39075	0.00996
4748.81588	1.39084	0.01003
4747.31577	1.39099	0.01004
4745.81566	1.39114	0.00995
4744.31555	1.39119	0.0098
4742.81544	1.39117	0.00966
4741.31532	1.39111	0.00954
4739.81521	1.39104	0.00945
4738.3151	1.39099	0.00937
4736.81499	1.39093	0.00928
4735.31488	1.39079	0.0092
4733.81476	1.39067	0.00917
4732.31465	1.39055	0.00915
4730.81454	1.39038	0.0092
4729.31443	1.39034	0.00933
4727.81432	1.39044	0.00938
4726.31421	1.39051	0.00934
4724.81409	1.39055	0.00928
4723.31398	1.3906	0.00917
4721.81387	1.39055	0.00902
4720.31376	1.39041	0.00893
4718.81365	1.39033	0.00889
4717.31353	1.39024	0.00883
4715.81342	1.39013	0.00881
4714.31331	1.39011	0.00878
4712.8132	1.39003	0.00866
4711.31309	1.38973	0.00862
4709.81298	1.38948	0.0088
4708.31286	1.38954	0.00904
4706.81275	1.38979	0.0091
4705.31264	1.38998	0.00899
4703.81253	1.39004	0.00876
4702.31242	1.3899	0.00851
4700.8123	1.38957	0.0084
4699.31219	1.38928	0.00852
4697.81208	1.38929	0.00868
4696.31197	1.38938	0.0087
4694.81186	1.38934	0.00866
4693.31175	1.38928	0.00869
4691.81163	1.38939	0.0087
4690.31152	1.38949	0.00857
4688.81141	1.38944	0.00839
4687.3113	1.38927	0.00826
4685.81119	1.3891	0.00822
4684.31107	1.38902	0.00822
4682.81096	1.38894	0.00817
4681.31085	1.38882	0.00815
4679.81074	1.38877	0.00811
4678.31063	1.38867	0.00803
4676.81052	1.38841	0.008
4675.3104	1.38815	0.00814
4673.81029	1.38814	0.00835
4672.31018	1.38828	0.00845
4670.81007	1.38842	0.00845
4669.30996	1.38858	0.00834
4667.80984	1.38864	0.00809
4666.30973	1.38841	0.00782
4664.80962	1.38802	0.00779
4663.30951	1.38787	0.00791
4661.8094	1.38788	0.00795
4660.30929	1.3878	0.00792
4658.80917	1.38768	0.00792
4657.30906	1.38758	0.00794
4655.80895	1.3875	0.00799
4654.30884	1.38751	0.008
4652.80873	1.38745	0.00794
4651.30861	1.38728	0.00792
4649.8085	1.38709	0.008
4648.30839	1.38707	0.00815
4646.80828	1.38716	0.00821
4645.30817	1.38721	0.00819
4643.80806	1.3872	0.00816
4642.30794	1.3872	0.00815
4640.80783	1.38731	0.0081
4639.30772	1.38742	0.0079
4637.80761	1.38728	0.0076
4636.3075	1.38686	0.00744
4634.80738	1.38644	0.00754
4633.30727	1.38626	0.0078
4631.80716	1.38633	0.00801
4630.30705	1.38645	0.00807
4628.80694	1.38651	0.00806
4627.30683	1.38652	0.00803
4625.80671	1.38657	0.008
4624.3066	1.38665	0.00786
4622.80649	1.38654	0.00767
4621.30638	1.38626	0.00762
4619.80627	1.38618	0.00771
4618.30615	1.38634	0.00767
4616.80604	1.38631	0.00744
4615.30593	1.38603	0.00726
4613.80582	1.38568	0.00725
4612.30571	1.38541	0.00739
4610.8056	1.38537	0.00757
4609.30548	1.38543	0.00763
4607.80537	1.38544	0.00759
4606.30526	1.38535	0.00753
4604.80515	1.38524	0.0075
4603.30504	1.38512	0.00747
4601.80492	1.38494	0.00748
4600.30481	1.3848	0.00754
4598.8047	1.38467	0.00763
4597.30459	1.38457	0.00775
4595.80448	1.38458	0.00787
4594.30437	1.38466	0.00792
4592.80425	1.38466	0.0079
4591.30414	1.38465	0.0079
4589.80403	1.38467	0.00788
4588.30392	1.38467	0.00779
4586.80381	1.38455	0.00768
4585.30369	1.38433	0.00768
4583.80358	1.38418	0.0078
4582.30347	1.38426	0.00791
4580.80336	1.38439	0.00785
4579.30325	1.38438	0.00769
4577.80314	1.3842	0.00755
4576.30302	1.38393	0.00753
4574.80291	1.38373	0.00765
4573.3028	1.38373	0.00776
4571.80269	1.38374	0.00777
4570.30258	1.38366	0.00775
4568.80247	1.38357	0.00776
4567.30235	1.3835	0.00779
4565.80224	1.38346	0.0078
4564.30213	1.38335	0.0078
4562.80202	1.38324	0.00787
4561.30191	1.38326	0.00795
4559.80179	1.38335	0.0079
4558.30168	1.38324	0.00777
4556.80157	1.38296	0.00776
4555.30146	1.38274	0.00794
4553.80135	1.38279	0.00817
4552.30124	1.38302	0.00825
4550.80112	1.38324	0.00812
4549.30101	1.3832	0.00785
4547.8009	1.38289	0.00769
4546.30079	1.38254	0.00778
4544.80068	1.38249	0.00797
4543.30056	1.38254	0.00802
4541.80045	1.38247	0.00805
4540.30034	1.38246	0.00812
4538.80023	1.38251	0.00812
4537.30012	1.38246	0.00809
4535.80001	1.38243	0.00812
4534.29989	1.38249	0.00809
4532.79978	1.38245	0.00799
4531.29967	1.3823	0.00794
4529.79956	1.38219	0.00796
4528.29945	1.38213	0.00799
4526.79933	1.38206	0.00803
4525.29922	1.38208	0.00807
4523.79911	1.38215	0.00803
4522.299	1.38211	0.00792
4520.79889	1.382	0.00785
4519.29878	1.38187	0.0078
4517.79866	1.38169	0.0078
4516.29855	1.38159	0.00788
4514.79844	1.38158	0.00793
4513.29833	1.38153	0.00795
4511.79822	1.3815	0.00798
4510.2981	1.38153	0.00797
4508.79799	1.38152	0.0079
4507.29788	1.38145	0.00784
4505.79777	1.38137	0.00778
4504.29766	1.38122	0.00774
4502.79755	1.3811	0.00777
4501.29743	1.38104	0.00777
4499.79732	1.38092	0.00776
4498.29721	1.38075	0.00784
4496.7971	1.38074	0.00798
4495.29699	1.38089	0.00801
4493.79687	1.38098	0.00788
4492.29676	1.38088	0.00769
4490.79665	1.38061	0.00757
4489.29654	1.38026	0.00764
4487.79643	1.38009	0.00787
4486.29632	1.38019	0.00808
4484.7962	1.38038	0.00811
4483.29609	1.38045	0.00798
4481.79598	1.38032	0.00789
4480.29587	1.38022	0.00788
4478.79576	1.38021	0.00786
4477.29564	1.38014	0.00778
4475.79553	1.37993	0.00774
4474.29542	1.3797	0.00785
4472.79531	1.37972	0.00805
4471.2952	1.37995	0.00808
4469.79509	1.38003	0.00789
4468.29497	1.37984	0.00773
4466.79486	1.37963	0.00773
4465.29475	1.37953	0.00777
4463.79464	1.37946	0.00779
4462.29453	1.37941	0.0078
4460.79441	1.37935	0.00775
4459.2943	1.37918	0.00772
4457.79419	1.37898	0.00778
4456.29408	1.37884	0.00794
4454.79397	1.37886	0.00811
4453.29386	1.37902	0.00819
4451.79374	1.37916	0.00808
4450.29363	1.37903	0.00791
4448.79352	1.3787	0.00796
4447.29341	1.37863	0.0082
4445.7933	1.37887	0.00835
4444.29318	1.37913	0.00827
4442.79307	1.37925	0.00803
4441.29296	1.37911	0.00778
4439.79285	1.37882	0.00769
4438.29274	1.37866	0.00775
4436.79263	1.37868	0.0078
4435.29251	1.37873	0.00774
4433.7924	1.37869	0.00761
4432.29229	1.37857	0.00748
4430.79218	1.37837	0.00738
4429.29207	1.37809	0.00738
4427.79195	1.37793	0.00749
4426.29184	1.37797	0.00754
4424.79173	1.3779	0.00745
4423.29162	1.37763	0.00745
4421.79151	1.37747	0.00761
4420.2914	1.37753	0.00772
4418.79128	1.37758	0.00768
4417.29117	1.37747	0.00763
4415.79106	1.37733	0.00764
4414.29095	1.3772	0.0077
4412.79084	1.37714	0.00782
4411.29072	1.37721	0.00789
4409.79061	1.37726	0.00786
4408.2905	1.3772	0.00781
4406.79039	1.37711	0.00782
4405.29028	1.37711	0.00786
4403.79017	1.37721	0.00782
4402.29005	1.37721	0.00768
4400.78994	1.37704	0.00757
4399.28983	1.37686	0.00757
4397.78972	1.37681	0.0076
4396.28961	1.37678	0.00758
4394.78949	1.37672	0.00752
4393.28938	1.37659	0.00746
4391.78927	1.37641	0.00747
4390.28916	1.37628	0.00754
4388.78905	1.37626	0.00762
4387.28894	1.37629	0.00762
4385.78882	1.37622	0.00759
4384.28871	1.37614	0.00762
4382.7886	1.37621	0.00761
4381.28849	1.37623	0.00745
4379.78838	1.37596	0.00732
4378.28827	1.37567	0.0074
4376.78815	1.3756	0.00754
4375.28804	1.37561	0.00763
4373.78793	1.3756	0.00767
4372.28782	1.37562	0.00771
4370.78771	1.37567	0.0077
4369.28759	1.37569	0.00767
4367.78748	1.37575	0.00761
4366.28737	1.3758	0.00744
4364.78726	1.37567	0.00724
4363.28715	1.37541	0.00715
4361.78704	1.37526	0.00717
4360.28692	1.37516	0.00713
4358.78681	1.37493	0.00714
4357.2867	1.37476	0.00728
4355.78659	1.3748	0.00742
4354.28648	1.37492	0.00748
4352.78636	1.37513	0.0074
4351.28625	1.37526	0.0071
4349.78614	1.37499	0.00677
4348.28603	1.37455	0.00669
4346.78592	1.37433	0.00678
4345.28581	1.37423	0.00681
4343.78569	1.37402	0.00683
4342.28558	1.37383	0.00697
4340.78547	1.37386	0.00713
4339.28536	1.37401	0.00713
4337.78525	1.37405	0.00698
4336.28513	1.37389	0.00684
4334.78502	1.37367	0.00678
4333.28491	1.37345	0.00681
4331.7848	1.3733	0.0069
4330.28469	1.37324	0.007
4328.78458	1.37327	0.00705
4327.28446	1.37331	0.00701
4325.78435	1.37328	0.0069
4324.28424	1.37314	0.00678
4322.78413	1.3729	0.00671
4321.28402	1.37258	0.00679
4319.7839	1.37245	0.007
4318.28379	1.37256	0.00714
4316.78368	1.37264	0.00711
4315.28357	1.37255	0.00705
4313.78346	1.37246	0.00707
4312.28335	1.37243	0.00711
4310.78323	1.37246	0.00712
4309.28312	1.37256	0.00705
4307.78301	1.37256	0.00684
4306.2829	1.3723	0.00666
4304.78279	1.37196	0.00668
4303.28267	1.37183	0.00682
4301.78256	1.37186	0.0069
4300.28245	1.37189	0.00688
4298.78234	1.37188	0.0068
4297.28223	1.37181	0.00668
4295.78212	1.37159	0.0066
4294.282	1.37139	0.00664
4292.78189	1.37134	0.00669
4291.28178	1.37132	0.00665
4289.78167	1.37117	0.00659
4288.28156	1.37098	0.00663
4286.78144	1.37093	0.00671
4285.28133	1.37095	0.00671
4283.78122	1.37088	0.00665
4282.28111	1.37077	0.00663
4280.781	1.3707	0.00663
4279.28089	1.37066	0.00661
4277.78077	1.37062	0.00655
4276.28066	1.37052	0.00645
4274.78055	1.37035	0.00638
4273.28044	1.37021	0.00637
4271.78033	1.37008	0.00635
4270.28021	1.36989	0.00635
4268.7801	1.36975	0.00642
4267.27999	1.36976	0.00648
4265.77988	1.36978	0.0064
4264.27977	1.36964	0.00629
4262.77966	1.36942	0.00628
4261.27954	1.36933	0.00632
4259.77943	1.36929	0.00626
4258.27932	1.36908	0.00618
4256.77921	1.36883	0.00624
4255.2791	1.36875	0.00632
4253.77898	1.36868	0.00632
4252.27887	1.36849	0.00633
4250.77876	1.36832	0.00643
4249.27865	1.36829	0.00655
4247.77854	1.36832	0.00659
4246.27843	1.36826	0.00655
4244.77831	1.36811	0.00658
4243.2782	1.36805	0.00672
4241.77809	1.36824	0.00677
4240.27798	1.3684	0.00661
4238.77787	1.36832	0.00635
4237.27775	1.36804	0.00619
4235.77764	1.36776	0.00618
4234.27753	1.36761	0.00623
4232.77742	1.36749	0.00625
4231.27731	1.36733	0.00631
4229.7772	1.36729	0.00642
4228.27708	1.36741	0.00642
4226.77697	1.36743	0.00626
4225.27686	1.36722	0.00613
4223.77675	1.36703	0.0061
4222.27664	1.36691	0.0061
4220.77652	1.36677	0.00609
4219.27641	1.36665	0.00612
4217.7763	1.36663	0.00612
4216.27619	1.36661	0.00603
4214.77608	1.36647	0.00591
4213.27597	1.36625	0.00585
4211.77585	1.36606	0.00585
4210.27574	1.36595	0.00586
4208.77563	1.36586	0.00583
4207.27552	1.36571	0.00576
4205.77541	1.36547	0.00573
4204.27529	1.36525	0.00578
4202.77518	1.36513	0.00586
4201.27507	1.36505	0.00588
4199.77496	1.36495	0.00586
4198.27485	1.36476	0.00584
4196.77474	1.36455	0.00589
4195.27462	1.36442	0.00599
4193.77451	1.36436	0.00607
4192.2744	1.3643	0.0061
4190.77429	1.36422	0.00613
4189.27418	1.36418	0.00615
4187.77407	1.36418	0.00614
4186.27395	1.36415	0.00603
4184.77384	1.364	0.0059
4183.27373	1.36374	0.00583
4181.77362	1.36347	0.00587
4180.27351	1.36328	0.00599
4178.77339	1.36322	0.0061
4177.27328	1.36324	0.00614
4175.77317	1.36323	0.00607
4174.27306	1.36306	0.00597
4172.77295	1.36279	0.00598
4171.27284	1.36262	0.00611
4169.77272	1.36266	0.00621
4168.27261	1.3627	0.00613
4166.7725	1.36256	0.00602
4165.27239	1.36237	0.00599
4163.77228	1.36222	0.00596
4162.27216	1.36198	0.00598
4160.77205	1.36182	0.00608
4159.27194	1.36179	0.00614
4157.77183	1.36171	0.00613
4156.27172	1.36159	0.00615
4154.77161	1.36152	0.00616
4153.27149	1.36146	0.00613
4151.77138	1.36133	0.00608
4150.27127	1.3612	0.00606
4148.77116	1.36106	0.00603
4147.27105	1.36088	0.00603
4145.77093	1.36075	0.00606
4144.27082	1.36065	0.00605
4142.77071	1.3605	0.00603
4141.2706	1.36032	0.00604
4139.77049	1.36016	0.00607
4138.27038	1.36001	0.00611
4136.77026	1.35987	0.00617
4135.27015	1.35973	0.00623
4133.77004	1.35963	0.00634
4132.26993	1.35965	0.00641
4130.76982	1.35968	0.00636
4129.2697	1.3596	0.00628
4127.76959	1.35951	0.0062
4126.26948	1.3594	0.00608
4124.76937	1.35911	0.00596
4123.26926	1.35874	0.00601
4121.76915	1.35854	0.00617
4120.26903	1.35848	0.0063
4118.76892	1.35844	0.00633
4117.26881	1.3583	0.00634
4115.7687	1.35814	0.00642
4114.26859	1.35814	0.00651
4112.76847	1.35819	0.00648
4111.26836	1.35809	0.00637
4109.76825	1.35788	0.00632
4108.26814	1.35772	0.00634
4106.76803	1.35761	0.00637
4105.26792	1.35752	0.00636
4103.7678	1.35739	0.00633
4102.26769	1.35721	0.00632
4100.76758	1.35706	0.00635
4099.26747	1.35695	0.00636
4097.76736	1.35682	0.00636
4096.26724	1.35667	0.00636
4094.76713	1.35651	0.00638
4093.26702	1.35635	0.00641
4091.76691	1.35618	0.00646
4090.2668	1.35605	0.00657
4088.76669	1.35602	0.00667
4087.26657	1.35612	0.00666
4085.76646	1.35611	0.00653
4084.26635	1.35596	0.00637
4082.76624	1.35572	0.00626
4081.26613	1.35542	0.00624
4079.76601	1.35515	0.00632
4078.2659	1.35503	0.00644
4076.76579	1.35503	0.00647
4075.26568	1.35493	0.00638
4073.76557	1.35469	0.00631
4072.26546	1.35442	0.00633
4070.76534	1.35417	0.00641
4069.26523	1.354	0.00654
4067.76512	1.35392	0.00665
4066.26501	1.35385	0.00669
4064.7649	1.35373	0.0067
4063.26478	1.35355	0.00675
4061.76467	1.3534	0.00685
4060.26456	1.35335	0.00693
4058.76445	1.3533	0.00697
4057.26434	1.35318	0.00701
4055.76423	1.35315	0.00707
4054.26411	1.35319	0.00706
4052.764	1.35315	0.00696
4051.26389	1.35301	0.00686
4049.76378	1.35284	0.0068
4048.26367	1.3527	0.00676
4046.76355	1.35252	0.0067
4045.26344	1.35228	0.00669
4043.76333	1.3521	0.00673
4042.26322	1.35197	0.00676
4040.76311	1.35183	0.00675
4039.263	1.35167	0.00675
4037.76288	1.35149	0.00672
4036.26277	1.35124	0.00674
4034.76266	1.35102	0.00683
4033.26255	1.35088	0.00692
4031.76244	1.35073	0.00699
4030.26232	1.35053	0.0071
4028.76221	1.35048	0.00727
4027.2621	1.35056	0.00733
4025.76199	1.3506	0.00724
4024.26188	1.35044	0.00712
4022.76177	1.35017	0.00712
4021.26165	1.35005	0.0072
4019.76154	1.35005	0.0072
4018.26143	1.34993	0.00711
4016.76132	1.34972	0.00707
4015.26121	1.3495	0.00709
4013.76109	1.34933	0.00716
4012.26098	1.34928	0.00719
4010.76087	1.34921	0.00714
4009.26076	1.349	0.00705
4007.76065	1.34869	0.00707
4006.26054	1.34845	0.00722
4004.76042	1.3484	0.00738
4003.26031	1.34847	0.00742
4001.7602	1.34848	0.00731
4000.26009	1.34828	0.00717
3998.75998	1.34797	0.00716
3997.25986	1.34779	0.00726
3995.75975	1.34773	0.0073
3994.25964	1.34763	0.00729
3992.75953	1.34752	0.00727
3991.25942	1.34739	0.00721
3989.75931	1.34715	0.00717
3988.25919	1.34695	0.00722
3986.75908	1.34684	0.00725
3985.25897	1.34669	0.00725
3983.75886	1.34654	0.00727
3982.25875	1.3464	0.00728
3980.75864	1.34627	0.0073
3979.25852	1.34617	0.00731
3977.75841	1.34613	0.00724
3976.2583	1.34597	0.0071
3974.75819	1.34563	0.00701
3973.25808	1.34528	0.00708
3971.75796	1.3451	0.00722
3970.25785	1.34501	0.0073
3968.75774	1.34492	0.00733
3967.25763	1.34483	0.00734
3965.75752	1.34478	0.00728
3964.25741	1.34462	0.00714
3962.75729	1.34426	0.00708
3961.25718	1.34397	0.00718
3959.75707	1.34387	0.00726
3958.25696	1.3437	0.00726
3956.75685	1.34346	0.00733
3955.25673	1.34344	0.00744
3953.75662	1.34351	0.00736
3952.25651	1.34339	0.00712
3950.7564	1.34299	0.00691
3949.25629	1.3424	0.00693
3947.75618	1.34197	0.00722
3946.25606	1.34195	0.00753
3944.75595	1.34208	0.00756
3943.25584	1.34188	0.00744
3941.75573	1.3415	0.00754
3940.25562	1.34142	0.00775
3938.7555	1.34147	0.0078
3937.25539	1.34138	0.00778
3935.75528	1.34136	0.00776
3934.25517	1.34134	0.0076
3932.75506	1.34107	0.00738
3931.25495	1.34058	0.00735
3929.75483	1.34023	0.00754
3928.25472	1.34023	0.00771
3926.75461	1.34026	0.00764
3925.2545	1.33998	0.00753
3923.75439	1.3397	0.00758
3922.25427	1.33962	0.00758
3920.75416	1.33939	0.00747
3919.25405	1.33896	0.00747
3917.75394	1.33857	0.00762
3916.25383	1.33824	0.00793
3914.75372	1.33829	0.0083
3913.2536	1.33859	0.0084
3911.75349	1.33868	0.00824
3910.25338	1.33853	0.00813
3908.75327	1.33852	0.00808
3907.25316	1.33868	0.00784
3905.75304	1.33856	0.0073
3904.25293	1.33776	0.00687
3902.75282	1.33677	0.00699
3901.25271	1.33633	0.00743
3899.7526	1.3361	0.00781
3898.25249	1.33598	0.00823
3896.75237	1.33624	0.00852
3895.25226	1.33662	0.00849
3893.75215	1.33679	0.00812
3892.25204	1.33638	0.00767
3890.75193	1.3356	0.00775
3889.25181	1.33558	0.00811
3887.7517	1.336	0.00789
3886.25159	1.33547	0.0074
3884.75148	1.33445	0.00763
3883.25137	1.33453	0.00813
3881.75126	1.33486	0.00804
3880.25114	1.33442	0.00787
3878.75103	1.3341	0.00811
3877.25092	1.33446	0.00818
3875.75081	1.33457	0.00773
3874.2507	1.33385	0.00746
3872.75058	1.33361	0.00756
3871.25047	1.33362	0.00722
3869.75036	1.33253	0.00709
3868.25025	1.33207	0.00769
3866.75014	1.33253	0.00782
3865.25003	1.3323	0.00741
3863.74991	1.3314	0.00746
3862.2498	1.33105	0.00792
3860.74969	1.3311	0.0083
3859.24958	1.33134	0.00849
3857.74947	1.33184	0.00835
3856.24935	1.33221	0.00762
3854.74924	1.33155	0.00649
3853.24913	1.32934	0.00635
3851.74902	1.32822	0.00762
3850.24891	1.32878	0.00863
3848.7488	1.32945	0.00888
3847.24868	1.32998	0.00865
3845.74857	1.33012	0.00806
3844.24846	1.32955	0.00754
3842.74835	1.32891	0.00742
3841.24824	1.32861	0.00737
3839.74812	1.32813	0.00717
3838.24801	1.32728	0.00722
3836.7479	1.32669	0.00766
3835.24779	1.32664	0.00807
3833.74768	1.32663	0.00819
3832.24757	1.32639	0.00826
3830.74745	1.32619	0.00844
3829.24734	1.32623	0.00854
3827.74723	1.32622	0.00846
3826.24712	1.32602	0.0084
3824.74701	1.3261	0.0083
3823.24689	1.32619	0.00769
3821.74678	1.32501	0.00706
3820.24667	1.32344	0.00765
3818.74656	1.32362	0.00851
3817.24645	1.32404	0.00845
3815.74634	1.32334	0.00835
3814.24622	1.32291	0.00885
3812.74611	1.32322	0.00919
3811.246	1.32356	0.00912
3809.74589	1.32372	0.0087
3808.24578	1.32329	0.00811
3806.74566	1.32217	0.00809
3805.24555	1.32195	0.00856
3803.74544	1.32255	0.00833
3802.24533	1.32183	0.00752
3800.74522	1.32002	0.00776
3799.24511	1.31978	0.00871
3797.74499	1.32024	0.00897
3796.24488	1.31992	0.00892
3794.74477	1.31962	0.00918
3793.24466	1.31978	0.00934
3791.74455	1.31983	0.0092
3790.24444	1.31963	0.00901
3788.74432	1.31938	0.00885
3787.24421	1.31913	0.00864
3785.7441	1.31858	0.00844
3784.24399	1.31789	0.00855
3782.74388	1.31768	0.00882
3781.24376	1.31774	0.00878
3779.74365	1.31732	0.00851
3778.24354	1.31662	0.00857
3776.74343	1.31635	0.00885
3775.24332	1.31634	0.00891
3773.74321	1.31626	0.00875
3772.24309	1.31601	0.00842
3770.74298	1.31529	0.00811
3769.24287	1.31437	0.00828
3767.74276	1.31408	0.00861
3766.24265	1.31383	0.00866
3764.74253	1.31331	0.00883
3763.24242	1.31323	0.00911
3761.74231	1.31341	0.00899
3760.2422	1.31307	0.00857
3758.74209	1.3123	0.00842
3757.24198	1.31168	0.00861
3755.74186	1.31155	0.00885
3754.24175	1.3118	0.00863
3752.74164	1.31151	0.00782
3751.24153	1.30999	0.00725
3749.74142	1.30815	0.00781
3748.2413	1.30776	0.00897
3746.74119	1.30861	0.0093
3745.24108	1.30832	0.00864
3743.74097	1.30658	0.0088
3742.24086	1.30629	0.00985
3740.74075	1.30698	0.01027
3739.24063	1.30741	0.00988
3737.74052	1.30718	0.00909
3736.24041	1.30587	0.00847
3734.7403	1.30428	0.00881
3733.24019	1.30368	0.00963
3731.74007	1.30357	0.01022
3730.23996	1.30372	0.01053
3728.73985	1.30393	0.01035
3727.23974	1.30347	0.0099
3725.73963	1.30253	0.00979
3724.23952	1.30186	0.00999
3722.7394	1.30133	0.01019
3721.23929	1.30079	0.01044
3719.73918	1.3004	0.01076
3718.23907	1.30026	0.011
3716.73896	1.30023	0.01102
3715.23884	1.30015	0.01075
3713.73873	1.29973	0.01019
3712.23862	1.29844	0.00978
3710.73851	1.29699	0.01015
3709.2384	1.29642	0.0109
3707.73829	1.29634	0.01135
3706.23817	1.29629	0.01143
3704.73806	1.29603	0.01123
3703.23795	1.29535	0.01094
3701.73784	1.29423	0.01097
3700.23773	1.29343	0.01141
3698.73761	1.29315	0.01176
3697.2375	1.29279	0.01184
3695.73739	1.29223	0.01193
3694.23728	1.29188	0.01198
3692.73717	1.29148	0.01177
3691.23706	1.29065	0.01145
3689.73694	1.28936	0.01135
3688.23683	1.28794	0.01177
3686.73672	1.28709	0.01257
3685.23661	1.28684	0.01319
3683.7365	1.28658	0.01347
3682.23638	1.28622	0.01357
3680.73627	1.28572	0.01355
3679.23616	1.28508	0.0135
3677.73605	1.28454	0.01323
3676.23594	1.28294	0.01283
3674.73583	1.28072	0.01366
3673.23571	1.28035	0.01496
3671.7356	1.28061	0.01518
3670.23549	1.27936	0.01498
3668.73538	1.27759	0.01575
3667.23527	1.27704	0.01694
3665.73515	1.27699	0.01767
3664.23504	1.2767	0.018
3662.73493	1.27616	0.01823
3661.23482	1.27548	0.0185
3659.73471	1.27486	0.01876
3658.2346	1.27416	0.01883
3656.73448	1.27273	0.01902
3655.23437	1.27121	0.01997
3653.73426	1.27093	0.0211
3652.23415	1.2711	0.02139
3650.73404	1.27009	0.0211
3649.23392	1.26802	0.02147
3647.73381	1.26641	0.02278
3646.2337	1.26566	0.02435
3644.73359	1.26558	0.02564
3643.23348	1.26553	0.02641
3641.73337	1.26503	0.02695
3640.23325	1.26438	0.02761
3638.73314	1.26377	0.02836
3637.23303	1.26323	0.02913
3635.73292	1.26268	0.02983
3634.23281	1.26195	0.03059
3632.73269	1.26142	0.03154
3631.23258	1.26144	0.03221
3629.73247	1.26076	0.03234
3628.23236	1.25892	0.03306
3626.73225	1.25813	0.03464
3625.23214	1.25808	0.03593
3623.73202	1.2579	0.03682
3622.23191	1.25751	0.0376
3620.7318	1.25703	0.03835
3619.23169	1.25628	0.0392
3617.73158	1.25562	0.04035
3616.23146	1.25538	0.04155
3614.73135	1.25528	0.04251
3613.23124	1.25491	0.04333
3611.73113	1.2545	0.04428
3610.23102	1.25425	0.0452
3608.73091	1.25373	0.04605
3607.23079	1.25309	0.04722
3605.73068	1.25302	0.04858
3604.23057	1.25331	0.04961
3602.73046	1.25333	0.05027
3601.23035	1.25294	0.0509
3599.73024	1.25244	0.05179
3598.23012	1.25222	0.05283
3596.73001	1.25208	0.05372
3595.2299	1.2517	0.05456
3593.72979	1.25122	0.0556
3592.22968	1.25102	0.05683
3590.72956	1.25118	0.05796
3589.22945	1.25128	0.05877
3587.72934	1.25093	0.05949
3586.22923	1.25045	0.06054
3584.72912	1.25034	0.06184
3583.22901	1.25056	0.06303
3581.72889	1.25087	0.06398
3580.22878	1.25098	0.06469
3578.72867	1.25084	0.06541
3577.22856	1.25063	0.06625
3575.72845	1.25043	0.06722
3574.22833	1.2503	0.0683
3572.72822	1.25041	0.06946
3571.22811	1.25079	0.07048
3569.728	1.25119	0.07115
3568.22789	1.25102	0.07156
3566.72778	1.25032	0.07237
3565.22766	1.25011	0.07374
3563.72755	1.25053	0.07505
3562.22744	1.25097	0.07597
3560.72733	1.25117	0.07672
3559.22722	1.25123	0.07749
3557.7271	1.25129	0.07836
3556.22699	1.25145	0.07925
3554.72688	1.25163	0.08007
3553.22677	1.25168	0.08085
3551.72666	1.25172	0.08175
3550.22655	1.25199	0.08271
3548.72643	1.25234	0.08348
3547.22632	1.25244	0.08408
3545.72621	1.25224	0.08481
3544.2261	1.25218	0.08585
3542.72599	1.25247	0.08696
3541.22587	1.25293	0.08789
3539.72576	1.25331	0.08863
3538.22565	1.25355	0.08928
3536.72554	1.2537	0.08994
3535.22543	1.25376	0.09065
3533.72532	1.2538	0.09146
3532.2252	1.25395	0.09236
3530.72509	1.25423	0.09325
3529.22498	1.25452	0.09402
3527.72487	1.25465	0.09476
3526.22476	1.25476	0.09561
3524.72464	1.25505	0.09654
3523.22453	1.25541	0.09738
3521.72442	1.25576	0.09814
3520.22431	1.25603	0.09882
3518.7242	1.25616	0.09957
3517.22409	1.25642	0.10045
3515.72397	1.25687	0.10128
3514.22386	1.25721	0.10193
3512.72375	1.25737	0.10259
3511.22364	1.25752	0.1034
3509.72353	1.25781	0.1043
3508.22341	1.25824	0.10516
3506.7233	1.25867	0.10592
3505.22319	1.25904	0.10662
3503.72308	1.25936	0.10733
3502.22297	1.25968	0.1081
3500.72286	1.26012	0.1089
3499.22274	1.26063	0.1096
3497.72263	1.26102	0.1102
3496.22252	1.26131	0.11082
3494.72241	1.26158	0.11152
3493.2223	1.26189	0.1123
3491.72218	1.2624	0.11313
3490.22207	1.26299	0.11381
3488.72196	1.26345	0.11433
3487.22185	1.2637	0.11484
3485.72174	1.26392	0.11553
3484.22163	1.2643	0.11632
3482.72151	1.26474	0.11708
3481.2214	1.2652	0.11782
3479.72129	1.26576	0.11857
3478.22118	1.26642	0.11923
3476.72107	1.26703	0.11971
3475.22095	1.26735	0.12008
3473.72084	1.26749	0.12065
3472.22073	1.26788	0.12147
3470.72062	1.26847	0.12223
3469.22051	1.26904	0.12287
3467.7204	1.26958	0.12348
3466.22028	1.27017	0.12408
3464.72017	1.27079	0.12462
3463.22006	1.27131	0.12505
3461.71995	1.27173	0.12552
3460.21984	1.27217	0.12607
3458.71972	1.2727	0.12663
3457.21961	1.2732	0.12714
3455.7195	1.27365	0.12765
3454.21939	1.27416	0.12821
3452.71928	1.27471	0.12872
3451.21917	1.27519	0.12919
3449.71905	1.27564	0.1297
3448.21894	1.27612	0.13026
3446.71883	1.27665	0.13083
3445.21872	1.27723	0.13141
3443.71861	1.2779	0.13195
3442.21849	1.27855	0.13239
3440.71838	1.27916	0.1328
3439.21827	1.27975	0.13317
3437.71816	1.28024	0.13353
3436.21805	1.28075	0.13397
3434.71794	1.28134	0.13442
3433.21782	1.28192	0.13481
3431.71771	1.28247	0.1352
3430.2176	1.28303	0.13561
3428.71749	1.28365	0.13599
3427.21738	1.28425	0.13632
3425.71726	1.28481	0.13662
3424.21715	1.2853	0.1369
3422.71704	1.2857	0.13722
3421.21693	1.28615	0.13768
3419.71682	1.28673	0.13817
3418.21671	1.28738	0.13864
3416.71659	1.28816	0.13907
3415.21648	1.28898	0.13931
3413.71637	1.28961	0.13942
3412.21626	1.2901	0.13954
3410.71615	1.29058	0.13977
3409.21604	1.29114	0.14001
3407.71592	1.29163	0.14018
3406.21581	1.29199	0.1404
3404.7157	1.29246	0.14078
3403.21559	1.29308	0.14115
3401.71548	1.2937	0.1414
3400.21536	1.29427	0.14162
3398.71525	1.2948	0.14185
3397.21514	1.29539	0.14211
3395.71503	1.29606	0.14234
3394.21492	1.29666	0.14243
3392.71481	1.29711	0.14252
3391.21469	1.29761	0.14271
3389.71458	1.29817	0.14288
3388.21447	1.29868	0.14299
3386.71436	1.2991	0.14309
3385.21425	1.2995	0.14329
3383.71413	1.3	0.14355
3382.21402	1.30058	0.1438
3380.71391	1.30124	0.14398
3379.2138	1.30183	0.14402
3377.71369	1.30226	0.14404
3376.21358	1.30268	0.14416
3374.71346	1.30315	0.14433
3373.21335	1.3037	0.14451
3371.71324	1.30433	0.14461
3370.21313	1.30485	0.14459
3368.71302	1.30527	0.1446
3367.2129	1.30569	0.14464
3365.71279	1.30611	0.14472
3364.21268	1.30654	0.14482
3362.71257	1.30703	0.14491
3361.21246	1.30753	0.14495
3359.71235	1.30793	0.14493
3358.21223	1.30824	0.14497
3356.71212	1.30863	0.14511
3355.21201	1.30915	0.14526
3353.7119	1.30966	0.14531
3352.21179	1.31014	0.14532
3350.71167	1.31064	0.14529
3349.21156	1.31104	0.1452
3347.71145	1.31132	0.14512
3346.21134	1.31159	0.14514
3344.71123	1.31189	0.14523
3343.21112	1.3123	0.14536
3341.711	1.31278	0.14544
3340.21089	1.31323	0.14543
3338.71078	1.31365	0.14539
3337.21067	1.31405	0.14531
3335.71056	1.31434	0.14521
3334.21044	1.31454	0.14518
3332.71033	1.31488	0.14525
3331.21022	1.31529	0.14523
3329.71011	1.3155	0.14513
3328.21	1.31568	0.14516
3326.70989	1.31597	0.14528
3325.20977	1.31635	0.14535
3323.70966	1.31674	0.14535
3322.20955	1.31703	0.14529
3320.70944	1.31728	0.14527
3319.20933	1.31752	0.14528
3317.70921	1.31779	0.1453
3316.2091	1.31804	0.14533
3314.70899	1.3183	0.14539
3313.20888	1.31864	0.14544
3311.70877	1.31895	0.14542
3310.20866	1.31913	0.14539
3308.70854	1.31936	0.14547
3307.20843	1.31971	0.14556
3305.70832	1.32009	0.14556
3304.20821	1.32037	0.14546
3302.7081	1.32052	0.14539
3301.20798	1.3207	0.14541
3299.70787	1.32094	0.14545
3298.20776	1.32116	0.14546
3296.70765	1.32135	0.14548
3295.20754	1.32156	0.14554
3293.70743	1.32183	0.1456
3292.20731	1.3221	0.14561
3290.7072	1.3223	0.14558
3289.20709	1.32247	0.14559
3287.70698	1.32264	0.14563
3286.20687	1.32281	0.1457
3284.70675	1.32305	0.14579
3283.20664	1.32332	0.14584
3281.70653	1.3235	0.14584
3280.20642	1.32369	0.1459
3278.70631	1.32392	0.14596
3277.2062	1.32413	0.146
3275.70608	1.32434	0.14604
3274.20597	1.32456	0.14609
3272.70586	1.3248	0.14614
3271.20575	1.32507	0.14614
3269.70564	1.32523	0.14606
3268.20552	1.32529	0.14602
3266.70541	1.3253	0.14609
3265.2053	1.3254	0.14628
3263.70519	1.32564	0.14647
3262.20508	1.32589	0.1466
3260.70497	1.32616	0.1467
3259.20485	1.32643	0.14676
3257.70474	1.3267	0.14677
3256.20463	1.3269	0.14672
3254.70452	1.32694	0.14667
3253.20441	1.32692	0.14677
3251.70429	1.32706	0.14702
3250.20418	1.32738	0.14726
3248.70407	1.32775	0.14736
3247.20396	1.32801	0.14733
3245.70385	1.32813	0.14733
3244.20374	1.32832	0.14744
3242.70362	1.32864	0.14752
3241.20351	1.32887	0.14746
3239.7034	1.32893	0.1474
3238.20329	1.32894	0.14746
3236.70318	1.32903	0.14765
3235.20306	1.32925	0.14786
3233.70295	1.32955	0.14803
3232.20284	1.3299	0.14811
3230.70273	1.33019	0.14808
3229.20262	1.33032	0.14799
3227.70251	1.33036	0.14799
3226.20239	1.33044	0.14811
3224.70228	1.33062	0.14826
3223.20217	1.33085	0.14836
3221.70206	1.33102	0.14844
3220.20195	1.33122	0.14853
3218.70183	1.33142	0.1486
3217.20172	1.33161	0.14867
3215.70161	1.33182	0.14873
3214.2015	1.33201	0.14877
3212.70139	1.3322	0.14879
3211.20128	1.33231	0.14879
3209.70116	1.33237	0.14885
3208.20105	1.3325	0.14898
3206.70094	1.33268	0.1491
3205.20083	1.33283	0.14918
3203.70072	1.33298	0.14929
3202.20061	1.33318	0.1494
3200.70049	1.33337	0.14945
3199.20038	1.33347	0.14948
3197.70027	1.33352	0.14959
3196.20016	1.33363	0.14979
3194.70005	1.33385	0.15002
3193.19993	1.33419	0.1502
3191.69982	1.33452	0.15023
3190.19971	1.3347	0.15018
3188.6996	1.33481	0.1502
3187.19949	1.33496	0.15026
3185.69938	1.33506	0.1503
3184.19926	1.33516	0.15043
3182.69915	1.33537	0.15057
3181.19904	1.33557	0.15062
3179.69893	1.33566	0.15065
3178.19882	1.33571	0.15076
3176.6987	1.33585	0.15097
3175.19859	1.33613	0.15117
3173.69848	1.33645	0.15125
3172.19837	1.33667	0.15122
3170.69826	1.33676	0.15118
3169.19815	1.33676	0.15123
3167.69803	1.33686	0.1514
3166.19792	1.33705	0.15155
3164.69781	1.33722	0.15165
3163.1977	1.33735	0.15173
3161.69759	1.33742	0.15184
3160.19747	1.33758	0.15203
3158.69736	1.33779	0.15218
3157.19725	1.33797	0.15232
3155.69714	1.3382	0.15247
3154.19703	1.33848	0.15256
3152.69692	1.33871	0.15258
3151.1968	1.33884	0.15256
3149.69669	1.3389	0.1526
3148.19658	1.33896	0.15271
3146.69647	1.3391	0.15289
3145.19636	1.33931	0.15304
3143.69624	1.33951	0.15313
3142.19613	1.33964	0.1532
3140.69602	1.3398	0.15331
3139.19591	1.33997	0.1534
3137.6958	1.34009	0.15348
3136.19569	1.34022	0.15359
3134.69557	1.34036	0.15371
3133.19546	1.34051	0.15382
3131.69535	1.34066	0.15394
3130.19524	1.34081	0.15403
3128.69513	1.34091	0.15411
3127.19501	1.34097	0.15424
3125.6949	1.34107	0.15443
3124.19479	1.3412	0.15463
3122.69468	1.34134	0.15485
3121.19457	1.3416	0.15513
3119.69446	1.34201	0.15532
3118.19434	1.34235	0.15532
3116.69423	1.34249	0.15525
3115.19412	1.34254	0.15526
3113.69401	1.34258	0.15538
3112.1939	1.34274	0.15557
3110.69378	1.34297	0.1557
3109.19367	1.34315	0.15574
3107.69356	1.34321	0.15576
3106.19345	1.34316	0.15587
3104.69334	1.34318	0.15612
3103.19323	1.34333	0.15644
3101.69311	1.34363	0.15674
3100.193	1.34399	0.15689
3098.69289	1.3442	0.15691
3097.19278	1.34426	0.15697
3095.69267	1.34436	0.15716
3094.19255	1.34453	0.15738
3092.69244	1.34475	0.15759
3091.19233	1.34501	0.15775
3089.69222	1.34519	0.15786
3088.19211	1.34533	0.15801
3086.692	1.34554	0.15825
3085.19188	1.34587	0.15845
3083.69177	1.34617	0.15852
3082.19166	1.34632	0.15855
3080.69155	1.34646	0.15868
3079.19144	1.3467	0.15885
3077.69132	1.34693	0.15895
3076.19121	1.34709	0.15901
3074.6911	1.34718	0.15912
3073.19099	1.34729	0.15931
3071.69088	1.34749	0.15956
3070.19077	1.34778	0.15978
3068.69065	1.34812	0.15996
3067.19054	1.34848	0.16001
3065.69043	1.34862	0.15995
3064.19032	1.34861	0.16002
3062.69021	1.34875	0.16026
3061.19009	1.34901	0.16047
3059.68998	1.34923	0.16062
3058.18987	1.34943	0.16076
3056.68976	1.34964	0.16092
3055.18965	1.34982	0.16109
3053.68954	1.35007	0.16133
3052.18942	1.35049	0.16153
3050.68931	1.35086	0.16154
3049.1892	1.351	0.16148
3047.68909	1.35105	0.16156
3046.18898	1.35118	0.16177
3044.68886	1.35142	0.16201
3043.18875	1.35177	0.16222
3041.68864	1.35218	0.16232
3040.18853	1.35246	0.16225
3038.68842	1.35248	0.16217
3037.18831	1.35244	0.16233
3035.68819	1.35264	0.16266
3034.18808	1.35304	0.16291
3032.68797	1.35337	0.16297
3031.18786	1.35353	0.16298
3029.68775	1.35364	0.1631
3028.18763	1.35382	0.1633
3026.68752	1.35409	0.16351
3025.18741	1.3544	0.16366
3023.6873	1.35463	0.16373
3022.18719	1.35478	0.16385
3020.68708	1.355	0.16406
3019.18696	1.3553	0.16426
3017.68685	1.35561	0.16441
3016.18674	1.35588	0.16453
3014.68663	1.35616	0.16467
3013.18652	1.35651	0.16483
3011.68641	1.35693	0.16489
3010.18629	1.35721	0.16482
3008.68618	1.35733	0.16478
3007.18607	1.35745	0.16484
3005.68596	1.35756	0.16493
3004.18585	1.35766	0.16508
3002.68573	1.35775	0.16531
3001.18562	1.35799	0.16565
2999.68551	1.35839	0.16596
2998.1854	1.35883	0.16613
2996.68529	1.35919	0.16621
2995.18518	1.3595	0.16627
2993.68506	1.35978	0.16635
2992.18495	1.36009	0.16644
2990.68484	1.36035	0.16649
2989.18473	1.36058	0.16659
2987.68462	1.36085	0.16671
2986.1845	1.36111	0.1668
2984.68439	1.36132	0.16694
2983.18428	1.36167	0.16716
2981.68417	1.36214	0.16728
2980.18406	1.36248	0.16722
2978.68395	1.36259	0.16717
2977.18383	1.36269	0.16732
2975.68372	1.36303	0.1676
2974.18361	1.36351	0.16775
2972.6835	1.36385	0.16772
2971.18339	1.36401	0.1677
2969.68327	1.36416	0.16784
2968.18316	1.36445	0.16807
2966.68305	1.36486	0.16827
2965.18294	1.3653	0.16838
2963.68283	1.3657	0.1684
2962.18272	1.36599	0.16837
2960.6826	1.36622	0.16841
2959.18249	1.3665	0.1685
2957.68238	1.36677	0.16859
2956.18227	1.36706	0.16871
2954.68216	1.36742	0.16883
2953.18204	1.36776	0.1689
2951.68193	1.36806	0.16898
2950.18182	1.36837	0.16909
2948.68171	1.36874	0.16923
2947.1816	1.36916	0.16935
2945.68149	1.36964	0.16943
2944.18137	1.37014	0.16941
2942.68126	1.37048	0.16926
2941.18115	1.37064	0.1692
2939.68104	1.37089	0.16931
2938.18093	1.3713	0.16943
2936.68081	1.3717	0.16945
2935.1807	1.37196	0.16945
2933.68059	1.37226	0.16959
2932.18048	1.37282	0.16979
2930.68037	1.37345	0.16979
2929.18026	1.37396	0.16963
2927.68014	1.37434	0.16944
2926.18003	1.37463	0.16929
2924.67992	1.37494	0.16923
2923.17981	1.37534	0.16919
2921.6797	1.37575	0.16908
2920.17958	1.37612	0.16892
2918.67947	1.37647	0.16876
2917.17936	1.37681	0.16858
2915.67925	1.37711	0.16836
2914.17914	1.37733	0.16812
2912.67903	1.37748	0.1679
2911.17891	1.37756	0.16773
2909.6788	1.3776	0.16766
2908.17869	1.37773	0.16769
2906.67858	1.37796	0.16774
2905.17847	1.37819	0.16773
2903.67835	1.37841	0.16774
2902.17824	1.37864	0.16776
2900.67813	1.37894	0.16779
2899.17802	1.37928	0.16777
2897.67791	1.37959	0.1677
2896.1778	1.37989	0.1676
2894.67768	1.3801	0.16745
2893.17757	1.38023	0.16735
2891.67746	1.38037	0.16731
2890.17735	1.3805	0.16733
2888.67724	1.38069	0.16741
2887.17712	1.38098	0.16749
2885.67701	1.38126	0.16751
2884.1769	1.38154	0.16753
2882.67679	1.38182	0.16753
2881.17668	1.38207	0.16754
2879.67657	1.38232	0.16757
2878.17645	1.3826	0.16766
2876.67634	1.383	0.16777
2875.17623	1.38352	0.16781
2873.67612	1.38401	0.16768
2872.17601	1.38431	0.16744
2870.67589	1.38444	0.16729
2869.17578	1.38463	0.16731
2867.67567	1.38499	0.16738
2866.17556	1.38543	0.16736
2864.67545	1.38579	0.16724
2863.17534	1.38608	0.16713
2861.67522	1.38637	0.16707
2860.17511	1.38671	0.16704
2858.675	1.38709	0.167
2857.17489	1.3875	0.16693
2855.67478	1.38792	0.16683
2854.17466	1.38837	0.16669
2852.67455	1.38883	0.16649
2851.17444	1.38927	0.16621
2849.67433	1.38962	0.16584
2848.17422	1.38984	0.16542
2846.67411	1.38986	0.16503
2845.17399	1.38975	0.16482
2843.67388	1.38974	0.16481
2842.17377	1.38989	0.16493
2840.67366	1.39027	0.16506
2839.17355	1.39082	0.16502
2837.67343	1.39121	0.16475
2836.17332	1.39142	0.16447
2834.67321	1.39159	0.16429
2833.1731	1.39184	0.16416
2831.67299	1.3921	0.164
2830.17288	1.3923	0.1638
2828.67276	1.39246	0.16364
2827.17265	1.39263	0.16354
2825.67254	1.39284	0.16349
2824.17243	1.39314	0.16345
2822.67232	1.39351	0.16336
2821.17221	1.39388	0.16319
2819.67209	1.39417	0.16296
2818.17198	1.39443	0.16275
2816.67187	1.3947	0.16254
2815.17176	1.39491	0.1623
2813.67165	1.39506	0.16212
2812.17153	1.39533	0.16204
2810.67142	1.39573	0.16188
2809.17131	1.39604	0.1616
2807.6712	1.39626	0.16132
2806.17109	1.3965	0.16106
2804.67098	1.39669	0.1608
2803.17086	1.39688	0.16056
2801.67075	1.39712	0.16034
2800.17064	1.39738	0.16007
2798.67053	1.39754	0.15974
2797.17042	1.39763	0.15946
2795.6703	1.3978	0.15925
2794.17019	1.398	0.15901
2792.67008	1.39816	0.15873
2791.16997	1.39828	0.15844
2789.66986	1.39838	0.15818
2788.16975	1.39848	0.15793
2786.66963	1.39853	0.15767
2785.16952	1.39856	0.15748
2783.66941	1.39868	0.15736
2782.1693	1.39886	0.15721
2780.66919	1.39904	0.157
2779.16907	1.39919	0.15677
2777.66896	1.39933	0.15655
2776.16885	1.39953	0.15633
2774.66874	1.39972	0.15601
2773.16863	1.39973	0.15564
2771.66852	1.39964	0.15538
2770.1684	1.39967	0.15525
2768.66829	1.3998	0.1551
2767.16818	1.3999	0.15488
2765.66807	1.39995	0.15466
2764.16796	1.4	0.15446
2762.66784	1.40003	0.15427
2761.16773	1.40006	0.15412
2759.66762	1.40015	0.15401
2758.16751	1.4003	0.15388
2756.6674	1.40043	0.1537
2755.16729	1.40055	0.1535
2753.66717	1.40065	0.15331
2752.16706	1.40078	0.15314
2750.66695	1.40098	0.15292
2749.16684	1.40111	0.15262
2747.66673	1.40113	0.15231
2746.16661	1.40111	0.15206
2744.6665	1.40114	0.15186
2743.16639	1.4012	0.15164
2741.66628	1.40119	0.15141
2740.16617	1.40119	0.15122
2738.66606	1.40124	0.15106
2737.16594	1.40128	0.15086
2735.66583	1.40131	0.15067
2734.16572	1.40133	0.15046
2732.66561	1.40131	0.15026
2731.1655	1.40124	0.15012
2729.66538	1.40126	0.15007
2728.16527	1.40147	0.15003
2726.66516	1.4017	0.14981
2725.16505	1.40178	0.14948
2723.66494	1.40175	0.14921
2722.16483	1.40176	0.14901
2720.66471	1.40181	0.1488
2719.1646	1.40183	0.14857
2717.66449	1.40182	0.14834
2716.16438	1.40181	0.14815
2714.66427	1.40186	0.14795
2713.16415	1.40189	0.14771
2711.66404	1.40186	0.14744
2710.16393	1.40179	0.14721
2708.66382	1.40175	0.14702
2707.16371	1.40175	0.14682
2705.6636	1.40174	0.14659
2704.16348	1.40166	0.14632
2702.66337	1.4015	0.14608
2701.16326	1.40132	0.14594
2699.66315	1.40125	0.14588
2698.16304	1.40128	0.14579
2696.66292	1.40131	0.14561
2695.16281	1.40129	0.14538
2693.6627	1.40116	0.14512
2692.16259	1.40095	0.14496
2690.66248	1.40084	0.14488
2689.16237	1.40083	0.1448
2687.66225	1.40079	0.14464
2686.16214	1.40066	0.14445
2684.66203	1.40052	0.14435
2683.16192	1.40045	0.14428
2681.66181	1.4004	0.14418
2680.16169	1.40033	0.14406
2678.66158	1.40025	0.14394
2677.16147	1.40019	0.14384
2675.66136	1.40015	0.14371
2674.16125	1.40006	0.14355
2672.66114	1.39993	0.14339
2671.16102	1.39976	0.14326
2669.66091	1.39958	0.14317
2668.1608	1.39941	0.14312
2666.66069	1.39923	0.14309
2665.16058	1.39909	0.14313
2663.66046	1.39904	0.14318
2662.16035	1.39907	0.14319
2660.66024	1.39904	0.14311
2659.16013	1.39897	0.14304
2657.66002	1.39891	0.14298
2656.15991	1.39886	0.1429
2654.65979	1.39874	0.1428
2653.15968	1.39856	0.14274
2651.65957	1.39843	0.14275
2650.15946	1.39834	0.14278
2648.65935	1.39828	0.14277
2647.15923	1.39817	0.14276
2645.65912	1.39803	0.14279
2644.15901	1.39796	0.14287
2642.6589	1.39796	0.14294
2641.15879	1.39795	0.14296
2639.65868	1.39792	0.14296
2638.15856	1.39789	0.14297
2636.65845	1.39782	0.14298
2635.15834	1.39776	0.14304
2633.65823	1.39775	0.14312
2632.15812	1.39778	0.1432
2630.658	1.39789	0.14326
2629.15789	1.39799	0.14323
2627.65778	1.39801	0.14314
2626.15767	1.39796	0.14309
2624.65756	1.39796	0.1431
2623.15745	1.39799	0.14308
2621.65733	1.39798	0.14304
2620.15722	1.39796	0.14302
2618.65711	1.39794	0.143
2617.157	1.39791	0.14301
2615.65689	1.39794	0.14305
2614.15678	1.398	0.14305
2612.65666	1.39806	0.143
2611.15655	1.39804	0.14292
2609.65644	1.39799	0.14289
2608.15633	1.39798	0.14291
2606.65622	1.39802	0.14292
2605.1561	1.39806	0.14289
2603.65599	1.39811	0.14286
2602.15588	1.3981	0.14279
2600.65577	1.39806	0.14275
2599.15566	1.39808	0.14277
2597.65555	1.39819	0.14273
2596.15543	1.39821	0.1426
2594.65532	1.39808	0.1425
2593.15521	1.398	0.14252
2591.6551	1.39807	0.14257
2590.15499	1.39815	0.14251
2588.65487	1.39813	0.14241
2587.15476	1.39806	0.14234
2585.65465	1.398	0.14232
2584.15454	1.39799	0.14234
2582.65443	1.39806	0.14232
2581.15432	1.39807	0.14223
2579.6542	1.39801	0.14213
2578.15409	1.39789	0.14207
2576.65398	1.3978	0.1421
2575.15387	1.39783	0.14214
2573.65376	1.39785	0.1421
2572.15364	1.39782	0.14205
2570.65353	1.3978	0.142
2569.15342	1.39773	0.14193
2567.65331	1.3976	0.14189
2566.1532	1.39749	0.14193
2564.65309	1.39746	0.14199
2563.15297	1.39744	0.14201
2561.65286	1.39739	0.14204
2560.15275	1.39737	0.1421
2558.65264	1.39739	0.14213
2557.15253	1.3974	0.14212
2555.65241	1.39733	0.1421
2554.1523	1.39722	0.14214
2552.65219	1.39718	0.14226
2551.15208	1.39727	0.14238
2549.65197	1.39738	0.14241
2548.15186	1.39744	0.14238
2546.65174	1.39744	0.14233
2545.15163	1.39741	0.1423
2543.65152	1.39737	0.1423
2542.15141	1.39731	0.1423
2540.6513	1.39721	0.14234
2539.15118	1.39717	0.14246
2537.65107	1.39722	0.14259
2536.15096	1.39731	0.14268
2534.65085	1.39739	0.14271
2533.15074	1.39746	0.14274
2531.65063	1.39754	0.14275
2530.15051	1.39758	0.14271
2528.6504	1.39752	0.1427
2527.15029	1.3975	0.14279
2525.65018	1.39761	0.14289
2524.15007	1.39772	0.14292
2522.64995	1.39777	0.14293
2521.14984	1.39786	0.14297
2519.64973	1.39801	0.14297
2518.14962	1.39806	0.14289
2516.64951	1.39803	0.14286
2515.1494	1.39805	0.14291
2513.64928	1.39815	0.14298
2512.14917	1.39831	0.14299
2510.64906	1.39844	0.14294
2509.14895	1.3985	0.14284
2507.64884	1.3985	0.14277
2506.14872	1.39849	0.14275
2504.64861	1.39851	0.14278
2503.1485	1.39858	0.14282
2501.64839	1.3987	0.14285
2500.14828	1.39886	0.14284
2498.64817	1.39898	0.14276
2497.14805	1.39906	0.14267
2495.64794	1.3991	0.14259
2494.14783	1.3991	0.14254
2492.64772	1.39921	0.14255
2491.14761	1.39935	0.14249
2489.64749	1.39944	0.14236
2488.14738	1.39945	0.14225
2486.64727	1.39945	0.14217
2485.14716	1.39947	0.14214
2483.64705	1.39956	0.14212
2482.14694	1.39969	0.14205
2480.64682	1.39978	0.14192
2479.14671	1.39978	0.14179
2477.6466	1.39981	0.14171
2476.14649	1.3999	0.14162
2474.64638	1.39996	0.14146
2473.14626	1.3999	0.14128
2471.64615	1.39981	0.14118
2470.14604	1.39975	0.14115
2468.64593	1.39978	0.14115
2467.14582	1.39987	0.14111
2465.64571	1.39995	0.14101
2464.14559	1.39997	0.14087
2462.64548	1.39994	0.14074
2461.14537	1.39993	0.14066
2459.64526	1.39998	0.14057
2458.14515	1.39999	0.14043
2456.64503	1.39995	0.14028
2455.14492	1.39986	0.14014
2453.64481	1.39976	0.14007
2452.1447	1.39973	0.14003
2450.64459	1.39972	0.13997
2449.14448	1.39969	0.13988
2447.64436	1.39965	0.1398
2446.14425	1.3996	0.13973
2444.64414	1.39955	0.13967
2443.14403	1.39949	0.13962
2441.64392	1.39945	0.13959
2440.1438	1.39948	0.13958
2438.64369	1.39957	0.1395
2437.14358	1.39957	0.13931
2435.64347	1.3994	0.13914
2434.14336	1.39923	0.13911
2432.64325	1.3992	0.13914
2431.14313	1.39922	0.1391
2429.64302	1.39915	0.13901
2428.14291	1.39907	0.13899
2426.6428	1.39908	0.13898
2425.14269	1.39906	0.1389
2423.64258	1.39898	0.13885
2422.14246	1.39892	0.13884
2420.64235	1.39893	0.13885
2419.14224	1.39898	0.13881
2417.64213	1.39897	0.13873
2416.14202	1.39895	0.13867
2414.6419	1.39896	0.1386
2413.14179	1.39896	0.13852
2411.64168	1.39895	0.13841
2410.14157	1.39889	0.1383
2408.64146	1.39882	0.13824
2407.14135	1.39879	0.13818
2405.64123	1.3988	0.13811
2404.14112	1.39877	0.13799
2402.64101	1.39868	0.13786
2401.1409	1.39857	0.13779
2399.64079	1.39854	0.13775
2398.14067	1.39848	0.13765
2396.64056	1.39836	0.13757
2395.14045	1.39828	0.13754
2393.64034	1.39823	0.13752
2392.14023	1.39818	0.13747
2390.64012	1.39812	0.13743
2389.14	1.39808	0.13742
2387.63989	1.3981	0.13742
2386.13978	1.39816	0.13737
2384.63967	1.39821	0.13725
2383.13956	1.39821	0.13711
2381.63944	1.39819	0.13697
2380.13933	1.3982	0.1368
2378.63922	1.39815	0.13658
2377.13911	1.39798	0.13635
2375.639	1.39778	0.13621
2374.13889	1.3976	0.13613
2372.63877	1.39746	0.13609
2371.13866	1.39742	0.13606
2369.63855	1.39743	0.13599
2368.13844	1.39753	0.13583
2366.63833	1.39758	0.13544
2365.13821	1.39719	0.1349
2363.6381	1.39639	0.13465
2362.13799	1.39583	0.13489
2360.63788	1.39585	0.13522
2359.13777	1.39594	0.13519
2357.63766	1.39571	0.13501
2356.13754	1.39544	0.13491
2354.63743	1.39507	0.13483
2353.13732	1.39452	0.13489
2351.63721	1.39406	0.13526
2350.1371	1.39398	0.13586
2348.63698	1.39448	0.13639
2347.13687	1.39519	0.13636
2345.63676	1.39534	0.13589
2344.13665	1.39515	0.13557
2342.63654	1.39513	0.13539
2341.13643	1.39501	0.13508
2339.63631	1.39466	0.13482
2338.1362	1.39442	0.13472
2336.63609	1.39425	0.13455
2335.13598	1.39384	0.1343
2333.63587	1.39329	0.13424
2332.13575	1.39287	0.13436
2330.63564	1.39253	0.13451
2329.13553	1.3922	0.13473
2327.63542	1.39208	0.13503
2326.13531	1.39211	0.13521
2324.6352	1.3921	0.13526
2323.13508	1.39206	0.13523
2321.63497	1.3919	0.13513
2320.13486	1.39164	0.13507
2318.63475	1.39135	0.13504
2317.13464	1.39091	0.1351
2315.63452	1.39058	0.13535
2314.13441	1.3905	0.13562
2312.6343	1.39043	0.13576
2311.13419	1.39024	0.13585
2309.63408	1.39004	0.13601
2308.13397	1.38994	0.13621
2306.63385	1.38984	0.13634
2305.13374	1.38966	0.13648
2303.63363	1.38954	0.13669
2302.13352	1.38952	0.13689
2300.63341	1.38949	0.13702
2299.13329	1.38941	0.13713
2297.63318	1.38931	0.13726
2296.13307	1.38926	0.13743
2294.63296	1.38924	0.13757
2293.13285	1.38922	0.1377
2291.63274	1.38923	0.13779
2290.13262	1.38919	0.13784
2288.63251	1.38909	0.13788
2287.1324	1.38893	0.13799
2285.63229	1.38884	0.13818
2284.13218	1.3889	0.13838
2282.63206	1.38896	0.13846
2281.13195	1.38893	0.13849
2279.63184	1.38886	0.13855
2278.13173	1.38881	0.13866
2276.63162	1.38884	0.13876
2275.13151	1.38883	0.13879
2273.63139	1.38875	0.13882
2272.13128	1.38865	0.13892
2270.63117	1.38864	0.13904
2269.13106	1.38864	0.13911
2267.63095	1.3886	0.13917
2266.13083	1.38854	0.13925
2264.63072	1.38853	0.13937
2263.13061	1.38862	0.13947
2261.6305	1.38868	0.13946
2260.13039	1.38863	0.13942
2258.63028	1.38853	0.1394
2257.13016	1.38839	0.13945
2255.63005	1.38836	0.13958
2254.12994	1.38839	0.13965
2252.62983	1.38838	0.13965
2251.12972	1.3883	0.13965
2249.6296	1.38818	0.1397
2248.12949	1.38814	0.13979
2246.62938	1.38814	0.13987
2245.12927	1.38813	0.1399
2243.62916	1.38809	0.13991
2242.12905	1.388	0.13992
2240.62893	1.38791	0.13996
2239.12882	1.38781	0.14003
2237.62871	1.38775	0.14014
2236.1286	1.38778	0.14023
2234.62849	1.38777	0.14024
2233.12838	1.38768	0.14025
2231.62826	1.38758	0.14032
2230.12815	1.38751	0.14042
2228.62804	1.3875	0.14054
2227.12793	1.38754	0.14063
2225.62782	1.38759	0.14066
2224.1277	1.38757	0.14064
2222.62759	1.38747	0.14063
2221.12748	1.38738	0.14069
2219.62737	1.38737	0.14078
2218.12726	1.38735	0.14082
2216.62715	1.38732	0.14086
2215.12703	1.3873	0.14091
2213.62692	1.38726	0.14094
2212.12681	1.3872	0.141
2210.6267	1.38718	0.14107
2209.12659	1.38719	0.14112
2207.62647	1.38717	0.14116
2206.12636	1.38712	0.14122
2204.62625	1.38715	0.14131
2203.12614	1.38726	0.14134
2201.62603	1.38726	0.14128
2200.12592	1.38721	0.14125
2198.6258	1.38715	0.14125
2197.12569	1.38706	0.14127
2195.62558	1.38701	0.14136
2194.12547	1.38705	0.14147
2192.62536	1.38716	0.14151
2191.12524	1.38724	0.14148
2189.62513	1.38725	0.14142
2188.12502	1.38728	0.14136
2186.62491	1.38725	0.14126
2185.1248	1.38714	0.1412
2183.62469	1.38705	0.14121
2182.12457	1.38699	0.14126
2180.62446	1.38703	0.14132
2179.12435	1.38714	0.14132
2177.62424	1.38716	0.14124
2176.12413	1.38717	0.14118
2174.62401	1.38721	0.14111
2173.1239	1.38721	0.14098
2171.62379	1.38716	0.14086
2170.12368	1.38708	0.14076
2168.62357	1.38701	0.14069
2167.12346	1.38697	0.14064
2165.62334	1.38697	0.14058
2164.12323	1.387	0.14045
2162.62312	1.38693	0.14024
2161.12301	1.38672	0.14008
2159.6229	1.38654	0.14004
2158.12278	1.3865	0.14003
2156.62267	1.38649	0.13994
2155.12256	1.3864	0.13977
2153.62245	1.38622	0.13963
2152.12234	1.38606	0.13957
2150.62223	1.38596	0.13953
2149.12211	1.38589	0.13947
2147.622	1.38585	0.13936
2146.12189	1.38576	0.13918
2144.62178	1.38555	0.139
2143.12167	1.38535	0.1389
2141.62155	1.38519	0.13881
2140.12144	1.38504	0.1387
2138.62133	1.3848	0.13857
2137.12122	1.38459	0.13854
2135.62111	1.38449	0.1385
2134.121	1.38436	0.13837
2132.62088	1.38415	0.13823
2131.12077	1.38394	0.13811
2129.62066	1.38368	0.138
2128.12055	1.38346	0.13793
2126.62044	1.38323	0.13784
2125.12032	1.38296	0.13776
2123.62021	1.38271	0.13771
2122.1201	1.38243	0.13766
2120.61999	1.3822	0.13765
2119.11988	1.38197	0.13762
2117.61977	1.38174	0.1376
2116.11965	1.38154	0.13757
2114.61954	1.3813	0.1375
2113.11943	1.38101	0.13745
2111.61932	1.38074	0.13745
2110.11921	1.3805	0.13746
2108.61909	1.38027	0.13746
2107.11898	1.38009	0.13744
2105.61887	1.37984	0.13736
2104.11876	1.37951	0.13731
2102.61865	1.37918	0.13733
2101.11854	1.37894	0.13741
2099.61842	1.37878	0.13744
2098.11831	1.37855	0.13737
2096.6182	1.37824	0.13734
2095.11809	1.37797	0.13735
2093.61798	1.37767	0.13735
2092.11786	1.37737	0.1374
2090.61775	1.37714	0.13747
2089.11764	1.37693	0.13751
2087.61753	1.37677	0.13751
2086.11742	1.37652	0.13742
2084.61731	1.37616	0.13737
2083.11719	1.37582	0.13739
2081.61708	1.37551	0.13746
2080.11697	1.37529	0.13751
2078.61686	1.37499	0.1375
2077.11675	1.37465	0.13754
2075.61663	1.37442	0.13762
2074.11652	1.37416	0.13763
2072.61641	1.37386	0.13765
2071.1163	1.37355	0.13768
2069.61619	1.37322	0.13775
2068.11608	1.37298	0.13785
2066.61596	1.37277	0.13788
2065.11585	1.37249	0.13787
2063.61574	1.37218	0.13787
2062.11563	1.37185	0.13789
2060.61552	1.3715	0.13793
2059.1154	1.37117	0.13801
2057.61529	1.37088	0.13809
2056.11518	1.37058	0.13816
2054.61507	1.3703	0.13824
2053.11496	1.37006	0.13832
2051.61485	1.36984	0.13835
2050.11473	1.36959	0.13832
2048.61462	1.36927	0.13827
2047.11451	1.36891	0.13822
2045.6144	1.36847	0.13819
2044.11429	1.36803	0.13824
2042.61418	1.36764	0.13831
2041.11406	1.36722	0.13839
2039.61395	1.36686	0.1385
2038.11384	1.36652	0.1386
2036.61373	1.36617	0.13866
2035.11362	1.36577	0.13871
2033.6135	1.36533	0.13881
2032.11339	1.36501	0.13895
2030.61328	1.36471	0.139
2029.11317	1.36427	0.13899
2027.61306	1.36378	0.13904
2026.11295	1.36326	0.13915
2024.61283	1.36281	0.13935
2023.11272	1.36245	0.13953
2021.61261	1.36205	0.13966
2020.1125	1.36166	0.13979
2018.61239	1.36124	0.13991
2017.11227	1.3608	0.14004
2015.61216	1.3604	0.14019
2014.11205	1.35993	0.14029
2012.61194	1.35945	0.14045
2011.11183	1.35898	0.14064
2009.61172	1.35854	0.14083
2008.1116	1.35809	0.14102
2006.61149	1.35762	0.14121
2005.11138	1.3572	0.14143
2003.61127	1.35676	0.14161
2002.11116	1.35629	0.1418
2000.61104	1.3558	0.14199
1999.11093	1.3553	0.1422
1997.61082	1.35477	0.14244
1996.11071	1.35429	0.14275
1994.6106	1.35388	0.14301
1993.11049	1.35337	0.14322
1991.61037	1.35278	0.14351
1990.11026	1.35231	0.1439
1988.61015	1.35194	0.14424
1987.11004	1.35151	0.14449
1985.60993	1.35094	0.14476
1984.10981	1.35045	0.14517
1982.6097	1.35008	0.14555
1981.10959	1.34966	0.14587
1979.60948	1.34919	0.1462
1978.10937	1.34873	0.14656
1976.60926	1.34834	0.14696
1975.10914	1.34798	0.14729
1973.60903	1.3475	0.14759
1972.10892	1.34707	0.14796
1970.60881	1.34667	0.14832
1969.1087	1.34624	0.14865
1967.60858	1.34578	0.14897
1966.10847	1.34522	0.14933
1964.60836	1.3448	0.1498
1963.10825	1.34445	0.15019
1961.60814	1.34398	0.15052
1960.10803	1.34348	0.15089
1958.60791	1.34297	0.15132
1957.1078	1.34254	0.1518
1955.60769	1.34214	0.15222
1954.10758	1.34166	0.15264
1952.60747	1.34121	0.1531
1951.10735	1.34076	0.15356
1949.60724	1.34033	0.15404
1948.10713	1.33995	0.15453
1946.60702	1.33957	0.15496
1945.10691	1.33914	0.15538
1943.6068	1.33866	0.15578
1942.10668	1.33807	0.15623
1940.60657	1.33754	0.15683
1939.10646	1.3372	0.15747
1937.60635	1.33688	0.158
1936.10624	1.33652	0.15849
1934.60612	1.33612	0.15893
1933.10601	1.33561	0.1594
1931.6059	1.33523	0.15998
1930.10579	1.33485	0.16046
1928.60568	1.33433	0.16092
1927.10557	1.33384	0.16147
1925.60545	1.33337	0.16204
1924.10534	1.33292	0.16261
1922.60523	1.33236	0.16315
1921.10512	1.33185	0.16386
1919.60501	1.33154	0.16454
1918.10489	1.331	0.16508
1916.60478	1.33044	0.16582
1915.10467	1.33013	0.16664
1913.60456	1.32982	0.16733
1912.10445	1.32951	0.16799
1910.60434	1.3291	0.16856
1909.10422	1.32857	0.16922
1907.60411	1.32817	0.17001
1906.104	1.32782	0.17078
1904.60389	1.3275	0.17152
1903.10378	1.32715	0.17222
1901.60366	1.32674	0.17293
1900.10355	1.32636	0.1737
1898.60344	1.32601	0.17449
1897.10333	1.32568	0.17527
1895.60322	1.32532	0.17605
1894.10311	1.32495	0.17686
1892.60299	1.32468	0.17772
1891.10288	1.32445	0.17848
1889.60277	1.32395	0.17917
1888.10266	1.32344	0.18014
1886.60255	1.32327	0.18124
1885.10243	1.32317	0.18215
1883.60232	1.32298	0.18299
1882.10221	1.32276	0.18382
1880.6021	1.32253	0.18468
1879.10199	1.32235	0.18555
1877.60188	1.32208	0.18638
1876.10176	1.32185	0.18731
1874.60165	1.32168	0.18821
1873.10154	1.32148	0.18911
1871.60143	1.32139	0.19
1870.10132	1.32106	0.19075
1868.6012	1.32058	0.19171
1867.10109	1.32039	0.19291
1865.60098	1.32032	0.19406
1864.10087	1.32035	0.19516
1862.60076	1.32038	0.19615
1861.10065	1.32034	0.1971
1859.60053	1.32033	0.19807
1858.10042	1.32025	0.19901
1856.60031	1.32023	0.20005
1855.1002	1.32031	0.20105
1853.60009	1.32032	0.20196
1852.09997	1.32028	0.20288
1850.59986	1.32021	0.20384
1849.09975	1.32014	0.20487
1847.59964	1.32019	0.20597
1846.09953	1.32035	0.207
1844.59942	1.32036	0.20787
1843.0993	1.32018	0.20884
1841.59919	1.32018	0.21008
1840.09908	1.32044	0.2113
1838.59897	1.32068	0.21231
1837.09886	1.32077	0.21326
1835.59875	1.32085	0.21433
1834.09863	1.32108	0.21546
1832.59852	1.3214	0.2165
1831.09841	1.32162	0.21732
1829.5983	1.32144	0.21816
1828.09819	1.32142	0.21943
1826.59807	1.32173	0.22071
1825.09796	1.32189	0.2218
1823.59785	1.32218	0.22311
1822.09774	1.3227	0.22433
1820.59763	1.32316	0.22534
1819.09752	1.32348	0.22625
1817.5974	1.32361	0.22723
1816.09729	1.3239	0.22845
1814.59718	1.32441	0.22966
1813.09707	1.32492	0.2307
1811.59696	1.32533	0.23163
1810.09684	1.32555	0.23259
1808.59673	1.32587	0.23377
1807.09662	1.32637	0.23498
1805.59651	1.32688	0.23608
1804.0964	1.32746	0.23717
1802.59629	1.32797	0.23813
1801.09617	1.32832	0.2391
1799.59606	1.32877	0.24025
1798.09595	1.32932	0.24141
1796.59584	1.32993	0.24252
1795.09573	1.33056	0.24355
1793.59561	1.33105	0.24447
1792.0955	1.33134	0.2455
1790.59539	1.33179	0.24687
1789.09528	1.33261	0.24832
1787.59517	1.33362	0.24954
1786.09506	1.33449	0.25047
1784.59494	1.33513	0.25138
1783.09483	1.33584	0.25245
1781.59472	1.33657	0.25351
1780.09461	1.3373	0.25463
1778.5945	1.33817	0.2558
1777.09438	1.33908	0.25691
1775.59427	1.34012	0.25798
1774.09416	1.34107	0.2588
1772.59405	1.34166	0.25961
1771.09394	1.34233	0.26082
1769.59383	1.34333	0.26218
1768.09371	1.34452	0.26342
1766.5936	1.34575	0.26451
1765.09349	1.34703	0.26551
1763.59338	1.3483	0.26634
1762.09327	1.34928	0.26705
1760.59315	1.35026	0.26808
1759.09304	1.35163	0.26919
1757.59293	1.35295	0.27001
1756.09282	1.35413	0.27083
1754.59271	1.3555	0.27177
1753.0926	1.35697	0.27251
1751.59248	1.35818	0.27302
1750.09237	1.35907	0.27365
1748.59226	1.36018	0.27476
1747.09215	1.36181	0.27597
1745.59204	1.36355	0.27679
1744.09192	1.36517	0.2774
1742.59181	1.36669	0.27795
1741.0917	1.36819	0.27854
1739.59159	1.36971	0.27916
1738.09148	1.3714	0.27985
1736.59137	1.37342	0.28038
1735.09125	1.375	0.28027
1733.59114	1.37581	0.28034
1732.09103	1.37713	0.28132
1730.59092	1.3791	0.28228
1729.09081	1.38115	0.28281
1727.59069	1.38319	0.28314
1726.09058	1.38525	0.28331
1724.59047	1.38718	0.28331
1723.09036	1.38909	0.2833
1721.59025	1.39111	0.28321
1720.09014	1.39315	0.28286
1718.59002	1.39469	0.28205
1717.08991	1.39537	0.28149
1715.5898	1.39663	0.282
1714.08969	1.39856	0.2825
1712.58958	1.4007	0.28265
1711.08946	1.40296	0.28249
1709.58935	1.40508	0.28197
1708.08924	1.4071	0.2813
1706.58913	1.40882	0.28039
1705.08902	1.41018	0.27964
1703.58891	1.41199	0.2793
1702.08879	1.41419	0.27852
1700.58868	1.41545	0.27696
1699.08857	1.41606	0.27612
1697.58846	1.41765	0.27598
1696.08835	1.4192	0.27524
1694.58823	1.4205	0.27464
1693.08812	1.4224	0.27431
1691.58801	1.42452	0.27345
1690.0879	1.42617	0.27204
1688.58779	1.42745	0.27079
1687.08768	1.42921	0.26976
1685.58756	1.4308	0.26791
1684.08745	1.43076	0.26584
1682.58734	1.43103	0.26536
1681.08723	1.4325	0.26517
1679.58712	1.43418	0.26437
1678.087	1.43586	0.26322
1676.58689	1.43738	0.26163
1675.08678	1.43809	0.25976
1673.58667	1.43869	0.25852
1672.08656	1.43998	0.2575
1670.58645	1.44098	0.25585
1669.08633	1.4412	0.25425
1667.58622	1.44183	0.25345
1666.08611	1.44321	0.25263
1664.586	1.44459	0.25112
1663.08589	1.44521	0.24919
1661.58577	1.44549	0.24771
1660.08566	1.44623	0.24665
1658.58555	1.44719	0.24541
1657.08544	1.44825	0.24404
1655.58533	1.44979	0.24232
1654.08522	1.45022	0.23933
1652.5851	1.44826	0.23692
1651.08499	1.44815	0.23706
1649.58488	1.44983	0.23667
1648.08477	1.4509	0.23466
1646.58466	1.45042	0.2325
1645.08455	1.4502	0.23162
1643.58443	1.45111	0.23096
1642.08432	1.45222	0.22959
1640.58421	1.45293	0.22778
1639.0841	1.45355	0.22592
1637.58399	1.45407	0.22369
1636.08387	1.45335	0.22118
1634.58376	1.4523	0.21985
1633.08365	1.45255	0.21929
1631.58354	1.45353	0.21818
1630.08343	1.45429	0.21624
1628.58332	1.45426	0.21393
1627.0832	1.45394	0.21197
1625.58309	1.45392	0.21021
1624.08298	1.45367	0.20814
1622.58287	1.45286	0.20622
1621.08276	1.45245	0.20491
1619.58264	1.45282	0.20344
1618.08253	1.45287	0.20101
1616.58242	1.45141	0.19839
1615.08231	1.44988	0.19697
1613.5822	1.4495	0.19597
1612.08209	1.44925	0.19436
1610.58197	1.44847	0.19245
1609.08186	1.44749	0.1907
1607.58175	1.44649	0.18911
1606.08164	1.44554	0.18759
1604.58153	1.44458	0.18601
1603.08141	1.44336	0.18441
1601.5813	1.44205	0.18301
1600.08119	1.44087	0.18178
1598.58108	1.43982	0.18055
1597.08097	1.43873	0.17917
1595.58086	1.43735	0.17776
1594.08074	1.43587	0.17655
1592.58063	1.43448	0.17549
1591.08052	1.43309	0.17447
1589.58041	1.43175	0.17351
1588.0803	1.4304	0.17256
1586.58018	1.42905	0.17163
1585.08007	1.42766	0.1707
1583.57996	1.42623	0.16984
1582.07985	1.42477	0.16902
1580.57974	1.4233	0.16833
1579.07963	1.42221	0.16767
1577.57951	1.42101	0.16649
1576.0794	1.41851	0.16529
1574.57929	1.41621	0.16533
1573.07918	1.41537	0.1657
1571.57907	1.41479	0.16518
1570.07895	1.41314	0.16409
1568.57884	1.41102	0.16365
1567.07873	1.40973	0.16377
1565.57862	1.40865	0.16355
1564.07851	1.40721	0.16325
1562.5784	1.40632	0.16325
1561.07828	1.40627	0.16264
1559.57817	1.40444	0.16055
1558.07806	1.40026	0.15983
1556.57795	1.39872	0.16122
1555.07784	1.39799	0.16181
1553.57772	1.39696	0.16186
1552.07761	1.39595	0.16184
1550.5775	1.3948	0.16168
1549.07739	1.39353	0.16161
1547.57728	1.39256	0.16166
1546.07717	1.39172	0.16139
1544.57705	1.39035	0.16085
1543.07694	1.3889	0.16062
1541.57683	1.38777	0.16026
1540.07672	1.38532	0.15955
1538.57661	1.38273	0.16025
1537.07649	1.38207	0.16167
1535.57638	1.38199	0.16208
1534.07627	1.3811	0.16152
1532.57616	1.37919	0.16124
1531.07605	1.3779	0.16179
1529.57594	1.37727	0.1621
1528.07582	1.37628	0.16188
1526.57571	1.37488	0.16168
1525.0756	1.37345	0.16175
1523.57549	1.37237	0.16195
1522.07538	1.37109	0.1618
1520.57526	1.36918	0.16184
1519.07515	1.36794	0.16247
1517.57504	1.367	0.16276
1516.07493	1.36543	0.16287
1514.57482	1.36413	0.16346
1513.07471	1.36331	0.16398
1511.57459	1.36228	0.16417
1510.07448	1.36125	0.16445
1508.57437	1.36048	0.16452
1507.07426	1.35888	0.16409
1505.57415	1.35659	0.16443
1504.07403	1.3554	0.16563
1502.57392	1.35479	0.16649
1501.07381	1.35417	0.16687
1499.5737	1.3533	0.16703
1498.07359	1.35242	0.16715
1496.57348	1.35122	0.16704
1495.07336	1.34957	0.1672
1493.57325	1.34847	0.16786
1492.07314	1.34765	0.16817
1490.57303	1.34637	0.16814
1489.07292	1.3447	0.16833
1487.5728	1.34312	0.16893
1486.07269	1.34192	0.16976
1484.57258	1.34096	0.17049
1483.07247	1.34007	0.17106
1481.57236	1.33908	0.17146
1480.07225	1.3379	0.17188
1478.57213	1.33695	0.17247
1477.07202	1.33607	0.17286
1475.57191	1.33504	0.17316
1474.0718	1.33405	0.17335
1472.57169	1.33236	0.17335
1471.07157	1.33055	0.17404
1469.57146	1.32952	0.17518
1468.07135	1.32884	0.17601
1466.57124	1.32811	0.17643
1465.07113	1.32691	0.17662
1463.57102	1.32546	0.17711
1462.0709	1.32438	0.17797
1460.57079	1.32368	0.17873
1459.07068	1.32307	0.17911
1457.57057	1.32195	0.17904
1456.07046	1.32011	0.17921
1454.57035	1.3187	0.18008
1453.07023	1.31772	0.18094
1451.57012	1.3167	0.18158
1450.07001	1.31577	0.1822
1448.5699	1.31474	0.18256
1447.06979	1.3133	0.18293
1445.56967	1.31198	0.18368
1444.06956	1.31093	0.1845
1442.56945	1.30994	0.1852
1441.06934	1.30898	0.18582
1439.56923	1.30807	0.18638
1438.06912	1.30717	0.18672
1436.569	1.30572	0.1868
1435.06889	1.30397	0.18736
1433.56878	1.30284	0.18837
1432.06867	1.30187	0.189
1430.56856	1.30059	0.18944
1429.06844	1.29918	0.19002
1427.56833	1.29787	0.19079
1426.06822	1.29681	0.19157
1424.56811	1.29559	0.19209
1423.068	1.29419	0.19272
1421.56789	1.29313	0.19347
1420.06777	1.29189	0.19385
1418.56766	1.29006	0.19424
1417.06755	1.28843	0.19521
1415.56744	1.28724	0.19629
1414.06733	1.28614	0.19712
1412.56721	1.2849	0.19773
1411.0671	1.28349	0.19834
1409.56699	1.28203	0.19903
1408.06688	1.28058	0.19976
1406.56677	1.27908	0.20048
1405.06666	1.27749	0.20125
1403.56654	1.27594	0.20214
1402.06643	1.27454	0.20309
1400.56632	1.27312	0.20383
1399.06621	1.27137	0.2045
1397.5661	1.2697	0.20548
1396.06598	1.26815	0.20639
1394.56587	1.26628	0.20721
1393.06576	1.26443	0.20834
1391.56565	1.26282	0.20962
1390.06554	1.26135	0.21079
1388.56543	1.25978	0.21173
1387.06531	1.25785	0.21264
1385.5652	1.25593	0.21389
1384.06509	1.25423	0.21529
1382.56498	1.25262	0.21659
1381.06487	1.25091	0.21776
1379.56475	1.24902	0.21894
1378.06464	1.24712	0.2203
1376.56453	1.24531	0.22172
1375.06442	1.24341	0.22308
1373.56431	1.24138	0.22451
1372.0642	1.23931	0.22614
1370.56408	1.23743	0.22796
1369.06397	1.23564	0.22972
1367.56386	1.23374	0.23145
1366.06375	1.2319	0.2333
1364.56364	1.23006	0.23511
1363.06352	1.22809	0.2369
1361.56341	1.22601	0.23886
1360.0633	1.22403	0.24109
1358.56319	1.22222	0.24344
1357.06308	1.22051	0.24577
1355.56297	1.21883	0.24808
1354.06285	1.21717	0.25039
1352.56274	1.21546	0.2527
1351.06263	1.2137	0.25511
1349.56252	1.212	0.25769
1348.06241	1.21045	0.26038
1346.56229	1.20899	0.26308
1345.06218	1.20758	0.26575
1343.56207	1.2062	0.26841
1342.06196	1.20476	0.27106
1340.56185	1.20329	0.27382
1339.06174	1.20188	0.27676
1337.56162	1.20063	0.27984
1336.06151	1.19949	0.28294
1334.5614	1.19847	0.2861
1333.06129	1.19763	0.2893
1331.56118	1.19693	0.29241
1330.06106	1.19626	0.29541
1328.56095	1.19558	0.29838
1327.06084	1.19494	0.30142
1325.56073	1.19445	0.30454
1324.06062	1.19412	0.30758
1322.56051	1.19384	0.31048
1321.06039	1.19352	0.31327
1319.56028	1.19319	0.3161
1318.06017	1.19296	0.319
1316.56006	1.19288	0.32185
1315.05995	1.19287	0.32456
1313.55983	1.19285	0.32713
1312.05972	1.19279	0.32964
1310.55961	1.19277	0.33213
1309.0595	1.19281	0.33458
1307.55939	1.19289	0.33688
1306.05928	1.19292	0.339
1304.55916	1.19284	0.34099
1303.05905	1.19265	0.34297
1301.55894	1.19243	0.34494
1300.05883	1.19217	0.34683
1298.55872	1.19182	0.34864
1297.0586	1.19138	0.35041
1295.55849	1.19083	0.35214
1294.05838	1.19015	0.35382
1292.55827	1.18938	0.35554
1291.05816	1.1885	0.35722
1289.55805	1.18747	0.35886
1288.05793	1.18627	0.36054
1286.55782	1.18493	0.3623
1285.05771	1.18345	0.3641
1283.5576	1.18183	0.36599
1282.05749	1.18007	0.36798
1280.55737	1.17819	0.37009
1279.05726	1.17619	0.37231
1277.55715	1.17401	0.37463
1276.05704	1.17173	0.37719
1274.55693	1.16938	0.37993
1273.05682	1.16689	0.38278
1271.5567	1.1643	0.3859
1270.05659	1.16165	0.38925
1268.55648	1.15891	0.39285
1267.05637	1.15614	0.39673
1265.55626	1.15333	0.40093
1264.05615	1.15061	0.4055
1262.55603	1.14798	0.41029
1261.05592	1.14538	0.41529
1259.55581	1.14284	0.42064
1258.0557	1.14042	0.4263
1256.55559	1.13816	0.43229
1255.05547	1.13612	0.43853
1253.55536	1.13426	0.44498
1252.05525	1.13259	0.4517
1250.55514	1.13116	0.45866
1249.05503	1.12999	0.46585
1247.55492	1.12909	0.47322
1246.0548	1.12847	0.48074
1244.55469	1.12811	0.48843
1243.05458	1.12807	0.4963
1241.55447	1.12835	0.5043
1240.05436	1.129	0.51244
1238.55424	1.13004	0.52061
1237.05413	1.13141	0.52872
1235.55402	1.13307	0.53687
1234.05391	1.13506	0.54505
1232.5538	1.1374	0.55321
1231.05369	1.14011	0.56136
1229.55357	1.14319	0.56936
1228.05346	1.14659	0.57727
1226.55335	1.15034	0.58497
1225.05324	1.1543	0.59241
1223.55313	1.15845	0.59979
1222.05301	1.16288	0.60701
1220.5529	1.16753	0.61405
1219.05279	1.17244	0.62094
1217.55268	1.17755	0.62752
1216.05257	1.1828	0.63397
1214.55246	1.18827	0.64014
1213.05234	1.19377	0.64598
1211.55223	1.19934	0.65179
1210.05212	1.20504	0.65736
1208.55201	1.2108	0.66282
1207.0519	1.21669	0.6681
1205.55178	1.22258	0.67311
1204.05167	1.22853	0.67816
1202.55156	1.23463	0.68301
1201.05145	1.24074	0.68768
1199.55134	1.24692	0.69227
1198.05123	1.25313	0.69672
1196.55111	1.25942	0.70116
1195.051	1.26584	0.70543
1193.55089	1.27226	0.70952
1192.05078	1.2787	0.71363
1190.55067	1.28526	0.71771
1189.05055	1.29193	0.72171
1187.55044	1.29871	0.72566
1186.05033	1.3056	0.72953
1184.55022	1.31264	0.73343
1183.05011	1.31994	0.73732
1181.55	1.32749	0.74102
1180.04988	1.33522	0.74455
1178.54977	1.34317	0.74793
1177.04966	1.35132	0.75116
1175.54955	1.35975	0.75425
1174.04944	1.36844	0.757
1172.54932	1.37729	0.75946
1171.04921	1.38639	0.76168
1169.5491	1.39565	0.76346
1168.04899	1.40506	0.76497
1166.54888	1.41467	0.76607
1165.04877	1.42431	0.7667
1163.54865	1.43409	0.76704
1162.04854	1.44396	0.7668
1160.54843	1.45376	0.76616
1159.04832	1.46366	0.76514
1157.54821	1.47346	0.76349
1156.04809	1.4832	0.7615
1154.54798	1.49287	0.75888
1153.04787	1.50225	0.75576
1151.54776	1.5115	0.75228
1150.04765	1.52044	0.74818
1148.54754	1.52903	0.74375
1147.04742	1.5373	0.73889
1145.54731	1.54515	0.73369
1144.0472	1.55269	0.72824
1142.54709	1.55984	0.72238
1141.04698	1.56649	0.71624
1139.54686	1.57272	0.70988
1138.04675	1.5784	0.70323
1136.54664	1.58355	0.69652
1135.04653	1.58821	0.68975
1133.54642	1.59242	0.68299
1132.04631	1.59624	0.67626
1130.54619	1.59966	0.66944
1129.04608	1.60256	0.66257
1127.54597	1.60499	0.65582
1126.04586	1.60699	0.64918
1124.54575	1.60859	0.64273
1123.04563	1.60992	0.63645
1121.54552	1.61082	0.63018
1120.04541	1.61135	0.62416
1118.5453	1.61159	0.61835
1117.04519	1.61146	0.61272
1115.54508	1.61115	0.60743
1114.04496	1.61063	0.60224
1112.54485	1.60976	0.5972
1111.04474	1.60865	0.5924
1109.54463	1.6072	0.58781
1108.04452	1.60561	0.58362
1106.5444	1.60384	0.57958
1105.04429	1.60176	0.57575
1103.54418	1.59958	0.57229
1102.04407	1.59718	0.56898
1100.54396	1.59457	0.56598
1099.04385	1.5918	0.56323
1097.54373	1.58874	0.5607
1096.04362	1.58552	0.55858
1094.54351	1.58208	0.55671
1093.0434	1.57841	0.55524
1091.54329	1.57459	0.55415
1090.04317	1.57048	0.55342
1088.54306	1.5662	0.55327
1087.04295	1.56182	0.55364
1085.54284	1.55728	0.55453
1084.04273	1.55265	0.55607
1082.54262	1.54797	0.55826
1081.0425	1.54327	0.56119
1079.54239	1.53864	0.56496
1078.04228	1.53419	0.56966
1076.54217	1.53018	0.57537
1075.04206	1.52674	0.58194
1073.54194	1.52386	0.58931
1072.04183	1.52175	0.59764
1070.54172	1.52069	0.60681
1069.04161	1.52076	0.61657
1067.5415	1.52207	0.62678
1066.04139	1.52459	0.63715
1064.54127	1.52828	0.64762
1063.04116	1.53326	0.65812
1061.54105	1.53947	0.6684
1060.04094	1.54699	0.67841
1058.54083	1.5558	0.68781
1057.04072	1.56566	0.69633
1055.5406	1.5764	0.70395
1054.04049	1.58776	0.71052
1052.54038	1.59965	0.71639
1051.04027	1.61235	0.72165
1049.54016	1.62584	0.72596
1048.04004	1.64017	0.72923
1046.53993	1.65504	0.73087
1045.03982	1.66999	0.73095
1043.53971	1.68492	0.72966
1042.0396	1.6995	0.72693
1040.53949	1.71373	0.72316
1039.03937	1.72762	0.71825
1037.53926	1.74094	0.71222
1036.03915	1.7537	0.70523
1034.53904	1.76569	0.69721
1033.03893	1.77679	0.68843
1031.53881	1.78712	0.67904
1030.0387	1.79656	0.669
1028.53859	1.80506	0.65849
1027.03848	1.81259	0.64756
1025.53837	1.81907	0.63639
1024.03826	1.82463	0.62521
1022.53814	1.82938	0.61405
1021.03803	1.83331	0.60291
1019.53792	1.83642	0.5919
1018.03781	1.83875	0.58109
1016.5377	1.84047	0.5707
1015.03758	1.84184	0.56062
1013.53747	1.84266	0.55064
1012.03736	1.84292	0.54094
1010.53725	1.84276	0.53159
1009.03714	1.84223	0.52258
1007.53703	1.84145	0.51385
1006.03691	1.84019	0.50526
1004.5368	1.83851	0.49708
1003.03669	1.83667	0.48934
1001.53658	1.83452	0.48187
1000.03647	1.83222	0.47484
998.53635	1.82986	0.46808
997.03624	1.82721	0.46152
995.53613	1.82436	0.45531
994.03602	1.8213	0.44949
992.53591	1.81828	0.44418
991.0358	1.81539	0.43916
989.53568	1.81243	0.43433
988.03557	1.80954	0.42983
986.53546	1.80676	0.42555
985.03535	1.80414	0.42144
983.53524	1.8016	0.41737
982.03512	1.79901	0.41334
980.53501	1.79651	0.40943
979.0349	1.79401	0.40547
977.53479	1.79136	0.40152
976.03468	1.78865	0.39765
974.53457	1.78583	0.39382
973.03445	1.7829	0.39009
971.53434	1.77988	0.38643
970.03423	1.77671	0.38287
968.53412	1.77347	0.37945
967.03401	1.77015	0.37611
965.53389	1.76669	0.37286
964.03378	1.76309	0.36973
962.53367	1.75933	0.36671
961.03356	1.75542	0.3639
959.53345	1.75149	0.36128
958.03334	1.74743	0.35874
956.53322	1.74314	0.35637
955.03311	1.73877	0.35426
953.533	1.73429	0.35236
952.03289	1.72978	0.35068
950.53278	1.7251	0.34912
949.03266	1.72015	0.34784
947.53255	1.71522	0.34698
946.03244	1.7103	0.34639
944.53233	1.70536	0.34604
943.03222	1.70035	0.34592
941.53211	1.69517	0.34611
940.03199	1.6901	0.34671
938.53188	1.685	0.34752
937.03177	1.67977	0.34867
935.53166	1.67454	0.35025
934.03155	1.66931	0.35225
932.53143	1.66415	0.35474
931.03132	1.65912	0.35769
929.53121	1.65418	0.3611
928.0311	1.64945	0.36508
926.53099	1.64502	0.36959
925.03088	1.64093	0.3746
923.53076	1.63722	0.38012
922.03065	1.63393	0.38614
920.53054	1.63118	0.39267
919.03043	1.629	0.39967
917.53032	1.62753	0.40716
916.0302	1.62693	0.41506
914.53009	1.62716	0.42314
913.02998	1.6282	0.43137
911.52987	1.63012	0.43979
910.02976	1.63311	0.4483
908.52965	1.63718	0.45667
907.02953	1.64228	0.46468
905.52942	1.64826	0.47222
904.02931	1.65511	0.47926
902.5292	1.66283	0.4857
901.02909	1.67135	0.4914
899.52897	1.68063	0.49624
898.02886	1.69048	0.50003
896.52875	1.70074	0.50276
895.02864	1.71129	0.50437
893.52853	1.72191	0.50484
892.02842	1.73261	0.50429
890.5283	1.74323	0.50255
889.02819	1.75348	0.49967
887.52808	1.76336	0.49584
886.02797	1.77271	0.49103
884.52786	1.78143	0.4854
883.02774	1.78947	0.479
881.52763	1.79668	0.47198
880.02752	1.80323	0.46453
878.52741	1.80899	0.45655
877.0273	1.8138	0.44819
875.52719	1.81764	0.43964
874.02707	1.82059	0.43119
872.52696	1.82298	0.42296
871.02685	1.82489	0.41481
869.52674	1.82623	0.40666
868.02663	1.82697	0.39856
866.52652	1.82702	0.3906
865.0264	1.82654	0.38296
863.52629	1.82568	0.37562
862.02618	1.82438	0.36853
860.52607	1.82268	0.36178
859.02596	1.82074	0.35539
857.52584	1.81856	0.34929
856.02573	1.81612	0.34346
854.52562	1.81345	0.33795
853.02551	1.81057	0.33278
851.5254	1.80765	0.328
850.02529	1.80468	0.32344
848.52517	1.8016	0.31913
847.02506	1.79849	0.31508
845.52495	1.79534	0.31123
844.02484	1.79213	0.30759
842.52473	1.78887	0.30414
841.02461	1.78556	0.30092
839.5245	1.78227	0.29789
838.02439	1.77898	0.29501
836.52428	1.7757	0.29229
835.02417	1.77241	0.28966
833.52406	1.76896	0.28711
832.02394	1.7654	0.28479
830.52383	1.76178	0.2827
829.02372	1.75827	0.28089
827.52361	1.75483	0.27912
826.0235	1.75099	0.27745
824.52338	1.74703	0.27634
823.02327	1.74353	0.27577
821.52316	1.74058	0.27538
820.02305	1.73795	0.27483
818.52294	1.73527	0.2741
817.02283	1.73254	0.27342
815.52271	1.72991	0.27279
814.0226	1.72728	0.27216
812.52249	1.72459	0.27158
811.02238	1.72191	0.27114
809.52227	1.71942	0.27085
808.02215	1.71705	0.27049
806.52204	1.71459	0.2701
805.02193	1.7121	0.26981
803.52182	1.70971	0.26963
802.02171	1.70737	0.26947
800.5216	1.70506	0.26934
799.02148	1.70276	0.26923
797.52137	1.70044	0.26916
796.02126	1.69811	0.26918
794.52115	1.6958	0.26931
793.02104	1.69359	0.26957
791.52092	1.69153	0.26988
790.02081	1.6895	0.27019
788.5207	1.68752	0.27054
787.02059	1.68564	0.27093
785.52048	1.6838	0.27131
784.02037	1.68201	0.27173
782.52025	1.68024	0.27216
781.02014	1.67852	0.27268
779.52003	1.67702	0.27322
778.01992	1.67556	0.27365
776.51981	1.67408	0.27403
775.01969	1.67258	0.2744
773.51958	1.67103	0.27483
772.01947	1.66964	0.27535
770.51936	1.66836	0.27583
769.01925	1.66711	0.27623
767.51914	1.66582	0.27658
766.01902	1.66453	0.27699
764.51891	1.66345	0.27742
763.0188	1.66245	0.27765
761.51869	1.66125	0.27769
760.01858	1.65986	0.27776
758.51846	1.65842	0.27794
757.01835	1.65704	0.2782
755.51824	1.6557	0.27847
754.01813	1.65432	0.27873
752.51802	1.65294	0.27902
751.01791	1.65155	0.27937
749.51779	1.65028	0.27977
748.01768	1.64909	0.28009
746.51757	1.64774	0.28031
745.01746	1.64634	0.28065
743.51735	1.64517	0.28109
742.01723	1.64406	0.28133
740.51712	1.64271	0.28144
739.01701	1.64128	0.28165
737.5169	1.63985	0.28192
736.01679	1.63842	0.28226
734.51668	1.63707	0.28263
733.01656	1.63578	0.28296
731.51645	1.63446	0.28319
730.01634	1.63298	0.28337
728.51623	1.63143	0.28362
727.01612	1.62992	0.28394
725.516	1.62833	0.28422
724.01589	1.62666	0.28456
722.51578	1.62499	0.28499
721.01567	1.62336	0.2855
719.51556	1.62184	0.28604
718.01545	1.62034	0.28648
716.51533	1.61875	0.28682
715.01522	1.61694	0.28714
713.51511	1.61499	0.28757
712.015	1.613	0.28818
710.51489	1.61109	0.28898
709.01477	1.60939	0.28986
707.51466	1.60771	0.2906
706.01455	1.60588	0.29131
704.51444	1.60408	0.29213
703.01433	1.60232	0.29296
701.51422	1.60051	0.29378
700.0141	1.59873	0.29463
698.51399	1.59691	0.29541
697.01388	1.59495	0.29618
695.51377	1.59294	0.29703
694.01366	1.5909	0.29793
692.51354	1.58878	0.29884
691.01343	1.58649	0.29978
689.51332	1.58404	0.30088
688.01321	1.58154	0.30226
686.5131	1.57926	0.30393
685.01299	1.57727	0.30566
683.51287	1.57537	0.30725
682.01276	1.57337	0.30873
680.51265	1.57126	0.3102
679.01254	1.56901	0.31173
677.51243	1.56674	0.31348
676.01232	1.56473	0.31538
674.5122	1.56274	0.31708
673.01209	1.56042	0.31871
671.51198	1.55824	0.32066
670.01187	1.55634	0.32246
668.51176	1.55355	0.32371
667.01164	1.55023	0.32581
665.51153	1.54788	0.32877
664.01142	1.5458	0.33134
662.51131	1.54343	0.33371
661.0112	1.54118	0.33637
659.51109	1.53919	0.33896
658.01097	1.5369	0.34123
656.51086	1.53436	0.3436
655.01075	1.53168	0.3461
653.51064	1.52882	0.34876
652.01053	1.52591	0.35167
650.51041	1.52289	0.35474
649.0103	1.51981	0.35809
647.51019	1.51677	0.36167
646.01008	1.51369	0.36545
644.50997	1.51065	0.36951
643.00986	1.50772	0.37378
641.50974	1.50482	0.37816
640.00963	1.50188	0.38265
638.50952	1.49878	0.38727
637.00941	1.4955	0.39218
635.5093	1.49214	0.39756
634.00918	1.48884	0.40341
632.50907	1.48574	0.40978
631.00896	1.48293	0.4165
629.50885	1.48022	0.42339
628.00874	1.47746	0.43058
626.50863	1.47469	0.43831
625.00851	1.47216	0.44683
623.5084	1.47033	0.45609
622.00829	1.46905	0.46558
620.50818	1.46812	0.47537
619.00807	1.46773	0.48561
617.50795	1.46789	0.49619
616.00784	1.46875	0.50707
614.50773	1.47004	0.51797
613.00762	1.47195	0.52936
611.50751	1.47489	0.54094
610.0074	1.4781	0.55199
608.50728	1.48149	0.56335
607.00717	1.48558	0.57534
605.50706	1.49065	0.58775
604.00695	1.49695	0.60026
602.50684	1.50399	0.61219
601.00672	1.5116	0.62411
599.50661	1.52023	0.63609
598.0065	1.52953	0.64757
596.50639	1.53951	0.65908
595.00628	1.55041	0.67056
593.50617	1.56223	0.68197
592.00605	1.57539	0.69353
590.50594	1.59002	0.70462
589.00583	1.60592	0.71514
587.50572	1.6235	0.72533
586.00561	1.64306	0.73455
584.50549	1.66446	0.74225
583.00538	1.68761	0.748
581.50527	1.71211	0.75126
580.00516	1.73796	0.75209
578.50505	1.76493	0.74949
577.00494	1.79165	0.74273
575.50482	1.81777	0.73246
574.00471	1.84245	0.71808
572.5046	1.86445	0.69994
571.00449	1.88305	0.67863
569.50438	1.89687	0.65503
568.00426	1.90651	0.6313
566.50415	1.91234	0.60774
565.00404	1.9144	0.58531
563.50393	1.9142	0.56492
562.00382	1.91162	0.54604
560.50371	1.9075	0.5295
559.00359	1.90254	0.51489
557.50348	1.89675	0.50217
556.00337	1.89118	0.49133
554.50326	1.8854	0.48152
553.00315	1.87945	0.47307
551.50303	1.87397	0.4659
550.00292	1.8688	0.45947
548.50281	1.86398	0.45366
547.0027	1.85918	0.44818
545.50259	1.85421	0.44334
544.00248	1.84978	0.43937
542.50236	1.84583	0.43562
541.00225	1.8418	0.43191
539.50214	1.83781	0.42861
538.00203	1.83402	0.42567
536.50192	1.83026	0.42295
535.0018	1.82664	0.42063
533.50169	1.82342	0.41862
532.00158	1.82049	0.4166
530.50147	1.81741	0.41445
529.00136	1.81417	0.41254
527.50125	1.81117	0.41099
526.00113	1.80826	0.40949
524.50102	1.80539	0.40813
523.00091	1.80273	0.40689
521.5008	1.8	0.40554
520.00069	1.79712	0.40431
518.50057	1.79413	0.40321
517.00046	1.79093	0.40242
515.50035	1.78805	0.4021
514.00024	1.78529	0.40189
512.50013	1.78288	0.40201
511.00002	1.78111	0.40198
509.4999	1.77895	0.40129
507.99979	1.77613	0.40057
506.49968	1.77286	0.40035
504.99957	1.76981	0.40091
503.49946	1.76748	0.40187
501.99934	1.76514	0.40266
500.49923	1.76317	0.40379
498.99912	1.76197	0.40477
497.49901	1.76055	0.40488
495.9989	1.75799	0.40461
494.49879	1.75483	0.40513
492.99867	1.75231	0.40665
491.49856	1.75028	0.40816
489.99845	1.74803	0.4096
488.49834	1.74627	0.41145
486.99823	1.74475	0.41301
485.49812	1.74269	0.41432
483.998	1.74048	0.41613
482.49789	1.73854	0.41837
480.99778	1.73694	0.42085
479.49767	1.73574	0.42338
477.99756	1.73485	0.42566
476.49744	1.73355	0.42731
474.99733	1.73089	0.42897
473.49722	1.7277	0.43223
471.99711	1.72655	0.43735
470.497	1.72714	0.44184
468.99689	1.72672	0.44474
467.49677	1.72538	0.44836
465.99666	1.72524	0.45361
464.49655	1.72697	0.45894
462.99644	1.72935	0.46288
461.49633	1.73074	0.46564
459.99621	1.73145	0.46867
458.4961	1.73184	0.47231
456.99599	1.73283	0.47732
455.49588	1.73621	0.483
453.99577	1.7401	0.48706
452.49566	1.74366	0.49045
450.99554	1.74742	0.49384
449.49543	1.7517	0.49713
447.99532	1.75651	0.49988
446.49521	1.76103	0.50188
444.9951	1.76574	0.50396
443.49498	1.77096	0.50578
441.99487	1.7765	0.50712
440.49476	1.78275	0.50787
438.99465	1.78908	0.50715
437.49454	1.79438	0.5051
435.99443	1.79868	0.50254
434.49431	1.80195	0.4999
432.9942	1.80488	0.49772
431.49409	1.8077	0.49558
429.99398	1.81011	0.4934
428.49387	1.81256	0.4914
426.99375	1.81471	0.48913
425.49364	1.81629	0.48692
423.99353	1.81807	0.48516
422.49342	1.82	0.48313
420.99331	1.82118	0.48073
419.4932	1.82193	0.47886
417.99308	1.8233	0.47759
416.49297	1.82511	0.47602
414.99286	1.82671	0.47381
413.49275	1.82771	0.47129
411.99264	1.82835	0.46895
410.49252	1.82904	0.46674
408.99241	1.82948	0.46426
407.4923	1.82933	0.46177
405.99219	1.82905	0.45962
404.49208	1.82872	0.45755
402.99197	1.82812	0.45545
401.49185	1.82728	0.45342
399.99174	1.82587	0.45142
