#SUBSTANCE=Sulphuric acid
#DESCRIPTION=Refractive indices of 76 wt% sulphuric acid from 400 to 7500 cm-1 at 203 K
#TEMPERATURE=203 K
#CONCENTRATION=76 wt%
#DOI=10.1021/jp026576n
#REFERENCE=Spectroscopic Study of Aqueous H2SO4 at Different Temperatures and Compositions:  Variations in Dissociation and Optical Properties
##Cathrine E. Lund Myhre,†, Daniel H. Christensen,‡, Flemming M. Nicolaisen,‡ and, and Claus J. Nielsen*,†
##The Journal of Physical Chemistry A 2003 107 (12), 1979-1991 
#FORMAT=WAVN N K
7498.52083	1.41296	0.01909
7497.02072	1.41297	0.01908
7495.52061	1.41299	0.01906
7494.0205	1.413	0.01904
7492.52039	1.41298	0.01902
7491.02027	1.41295	0.01902
7489.52016	1.41292	0.01903
7488.02005	1.41291	0.01904
7486.51994	1.41289	0.01905
7485.01983	1.41289	0.01905
7483.51971	1.41288	0.01906
7482.0196	1.41289	0.01907
7480.51949	1.4129	0.01907
7479.01938	1.41293	0.01907
7477.51927	1.41294	0.01907
7476.01916	1.41295	0.01906
7474.51904	1.41294	0.01906
7473.01893	1.41292	0.01906
7471.51882	1.4129	0.01906
7470.01871	1.41289	0.01907
7468.5186	1.41287	0.01908
7467.01848	1.41287	0.01908
7465.51837	1.41287	0.0191
7464.01826	1.41287	0.01911
7462.51815	1.4129	0.01913
7461.01804	1.41293	0.01914
7459.51793	1.41297	0.01914
7458.01781	1.41301	0.01914
7456.5177	1.41304	0.01911
7455.01759	1.41306	0.01909
7453.51748	1.41307	0.01907
7452.01737	1.41309	0.01903
7450.51725	1.41309	0.019
7449.01714	1.41308	0.01897
7447.51703	1.41306	0.01894
7446.01692	1.41302	0.01892
7444.51681	1.41299	0.0189
7443.0167	1.41296	0.0189
7441.51658	1.41292	0.0189
7440.01647	1.41287	0.01891
7438.51636	1.41284	0.01893
7437.01625	1.41282	0.01895
7435.51614	1.41283	0.01898
7434.01602	1.41284	0.01899
7432.51591	1.41287	0.01901
7431.0158	1.4129	0.01901
7429.51569	1.41293	0.019
7428.01558	1.41296	0.01899
7426.51547	1.41298	0.01898
7425.01535	1.41298	0.01895
7423.51524	1.41296	0.01894
7422.01513	1.41293	0.01892
7420.51502	1.41289	0.01891
7419.01491	1.41285	0.01891
7417.51479	1.4128	0.01893
7416.01468	1.41277	0.01895
7414.51457	1.41275	0.01898
7413.01446	1.41276	0.01901
7411.51435	1.41279	0.01905
7410.01424	1.41282	0.01906
7408.51412	1.41287	0.01908
7407.01401	1.41291	0.01908
7405.5139	1.41296	0.01908
7404.01379	1.41299	0.01906
7402.51368	1.41302	0.01905
7401.01356	1.41302	0.01902
7399.51345	1.41302	0.019
7398.01334	1.41301	0.01897
7396.51323	1.413	0.01895
7395.01312	1.41298	0.01893
7393.51301	1.41296	0.01893
7392.01289	1.41296	0.01892
7390.51278	1.41295	0.01892
7389.01267	1.41295	0.01891
7387.51256	1.41294	0.01891
7386.01245	1.41293	0.01891
7384.51233	1.41292	0.01892
7383.01222	1.41291	0.01892
7381.51211	1.4129	0.01894
7380.012	1.4129	0.01894
7378.51189	1.41291	0.01896
7377.01178	1.41292	0.01896
7375.51166	1.41293	0.01897
7374.01155	1.41296	0.01897
7372.51144	1.41298	0.01897
7371.01133	1.41302	0.01897
7369.51122	1.41304	0.01896
7368.0111	1.41306	0.01894
7366.51099	1.41307	0.01891
7365.01088	1.41308	0.0189
7363.51077	1.41309	0.01889
7362.01066	1.4131	0.01886
7360.51055	1.41312	0.01883
7359.01043	1.41312	0.0188
7357.51032	1.41313	0.01876
7356.01021	1.41313	0.01874
7354.5101	1.41313	0.0187
7353.00999	1.41313	0.01867
7351.50987	1.41313	0.01863
7350.00976	1.4131	0.01858
7348.50965	1.41307	0.01855
7347.00954	1.41301	0.01852
7345.50943	1.41296	0.01852
7344.00932	1.41292	0.0185
7342.5092	1.41287	0.01849
7341.00909	1.41282	0.01848
7339.50898	1.41279	0.01848
7338.00887	1.41274	0.01849
7336.50876	1.41271	0.01852
7335.00864	1.41269	0.01853
7333.50853	1.41267	0.01856
7332.00842	1.41265	0.01858
7330.50831	1.41261	0.0186
7329.0082	1.41258	0.01863
7327.50809	1.41255	0.01867
7326.00797	1.41253	0.01871
7324.50786	1.41253	0.01876
7323.00775	1.41254	0.0188
7321.50764	1.41258	0.01883
7320.00753	1.41263	0.01885
7318.50741	1.41268	0.01886
7317.0073	1.41272	0.01887
7315.50719	1.41275	0.01888
7314.00708	1.41278	0.01889
7312.50697	1.41279	0.01889
7311.00686	1.41279	0.01889
7309.50674	1.41279	0.01888
7308.00663	1.4128	0.01888
7306.50652	1.41282	0.01887
7305.00641	1.41287	0.01887
7303.5063	1.41293	0.01884
7302.00619	1.41299	0.01881
7300.50607	1.41304	0.01877
7299.00596	1.41308	0.01872
7297.50585	1.4131	0.01866
7296.00574	1.41309	0.0186
7294.50563	1.41305	0.01855
7293.00551	1.41298	0.0185
7291.5054	1.4129	0.01847
7290.00529	1.41281	0.01846
7288.50518	1.41275	0.01846
7287.00507	1.41269	0.01847
7285.50496	1.41265	0.01849
7284.00484	1.41263	0.01852
7282.50473	1.41262	0.01855
7281.00462	1.41264	0.01858
7279.50451	1.41267	0.0186
7278.0044	1.41269	0.01861
7276.50428	1.41271	0.01861
7275.00417	1.41271	0.01861
7273.50406	1.41269	0.01861
7272.00395	1.41269	0.01861
7270.50384	1.41268	0.01862
7269.00373	1.41267	0.01863
7267.50361	1.41266	0.01863
7266.0035	1.41265	0.01864
7264.50339	1.41266	0.01865
7263.00328	1.41268	0.01867
7261.50317	1.4127	0.01868
7260.00305	1.41273	0.01869
7258.50294	1.41275	0.01869
7257.00283	1.41279	0.01868
7255.50272	1.41284	0.01866
7254.00261	1.41287	0.01863
7252.5025	1.4129	0.01859
7251.00238	1.4129	0.01856
7249.50227	1.41289	0.01853
7248.00216	1.41289	0.0185
7246.50205	1.41289	0.01846
7245.00194	1.41288	0.01842
7243.50182	1.41285	0.01837
7242.00171	1.41281	0.01834
7240.5016	1.41277	0.01833
7239.00149	1.41272	0.01833
7237.50138	1.41271	0.01833
7236.00127	1.41268	0.01832
7234.50115	1.41265	0.01831
7233.00104	1.41259	0.0183
7231.50093	1.41254	0.01832
7230.00082	1.41252	0.01835
7228.50071	1.41251	0.01839
7227.00059	1.41252	0.01842
7225.50048	1.41254	0.01844
7224.00037	1.41256	0.01844
7222.50026	1.41259	0.01843
7221.00015	1.41262	0.01843
7219.50004	1.41265	0.01842
7217.99992	1.41267	0.01841
7216.49981	1.4127	0.01838
7214.9997	1.41269	0.01835
7213.49959	1.41268	0.01831
7211.99948	1.41265	0.01827
7210.49936	1.41261	0.01826
7208.99925	1.41258	0.01824
7207.49914	1.41255	0.01823
7205.99903	1.41251	0.01822
7204.49892	1.41246	0.01822
7202.99881	1.41243	0.01824
7201.49869	1.4124	0.01826
7199.99858	1.4124	0.01827
7198.49847	1.4124	0.01829
7196.99836	1.41241	0.01829
7195.49825	1.41243	0.01828
7193.99813	1.41243	0.01827
7192.49802	1.41245	0.01826
7190.99791	1.41245	0.01826
7189.4978	1.41243	0.01825
7187.99769	1.4124	0.01824
7186.49758	1.41236	0.01824
7184.99746	1.41232	0.01823
7183.49735	1.41228	0.01823
7181.99724	1.41225	0.01824
7180.49713	1.41225	0.01825
7178.99702	1.41224	0.01826
7177.4969	1.41225	0.01828
7175.99679	1.41226	0.01828
7174.49668	1.41227	0.01828
7172.99657	1.41226	0.01828
7171.49646	1.41224	0.01828
7169.99635	1.4122	0.01829
7168.49623	1.41215	0.01831
7166.99612	1.41212	0.01834
7165.49601	1.4121	0.01837
7163.9959	1.4121	0.01839
7162.49579	1.41211	0.01841
7160.99567	1.41213	0.01844
7159.49556	1.41217	0.01846
7157.99545	1.41222	0.01847
7156.49534	1.41228	0.01847
7154.99523	1.41233	0.01846
7153.49512	1.41235	0.01843
7151.995	1.41235	0.0184
7150.49489	1.41235	0.01837
7148.99478	1.41233	0.01835
7147.49467	1.4123	0.01833
7145.99456	1.41228	0.01832
7144.49444	1.41225	0.01831
7142.99433	1.41223	0.0183
7141.49422	1.41221	0.0183
7139.99411	1.4122	0.0183
7138.494	1.41221	0.01831
7136.99389	1.41222	0.0183
7135.49377	1.41223	0.0183
7133.99366	1.41224	0.01828
7132.49355	1.41225	0.01826
7130.99344	1.41225	0.01823
7129.49333	1.41224	0.0182
7127.99321	1.41219	0.01818
7126.4931	1.41214	0.01817
7124.99299	1.41208	0.01817
7123.49288	1.41203	0.01818
7121.99277	1.41198	0.01819
7120.49266	1.41193	0.01821
7118.99254	1.41189	0.01823
7117.49243	1.41187	0.01827
7115.99232	1.41187	0.01832
7114.49221	1.41189	0.01837
7112.9921	1.41191	0.01839
7111.49198	1.41194	0.01842
7109.99187	1.41196	0.01843
7108.49176	1.41198	0.01843
7106.99165	1.412	0.01844
7105.49154	1.412	0.01844
7103.99143	1.41201	0.01845
7102.49131	1.41201	0.01845
7100.9912	1.41201	0.01845
7099.49109	1.41202	0.01845
7097.99098	1.41202	0.01845
7096.49087	1.41202	0.01845
7094.99076	1.41203	0.01845
7093.49064	1.41205	0.01845
7091.99053	1.41207	0.01845
7090.49042	1.41209	0.01845
7088.99031	1.41211	0.01844
7087.4902	1.41213	0.01841
7085.99008	1.41214	0.01838
7084.48997	1.41216	0.01835
7082.98986	1.41216	0.01832
7081.48975	1.41214	0.01829
7079.98964	1.41211	0.01826
7078.48953	1.41207	0.01825
7076.98941	1.41203	0.01824
7075.4893	1.41198	0.01823
7073.98919	1.41193	0.01823
7072.48908	1.41189	0.01824
7070.98897	1.41186	0.01826
7069.48885	1.41184	0.01829
7067.98874	1.41185	0.01832
7066.48863	1.41186	0.01834
7064.98852	1.41187	0.01835
7063.48841	1.41189	0.01836
7061.9883	1.4119	0.01837
7060.48818	1.41192	0.01836
7058.98807	1.41193	0.01836
7057.48796	1.41193	0.01835
7055.98785	1.41193	0.01834
7054.48774	1.41191	0.01833
7052.98762	1.41188	0.01833
7051.48751	1.41187	0.01832
7049.9874	1.41185	0.01832
7048.48729	1.41183	0.01832
7046.98718	1.41181	0.01834
7045.48707	1.4118	0.01835
7043.98695	1.41179	0.01837
7042.48684	1.41178	0.0184
7040.98673	1.41178	0.01841
7039.48662	1.41179	0.01843
7037.98651	1.41179	0.01844
7036.48639	1.41182	0.01845
7034.98628	1.41185	0.01846
7033.48617	1.41188	0.01846
7031.98606	1.4119	0.01846
7030.48595	1.41192	0.01844
7028.98584	1.41193	0.01842
7027.48572	1.41194	0.01841
7025.98561	1.41193	0.01838
7024.4855	1.41193	0.01837
7022.98539	1.4119	0.01836
7021.48528	1.41189	0.01835
7019.98516	1.41187	0.01834
7018.48505	1.41187	0.01833
7016.98494	1.41185	0.01833
7015.48483	1.41183	0.01833
7013.98472	1.41183	0.01834
7012.48461	1.41182	0.01834
7010.98449	1.41182	0.01835
7009.48438	1.41183	0.01835
7007.98427	1.41182	0.01834
7006.48416	1.41182	0.01834
7004.98405	1.41181	0.01834
7003.48393	1.41182	0.01835
7001.98382	1.41183	0.01835
7000.48371	1.41183	0.01834
6998.9836	1.41183	0.01833
6997.48349	1.41183	0.01832
6995.98338	1.41183	0.01831
6994.48326	1.41183	0.0183
6992.98315	1.41182	0.01829
6991.48304	1.41182	0.01828
6989.98293	1.4118	0.01827
6988.48282	1.41178	0.01826
6986.9827	1.41177	0.01825
6985.48259	1.41174	0.01825
6983.98248	1.41172	0.01826
6982.48237	1.41169	0.01827
6980.98226	1.41168	0.01828
6979.48215	1.41167	0.01829
6977.98203	1.41167	0.0183
6976.48192	1.41167	0.01831
6974.98181	1.41167	0.01833
6973.4817	1.41169	0.01833
6971.98159	1.41171	0.01833
6970.48147	1.41173	0.01833
6968.98136	1.41174	0.01832
6967.48125	1.41174	0.01831
6965.98114	1.41173	0.0183
6964.48103	1.41172	0.01829
6962.98092	1.41171	0.01828
6961.4808	1.41171	0.01828
6959.98069	1.41169	0.01826
6958.48058	1.41168	0.01825
6956.98047	1.41167	0.01825
6955.48036	1.41167	0.01824
6953.98024	1.41166	0.01824
6952.48013	1.41164	0.01824
6950.98002	1.41163	0.01824
6949.47991	1.41161	0.01824
6947.9798	1.41159	0.01824
6946.47969	1.41157	0.01824
6944.97957	1.41154	0.01826
6943.47946	1.41152	0.01827
6941.97935	1.41151	0.01829
6940.47924	1.41152	0.01831
6938.97913	1.41153	0.01832
6937.47901	1.41153	0.01834
6935.9789	1.41154	0.01834
6934.47879	1.41155	0.01836
6932.97868	1.41156	0.01836
6931.47857	1.41158	0.01837
6929.97846	1.41158	0.01837
6928.47834	1.41159	0.01836
6926.97823	1.41159	0.01836
6925.47812	1.4116	0.01836
6923.97801	1.4116	0.01836
6922.4779	1.41162	0.01836
6920.97778	1.41163	0.01836
6919.47767	1.41164	0.01835
6917.97756	1.41166	0.01834
6916.47745	1.41167	0.01833
6914.97734	1.41169	0.0183
6913.47723	1.41171	0.01828
6911.97711	1.41173	0.01825
6910.477	1.41174	0.01822
6908.97689	1.41173	0.01818
6907.47678	1.41172	0.01815
6905.97667	1.41169	0.01811
6904.47656	1.41166	0.01808
6902.97644	1.41161	0.01806
6901.47633	1.41156	0.01804
6899.97622	1.4115	0.01804
6898.47611	1.41144	0.01805
6896.976	1.4114	0.01806
6895.47588	1.41135	0.01808
6893.97577	1.41132	0.01811
6892.47566	1.41131	0.01814
6890.97555	1.4113	0.01817
6889.47544	1.4113	0.0182
6887.97533	1.41132	0.01823
6886.47521	1.41135	0.01824
6884.9751	1.41137	0.01826
6883.47499	1.4114	0.01826
6881.97488	1.41141	0.01825
6880.47477	1.41142	0.01825
6878.97465	1.41142	0.01824
6877.47454	1.41142	0.01824
6875.97443	1.41141	0.01823
6874.47432	1.4114	0.01822
6872.97421	1.41139	0.01821
6871.4741	1.41138	0.01821
6869.97398	1.41138	0.01821
6868.47387	1.41138	0.01821
6866.97376	1.4114	0.01819
6865.47365	1.4114	0.01818
6863.97354	1.41141	0.01816
6862.47342	1.41141	0.01814
6860.97331	1.41139	0.01812
6859.4732	1.41138	0.0181
6857.97309	1.41135	0.01808
6856.47298	1.41132	0.01807
6854.97287	1.41127	0.01805
6853.47275	1.41121	0.01806
6851.97264	1.41114	0.01807
6850.47253	1.41109	0.01809
6848.97242	1.41104	0.01812
6847.47231	1.41101	0.01816
6845.97219	1.411	0.0182
6844.47208	1.41098	0.01825
6842.97197	1.41098	0.01829
6841.47186	1.41099	0.01834
6839.97175	1.41103	0.01839
6838.47164	1.41106	0.01841
6836.97152	1.41109	0.01844
6835.47141	1.41113	0.01845
6833.9713	1.41115	0.01847
6832.47119	1.41118	0.01848
6830.97108	1.41121	0.01849
6829.47096	1.41124	0.01849
6827.97085	1.41127	0.01849
6826.47074	1.4113	0.01847
6824.97063	1.41133	0.01846
6823.47052	1.41136	0.01844
6821.97041	1.41141	0.01841
6820.47029	1.41143	0.01838
6818.97018	1.41145	0.01835
6817.47007	1.41146	0.0183
6815.96996	1.41145	0.01827
6814.46985	1.41142	0.01823
6812.96973	1.41139	0.0182
6811.46962	1.41136	0.01818
6809.96951	1.4113	0.01816
6808.4694	1.41125	0.01816
6806.96929	1.41121	0.01817
6805.46918	1.41118	0.01818
6803.96906	1.41116	0.0182
6802.46895	1.41115	0.01821
6800.96884	1.41116	0.01823
6799.46873	1.41117	0.01825
6797.96862	1.41117	0.01826
6796.4685	1.4112	0.01827
6794.96839	1.41121	0.01827
6793.46828	1.41123	0.01826
6791.96817	1.41124	0.01826
6790.46806	1.41124	0.01824
6788.96795	1.41124	0.01823
6787.46783	1.41124	0.01821
6785.96772	1.41122	0.0182
6784.46761	1.41121	0.01819
6782.9675	1.41118	0.01818
6781.46739	1.41116	0.01818
6779.96727	1.41114	0.01818
6778.46716	1.41113	0.01819
6776.96705	1.41111	0.01819
6775.46694	1.41109	0.0182
6773.96683	1.41109	0.01822
6772.46672	1.4111	0.01823
6770.9666	1.4111	0.01824
6769.46649	1.41111	0.01825
6767.96638	1.41111	0.01825
6766.46627	1.41112	0.01826
6764.96616	1.41112	0.01826
6763.46604	1.41114	0.01826
6761.96593	1.41114	0.01826
6760.46582	1.41116	0.01825
6758.96571	1.41117	0.01824
6757.4656	1.41118	0.01823
6755.96549	1.4112	0.01821
6754.46537	1.4112	0.0182
6752.96526	1.4112	0.01817
6751.46515	1.4112	0.01815
6749.96504	1.41118	0.01813
6748.46493	1.41115	0.01812
6746.96481	1.41112	0.01811
6745.4647	1.41109	0.01811
6743.96459	1.41106	0.01811
6742.46448	1.41104	0.01812
6740.96437	1.41102	0.01812
6739.46426	1.41101	0.01814
6737.96414	1.41102	0.01814
6736.46403	1.41103	0.01815
6734.96392	1.41103	0.01815
6733.46381	1.41104	0.01816
6731.9637	1.41105	0.01816
6730.46358	1.41105	0.01815
6728.96347	1.41104	0.01815
6727.46336	1.41103	0.01814
6725.96325	1.411	0.01814
6724.46314	1.41099	0.01815
6722.96303	1.41099	0.01815
6721.46291	1.41099	0.01815
6719.9628	1.41099	0.01815
6718.46269	1.41099	0.01815
6716.96258	1.41099	0.01815
6715.46247	1.411	0.01816
6713.96236	1.411	0.01816
6712.46224	1.411	0.01815
6710.96213	1.411	0.01815
6709.46202	1.41098	0.01814
6707.96191	1.41097	0.01815
6706.4618	1.41097	0.01815
6704.96168	1.41098	0.01815
6703.46157	1.41098	0.01815
6701.96146	1.41098	0.01814
6700.46135	1.41098	0.01814
6698.96124	1.41098	0.01814
6697.46113	1.41098	0.01814
6695.96101	1.41098	0.01814
6694.4609	1.41099	0.01813
6692.96079	1.41099	0.01812
6691.46068	1.41098	0.01811
6689.96057	1.41098	0.0181
6688.46045	1.41099	0.01809
6686.96034	1.41099	0.01809
6685.46023	1.41099	0.01807
6683.96012	1.41099	0.01807
6682.46001	1.41096	0.01805
6680.9599	1.41095	0.01804
6679.45978	1.41092	0.01804
6677.95967	1.4109	0.01804
6676.45956	1.41089	0.01804
6674.95945	1.41088	0.01805
6673.45934	1.41087	0.01805
6671.95922	1.41087	0.01806
6670.45911	1.41087	0.01806
6668.959	1.41087	0.01807
6667.45889	1.41088	0.01808
6665.95878	1.41088	0.01808
6664.45867	1.41089	0.01807
6662.95855	1.41089	0.01807
6661.45844	1.41089	0.01807
6659.95833	1.41089	0.01806
6658.45822	1.4109	0.01805
6656.95811	1.4109	0.01805
6655.45799	1.4109	0.01803
6653.95788	1.41089	0.01803
6652.45777	1.41088	0.01801
6650.95766	1.41086	0.01801
6649.45755	1.41086	0.01801
6647.95744	1.41084	0.01801
6646.45732	1.41083	0.01801
6644.95721	1.41083	0.01801
6643.4571	1.41083	0.01801
6641.95699	1.41083	0.018
6640.45688	1.41084	0.018
6638.95676	1.41084	0.01799
6637.45665	1.41084	0.01798
6635.95654	1.41084	0.01798
6634.45643	1.41082	0.01797
6632.95632	1.4108	0.01797
6631.45621	1.41077	0.01797
6629.95609	1.41075	0.01797
6628.45598	1.41074	0.01799
6626.95587	1.41073	0.01801
6625.45576	1.41073	0.01802
6623.95565	1.41075	0.01804
6622.45553	1.41076	0.01804
6620.95542	1.4108	0.01804
6619.45531	1.41085	0.01804
6617.9552	1.41089	0.01802
6616.45509	1.41091	0.018
6614.95498	1.41093	0.01796
6613.45486	1.41093	0.01793
6611.95475	1.41092	0.01789
6610.45464	1.4109	0.01786
6608.95453	1.41087	0.01783
6607.45442	1.41083	0.0178
6605.9543	1.41078	0.0178
6604.45419	1.41074	0.01779
6602.95408	1.41071	0.0178
6601.45397	1.41068	0.01781
6599.95386	1.41066	0.01783
6598.45375	1.41065	0.01783
6596.95363	1.41065	0.01785
6595.45352	1.41066	0.01786
6593.95341	1.41068	0.01788
6592.4533	1.41069	0.01788
6590.95319	1.41072	0.01788
6589.45307	1.41073	0.01787
6587.95296	1.41074	0.01785
6586.45285	1.41074	0.01783
6584.95274	1.41074	0.01782
6583.45263	1.41073	0.0178
6581.95252	1.41072	0.0178
6580.4524	1.41071	0.01778
6578.95229	1.4107	0.01777
6577.45218	1.41068	0.01775
6575.95207	1.41067	0.01774
6574.45196	1.41066	0.01773
6572.95184	1.41065	0.01772
6571.45173	1.41065	0.01772
6569.95162	1.41063	0.01771
6568.45151	1.41061	0.0177
6566.9514	1.41058	0.0177
6565.45129	1.41056	0.0177
6563.95117	1.41054	0.01771
6562.45106	1.41053	0.01771
6560.95095	1.41051	0.01772
6559.45084	1.41049	0.01774
6557.95073	1.41049	0.01775
6556.45061	1.4105	0.01777
6554.9505	1.41051	0.01778
6553.45039	1.41053	0.01778
6551.95028	1.41054	0.01778
6550.45017	1.41056	0.01778
6548.95006	1.41057	0.01777
6547.44994	1.41059	0.01776
6545.94983	1.4106	0.01776
6544.44972	1.4106	0.01774
6542.94961	1.41061	0.01772
6541.4495	1.41061	0.01771
6539.94938	1.41061	0.01768
6538.44927	1.41061	0.01766
6536.94916	1.41061	0.01764
6535.44905	1.41061	0.01763
6533.94894	1.41061	0.0176
6532.44883	1.41059	0.01758
6530.94871	1.41059	0.01756
6529.4486	1.41056	0.01753
6527.94849	1.41054	0.01752
6526.44838	1.41051	0.0175
6524.94827	1.41049	0.01749
6523.44816	1.41047	0.01748
6521.94804	1.41045	0.01748
6520.44793	1.41042	0.01747
6518.94782	1.4104	0.01747
6517.44771	1.41039	0.01747
6515.9476	1.41037	0.01747
6514.44748	1.41037	0.01747
6512.94737	1.41035	0.01747
6511.44726	1.41035	0.01747
6509.94715	1.41034	0.01747
6508.44704	1.41034	0.01747
6506.94693	1.41033	0.01746
6505.44681	1.41031	0.01745
6503.9467	1.4103	0.01745
6502.44659	1.41028	0.01745
6500.94648	1.41027	0.01745
6499.44637	1.41025	0.01746
6497.94625	1.41024	0.01746
6496.44614	1.41022	0.01746
6494.94603	1.41022	0.01747
6493.44592	1.41022	0.01748
6491.94581	1.41023	0.01748
6490.4457	1.41024	0.01748
6488.94558	1.41026	0.01746
6487.44547	1.41027	0.01746
6485.94536	1.41027	0.01744
6484.44525	1.41027	0.01743
6482.94514	1.41026	0.01742
6481.44502	1.41026	0.01741
6479.94491	1.41024	0.01739
6478.4448	1.41021	0.01737
6476.94469	1.41019	0.01736
6475.44458	1.41017	0.01736
6473.94447	1.41017	0.01736
6472.44435	1.41017	0.01735
6470.94424	1.41018	0.01735
6469.44413	1.41018	0.01733
6467.94402	1.41018	0.01732
6466.44391	1.41017	0.0173
6464.94379	1.41016	0.01728
6463.44368	1.41016	0.01727
6461.94357	1.41014	0.01725
6460.44346	1.41011	0.01724
6458.94335	1.41008	0.01722
6457.44324	1.41006	0.01722
6455.94312	1.41004	0.01721
6454.44301	1.41003	0.0172
6452.9429	1.41001	0.0172
6451.44279	1.40999	0.01719
6449.94268	1.40998	0.01719
6448.44256	1.40996	0.01718
6446.94245	1.40996	0.01717
6445.44234	1.40994	0.01716
6443.94223	1.40993	0.01715
6442.44212	1.4099	0.01714
6440.94201	1.40989	0.01713
6439.44189	1.40986	0.01712
6437.94178	1.40983	0.01712
6436.44167	1.40979	0.01712
6434.94156	1.40974	0.01713
6433.44145	1.40971	0.01714
6431.94133	1.40967	0.01716
6430.44122	1.40966	0.01718
6428.94111	1.40964	0.0172
6427.441	1.40963	0.01723
6425.94089	1.40964	0.01724
6424.44078	1.40966	0.01727
6422.94066	1.40967	0.01727
6421.44055	1.4097	0.01728
6419.94044	1.4097	0.01727
6418.44033	1.40971	0.01726
6416.94022	1.40972	0.01725
6415.4401	1.40972	0.01724
6413.93999	1.40972	0.01723
6412.43988	1.40971	0.01721
6410.93977	1.4097	0.01719
6409.43966	1.40969	0.01718
6407.93955	1.40967	0.01715
6406.43943	1.40966	0.01714
6404.93932	1.40962	0.01713
6403.43921	1.4096	0.01713
6401.9391	1.40957	0.01713
6400.43899	1.40955	0.01713
6398.93887	1.40952	0.01713
6397.43876	1.40949	0.01714
6395.93865	1.40947	0.01715
6394.43854	1.40945	0.01717
6392.93843	1.40945	0.01718
6391.43832	1.40945	0.01719
6389.9382	1.40945	0.0172
6388.43809	1.40945	0.0172
6386.93798	1.40945	0.01721
6385.43787	1.40946	0.01721
6383.93776	1.40946	0.0172
6382.43764	1.40946	0.0172
6380.93753	1.40945	0.01719
6379.43742	1.40944	0.01719
6377.93731	1.40943	0.01719
6376.4372	1.40943	0.01718
6374.93709	1.40941	0.01718
6373.43697	1.40941	0.01717
6371.93686	1.4094	0.01717
6370.43675	1.4094	0.01716
6368.93664	1.40939	0.01716
6367.43653	1.40938	0.01715
6365.93641	1.40938	0.01715
6364.4363	1.40936	0.01714
6362.93619	1.40936	0.01714
6361.43608	1.40934	0.01714
6359.93597	1.40933	0.01714
6358.43586	1.40931	0.01713
6356.93574	1.40931	0.01713
6355.43563	1.40931	0.01712
6353.93552	1.4093	0.01712
6352.43541	1.4093	0.01711
6350.9353	1.4093	0.0171
6349.43518	1.4093	0.01709
6347.93507	1.40928	0.01707
6346.43496	1.40926	0.01707
6344.93485	1.40923	0.01706
6343.43474	1.40919	0.01706
6341.93463	1.40916	0.01706
6340.43451	1.40913	0.01708
6338.9344	1.40912	0.01708
6337.43429	1.4091	0.01709
6335.93418	1.40909	0.0171
6334.43407	1.40909	0.01712
6332.93395	1.4091	0.01713
6331.43384	1.40912	0.01714
6329.93373	1.40914	0.01713
6328.43362	1.40915	0.01713
6326.93351	1.40915	0.01711
6325.4334	1.40915	0.0171
6323.93328	1.40915	0.01708
6322.43317	1.40914	0.01707
6320.93306	1.40911	0.01705
6319.43295	1.40909	0.01703
6317.93284	1.40906	0.01703
6316.43273	1.40903	0.01702
6314.93261	1.40901	0.01702
6313.4325	1.40899	0.01703
6311.93239	1.40898	0.01703
6310.43228	1.40897	0.01704
6308.93217	1.40897	0.01704
6307.43205	1.40897	0.01704
6305.93194	1.40897	0.01704
6304.43183	1.40897	0.01704
6302.93172	1.40897	0.01703
6301.43161	1.40896	0.01702
6299.9315	1.40896	0.01701
6298.43138	1.40895	0.017
6296.93127	1.40893	0.01698
6295.43116	1.40892	0.01697
6293.93105	1.40889	0.01695
6292.43094	1.40887	0.01694
6290.93082	1.40883	0.01694
6289.43071	1.4088	0.01694
6287.9306	1.40877	0.01694
6286.43049	1.40874	0.01695
6284.93038	1.4087	0.01696
6283.43027	1.40868	0.01698
6281.93015	1.40867	0.01699
6280.43004	1.40866	0.01701
6278.92993	1.40866	0.01703
6277.42982	1.40866	0.01703
6275.92971	1.40867	0.01704
6274.42959	1.40867	0.01705
6272.92948	1.40868	0.01705
6271.42937	1.40868	0.01704
6269.92926	1.40867	0.01704
6268.42915	1.40866	0.01704
6266.92904	1.40865	0.01703
6265.42892	1.40863	0.01703
6263.92881	1.40861	0.01703
6262.4287	1.40859	0.01704
6260.92859	1.40858	0.01704
6259.42848	1.40858	0.01705
6257.92836	1.40857	0.01705
6256.42825	1.40857	0.01706
6254.92814	1.40857	0.01706
6253.42803	1.40858	0.01706
6251.92792	1.40858	0.01706
6250.42781	1.40858	0.01706
6248.92769	1.40857	0.01705
6247.42758	1.40857	0.01704
6245.92747	1.40855	0.01704
6244.42736	1.40855	0.01703
6242.92725	1.40853	0.01703
6241.42713	1.40852	0.01703
6239.92702	1.40851	0.01703
6238.42691	1.40849	0.01703
6236.9268	1.40848	0.01704
6235.42669	1.40847	0.01705
6233.92658	1.40847	0.01705
6232.42646	1.40847	0.01705
6230.92635	1.40847	0.01706
6229.42624	1.40848	0.01706
6227.92613	1.40849	0.01706
6226.42602	1.4085	0.01705
6224.9259	1.40851	0.01704
6223.42579	1.40851	0.01704
6221.92568	1.40853	0.01702
6220.42557	1.40853	0.017
6218.92546	1.40854	0.01697
6217.42535	1.40854	0.01695
6215.92523	1.40853	0.01692
6214.42512	1.40853	0.01689
6212.92501	1.40851	0.01686
6211.4249	1.40849	0.01683
6209.92479	1.40846	0.0168
6208.42467	1.40842	0.01677
6206.92456	1.40836	0.01676
6205.42445	1.40831	0.01674
6203.92434	1.40825	0.01674
6202.42423	1.40819	0.01676
6200.92412	1.40813	0.01677
6199.424	1.40808	0.0168
6197.92389	1.40805	0.01683
6196.42378	1.40803	0.01686
6194.92367	1.40802	0.0169
6193.42356	1.40802	0.01694
6191.92344	1.40804	0.01698
6190.42333	1.40806	0.01699
6188.92322	1.40809	0.01701
6187.42311	1.40812	0.01701
6185.923	1.40814	0.01701
6184.42289	1.40816	0.017
6182.92277	1.40816	0.017
6181.42266	1.40817	0.01698
6179.92255	1.40817	0.01696
6178.42244	1.40815	0.01694
6176.92233	1.40812	0.01693
6175.42221	1.4081	0.01692
6173.9221	1.40808	0.01693
6172.42199	1.40806	0.01694
6170.92188	1.40805	0.01694
6169.42177	1.40804	0.01695
6167.92166	1.40804	0.01695
6166.42154	1.40804	0.01696
6164.92143	1.40806	0.01696
6163.42132	1.40807	0.01696
6161.92121	1.4081	0.01696
6160.4211	1.40811	0.01694
6158.92098	1.40813	0.01692
6157.42087	1.40814	0.01689
6155.92076	1.40814	0.01686
6154.42065	1.40813	0.01682
6152.92054	1.40812	0.01679
6151.42043	1.40808	0.01677
6149.92031	1.40804	0.01674
6148.4202	1.40799	0.01672
6146.92009	1.40794	0.01672
6145.41998	1.40788	0.01671
6143.91987	1.40784	0.01673
6142.41975	1.40781	0.01674
6140.91964	1.40778	0.01676
6139.41953	1.40777	0.01677
6137.91942	1.40776	0.0168
6136.41931	1.40776	0.01681
6134.9192	1.40776	0.01683
6133.41908	1.40777	0.01683
6131.91897	1.40778	0.01683
6130.41886	1.40779	0.01683
6128.91875	1.40779	0.01682
6127.41864	1.40778	0.01682
6125.91853	1.40777	0.01681
6124.41841	1.40776	0.0168
6122.9183	1.40775	0.0168
6121.41819	1.40773	0.01679
6119.91808	1.40771	0.01678
6118.41797	1.40769	0.01678
6116.91785	1.40767	0.01679
6115.41774	1.40767	0.01679
6113.91763	1.40766	0.01679
6112.41752	1.40766	0.01678
6110.91741	1.40765	0.01678
6109.4173	1.40764	0.01678
6107.91718	1.40763	0.01677
6106.41707	1.40762	0.01677
6104.91696	1.4076	0.01677
6103.41685	1.40758	0.01676
6101.91674	1.40757	0.01676
6100.41662	1.40754	0.01676
6098.91651	1.40752	0.01677
6097.4164	1.40749	0.01678
6095.91629	1.40748	0.01679
6094.41618	1.40747	0.0168
6092.91607	1.40747	0.01681
6091.41595	1.40747	0.01682
6089.91584	1.40747	0.01683
6088.41573	1.40748	0.01684
6086.91562	1.4075	0.01683
6085.41551	1.40752	0.01682
6083.91539	1.40753	0.0168
6082.41528	1.40753	0.01679
6080.91517	1.40752	0.01677
6079.41506	1.4075	0.01677
6077.91495	1.40747	0.01676
6076.41484	1.40744	0.01675
6074.91472	1.4074	0.01675
6073.41461	1.40737	0.01677
6071.9145	1.40735	0.01678
6070.41439	1.40735	0.0168
6068.91428	1.40735	0.01681
6067.41416	1.40739	0.01682
6065.91405	1.40742	0.01682
6064.41394	1.40745	0.0168
6062.91383	1.40748	0.01679
6061.41372	1.40749	0.01676
6059.91361	1.40749	0.01673
6058.41349	1.40749	0.0167
6056.91338	1.40746	0.01666
6055.41327	1.40741	0.01664
6053.91316	1.40737	0.01662
6052.41305	1.40732	0.01661
6050.91293	1.40728	0.01661
6049.41282	1.40725	0.01662
6047.91271	1.40722	0.01663
6046.4126	1.40721	0.01665
6044.91249	1.40721	0.01665
6043.41238	1.40721	0.01666
6041.91226	1.40721	0.01667
6040.41215	1.40722	0.01667
6038.91204	1.40722	0.01667
6037.41193	1.40722	0.01667
6035.91182	1.40722	0.01666
6034.4117	1.40721	0.01665
6032.91159	1.40719	0.01664
6031.41148	1.40718	0.01663
6029.91137	1.40716	0.01662
6028.41126	1.40715	0.01662
6026.91115	1.40714	0.01662
6025.41103	1.40713	0.01662
6023.91092	1.40712	0.01662
6022.41081	1.40711	0.01662
6020.9107	1.40711	0.01661
6019.41059	1.4071	0.01661
6017.91047	1.4071	0.01661
6016.41036	1.40709	0.01661
6014.91025	1.40709	0.01661
6013.41014	1.40709	0.01661
6011.91003	1.40709	0.01659
6010.40992	1.40709	0.01659
6008.9098	1.40709	0.01657
6007.40969	1.40709	0.01657
6005.90958	1.40709	0.01655
6004.40947	1.40709	0.01654
6002.90936	1.40709	0.01652
6001.40924	1.40709	0.01651
5999.90913	1.40708	0.01648
5998.40902	1.40706	0.01647
5996.90891	1.40706	0.01644
5995.4088	1.40704	0.01643
5993.90869	1.40703	0.0164
5992.40857	1.40702	0.01638
5990.90846	1.40701	0.01636
5989.40835	1.40698	0.01634
5987.90824	1.40696	0.01632
5986.40813	1.40693	0.01629
5984.90801	1.4069	0.01628
5983.4079	1.40687	0.01626
5981.90779	1.40683	0.01625
5980.40768	1.40679	0.01625
5978.90757	1.40676	0.01625
5977.40746	1.40671	0.01625
5975.90734	1.40668	0.01626
5974.40723	1.40665	0.01626
5972.90712	1.40663	0.01628
5971.40701	1.40661	0.01628
5969.9069	1.40661	0.0163
5968.40678	1.4066	0.01631
5966.90667	1.4066	0.01632
5965.40656	1.4066	0.01632
5963.90645	1.4066	0.01632
5962.40634	1.4066	0.01631
5960.90623	1.4066	0.01631
5959.40611	1.40658	0.0163
5957.906	1.40658	0.0163
5956.40589	1.40657	0.01628
5954.90578	1.40655	0.01627
5953.40567	1.40655	0.01626
5951.90555	1.40653	0.01625
5950.40544	1.40653	0.01624
5948.90533	1.40652	0.01622
5947.40522	1.40651	0.01622
5945.90511	1.40649	0.0162
5944.405	1.40647	0.01618
5942.90488	1.40645	0.01618
5941.40477	1.40642	0.01616
5939.90466	1.4064	0.01616
5938.40455	1.40638	0.01614
5936.90444	1.40636	0.01614
5935.40433	1.40634	0.01612
5933.90421	1.40633	0.01612
5932.4041	1.40631	0.01611
5930.90399	1.40629	0.01609
5929.40388	1.40626	0.01609
5927.90377	1.40624	0.01608
5926.40365	1.40621	0.01608
5924.90354	1.40616	0.01608
5923.40343	1.40612	0.01608
5921.90332	1.40608	0.0161
5920.40321	1.40607	0.0161
5918.9031	1.40605	0.01612
5917.40298	1.40604	0.01613
5915.90287	1.40605	0.01613
5914.40276	1.40605	0.01613
5912.90265	1.40606	0.01613
5911.40254	1.40607	0.01613
5909.90242	1.40607	0.01612
5908.40231	1.40606	0.01609
5906.9022	1.40605	0.01607
5905.40209	1.40602	0.01605
5903.90198	1.40599	0.01602
5902.40187	1.40595	0.01602
5900.90175	1.40592	0.01601
5899.40164	1.40588	0.01601
5897.90153	1.40584	0.01601
5896.40142	1.4058	0.01601
5894.90131	1.40577	0.01601
5893.40119	1.40575	0.01602
5891.90108	1.40573	0.01603
5890.40097	1.40571	0.01604
5888.90086	1.40571	0.01605
5887.40075	1.40569	0.01606
5885.90064	1.40569	0.01606
5884.40052	1.40567	0.01606
5882.90041	1.40566	0.01606
5881.4003	1.40564	0.01606
5879.90019	1.40563	0.01606
5878.40008	1.40562	0.01606
5876.89996	1.40561	0.01606
5875.39985	1.40559	0.01606
5873.89974	1.40557	0.01605
5872.39963	1.40557	0.01605
5870.89952	1.40556	0.01604
5869.39941	1.40555	0.01603
5867.89929	1.40552	0.01602
5866.39918	1.40549	0.01602
5864.89907	1.40546	0.01601
5863.39896	1.40542	0.01601
5861.89885	1.40539	0.01602
5860.39873	1.40536	0.01603
5858.89862	1.40533	0.01604
5857.39851	1.40531	0.01605
5855.8984	1.40529	0.01606
5854.39829	1.40527	0.01608
5852.89818	1.40527	0.0161
5851.39806	1.40527	0.01612
5849.89795	1.40527	0.01612
5848.39784	1.40527	0.01613
5846.89773	1.40527	0.01613
5845.39762	1.40527	0.01613
5843.8975	1.40528	0.01613
5842.39739	1.40528	0.01613
5840.89728	1.40529	0.01612
5839.39717	1.40528	0.01611
5837.89706	1.40528	0.0161
5836.39695	1.40527	0.01609
5834.89683	1.40526	0.01607
5833.39672	1.40526	0.01605
5831.89661	1.40525	0.01603
5830.3965	1.40523	0.01601
5828.89639	1.40522	0.016
5827.39627	1.40519	0.01597
5825.89616	1.40517	0.01596
5824.39605	1.40514	0.01593
5822.89594	1.40511	0.01592
5821.39583	1.40507	0.01591
5819.89572	1.40503	0.0159
5818.3956	1.40499	0.0159
5816.89549	1.40496	0.0159
5815.39538	1.40491	0.0159
5813.89527	1.40487	0.01591
5812.39516	1.40484	0.01592
5810.89504	1.40482	0.01594
5809.39493	1.40479	0.01595
5807.89482	1.40478	0.01597
5806.39471	1.40476	0.01599
5804.8946	1.40475	0.016
5803.39449	1.40474	0.01601
5801.89437	1.40474	0.01602
5800.39426	1.40474	0.01604
5798.89415	1.40474	0.01604
5797.39404	1.40473	0.01604
5795.89393	1.40473	0.01604
5794.39381	1.40472	0.01604
5792.8937	1.40472	0.01604
5791.39359	1.40472	0.01604
5789.89348	1.40472	0.01602
5788.39337	1.40473	0.01602
5786.89326	1.40473	0.01599
5785.39314	1.40472	0.01597
5783.89303	1.40471	0.01594
5782.39292	1.4047	0.01592
5780.89281	1.40467	0.01589
5779.3927	1.40463	0.01586
5777.89258	1.40459	0.01585
5776.39247	1.40453	0.01583
5774.89236	1.40447	0.01583
5773.39225	1.40442	0.01584
5771.89214	1.40435	0.01585
5770.39203	1.4043	0.01587
5768.89191	1.40427	0.0159
5767.3918	1.40424	0.01592
5765.89169	1.40423	0.01595
5764.39158	1.40423	0.01597
5762.89147	1.40423	0.016
5761.39135	1.40423	0.01601
5759.89124	1.40424	0.01602
5758.39113	1.40425	0.01602
5756.89102	1.40424	0.01602
5755.39091	1.40423	0.01601
5753.8908	1.4042	0.01601
5752.39068	1.40418	0.01602
5750.89057	1.40415	0.01602
5749.39046	1.40413	0.01603
5747.89035	1.40412	0.01604
5746.39024	1.4041	0.01604
5744.89013	1.4041	0.01605
5743.39001	1.40409	0.01606
5741.8899	1.40409	0.01607
5740.38979	1.40409	0.01608
5738.88968	1.40409	0.01608
5737.38957	1.4041	0.01608
5735.88945	1.40409	0.01607
5734.38934	1.40409	0.01606
5732.88923	1.40409	0.01605
5731.38912	1.40409	0.01604
5729.88901	1.40409	0.01602
5728.3889	1.40408	0.01601
5726.88878	1.40407	0.01598
5725.38867	1.40405	0.01596
5723.88856	1.40403	0.01594
5722.38845	1.40399	0.01591
5720.88834	1.40394	0.0159
5719.38822	1.40389	0.01588
5717.88811	1.40384	0.01588
5716.388	1.40378	0.01589
5714.88789	1.40374	0.01591
5713.38778	1.40368	0.01592
5711.88767	1.40363	0.01595
5710.38755	1.4036	0.01599
5708.88744	1.40356	0.01602
5707.38733	1.40355	0.01607
5705.88722	1.40356	0.01611
5704.38711	1.40357	0.01614
5702.88699	1.4036	0.01617
5701.38688	1.40363	0.01619
5699.88677	1.40366	0.01619
5698.38666	1.40369	0.01619
5696.88655	1.40372	0.01618
5695.38644	1.40375	0.01616
5693.88632	1.40375	0.01614
5692.38621	1.40375	0.01611
5690.8861	1.40374	0.01609
5689.38599	1.40371	0.01607
5687.88588	1.40369	0.01604
5686.38576	1.40366	0.01603
5684.88565	1.40363	0.01601
5683.38554	1.40361	0.01601
5681.88543	1.40358	0.016
5680.38532	1.40356	0.01599
5678.88521	1.40353	0.01599
5677.38509	1.40351	0.01599
5675.88498	1.40348	0.016
5674.38487	1.40346	0.01601
5672.88476	1.40345	0.01601
5671.38465	1.40343	0.01602
5669.88453	1.40342	0.01602
5668.38442	1.40341	0.01602
5666.88431	1.40341	0.01603
5665.3842	1.40342	0.01603
5663.88409	1.40342	0.01602
5662.38398	1.40342	0.01601
5660.88386	1.40342	0.01599
5659.38375	1.4034	0.01597
5657.88364	1.40338	0.01595
5656.38353	1.40337	0.01594
5654.88342	1.40333	0.01593
5653.3833	1.4033	0.01592
5651.88319	1.40327	0.0159
5650.38308	1.40325	0.0159
5648.88297	1.40322	0.01589
5647.38286	1.40319	0.01588
5645.88275	1.40316	0.01588
5644.38263	1.40314	0.01589
5642.88252	1.4031	0.01589
5641.38241	1.40306	0.0159
5639.8823	1.40304	0.01591
5638.38219	1.40301	0.01592
5636.88207	1.403	0.01592
5635.38196	1.40298	0.01594
5633.88185	1.40296	0.01595
5632.38174	1.40296	0.01595
5630.88163	1.40296	0.01596
5629.38152	1.40297	0.01595
5627.8814	1.40296	0.01594
5626.38129	1.40294	0.01594
5624.88118	1.40291	0.01593
5623.38107	1.40288	0.01593
5621.88096	1.40285	0.01593
5620.38084	1.40281	0.01594
5618.88073	1.40277	0.01595
5617.38062	1.40273	0.01597
5615.88051	1.40271	0.01599
5614.3804	1.40269	0.01603
5612.88029	1.40269	0.01605
5611.38017	1.40271	0.01607
5609.88006	1.40273	0.01608
5608.37995	1.40276	0.01609
5606.87984	1.4028	0.01608
5605.37973	1.40282	0.01606
5603.87961	1.40285	0.01604
5602.3795	1.40285	0.01601
5600.87939	1.40284	0.01597
5599.37928	1.40281	0.01594
5597.87917	1.40277	0.01591
5596.37906	1.40272	0.01589
5594.87894	1.40267	0.01588
5593.37883	1.40262	0.01587
5591.87872	1.40257	0.01588
5590.37861	1.40253	0.01589
5588.8785	1.4025	0.0159
5587.37838	1.40248	0.01592
5585.87827	1.40248	0.01593
5584.37816	1.40247	0.01594
5582.87805	1.40246	0.01595
5581.37794	1.40245	0.01596
5579.87783	1.40244	0.01597
5578.37771	1.40244	0.01597
5576.8776	1.40242	0.01597
5575.37749	1.40241	0.01598
5573.87738	1.40239	0.01598
5572.37727	1.40238	0.01599
5570.87715	1.40238	0.01599
5569.37704	1.40239	0.01599
5567.87693	1.40239	0.01598
5566.37682	1.40238	0.01597
5564.87671	1.40239	0.01596
5563.3766	1.40239	0.01594
5561.87648	1.40238	0.01593
5560.37637	1.40235	0.01591
5558.87626	1.40232	0.0159
5557.37615	1.40228	0.01589
5555.87604	1.40224	0.01589
5554.37592	1.40221	0.01589
5552.87581	1.40217	0.0159
5551.3757	1.40214	0.01591
5549.87559	1.40212	0.01593
5548.37548	1.40211	0.01594
5546.87537	1.40212	0.01595
5545.37525	1.40212	0.01596
5543.87514	1.40214	0.01596
5542.37503	1.40214	0.01596
5540.87492	1.40215	0.01595
5539.37481	1.40215	0.01593
5537.8747	1.40215	0.01592
5536.37458	1.40213	0.0159
5534.87447	1.40212	0.01589
5533.37436	1.40208	0.01588
5531.87425	1.40205	0.01587
5530.37414	1.40202	0.01587
5528.87402	1.402	0.01587
5527.37391	1.40198	0.01587
5525.8738	1.40195	0.01588
5524.37369	1.40194	0.01588
5522.87358	1.40193	0.01589
5521.37347	1.40194	0.01589
5519.87335	1.40195	0.01588
5518.37324	1.40196	0.01587
5516.87313	1.40196	0.01585
5515.37302	1.40196	0.01584
5513.87291	1.40194	0.01582
5512.37279	1.40192	0.0158
5510.87268	1.4019	0.01579
5509.37257	1.40187	0.01577
5507.87246	1.40182	0.01576
5506.37235	1.40179	0.01575
5504.87224	1.40177	0.01575
5503.37212	1.40175	0.01575
5501.87201	1.40174	0.01575
5500.3719	1.40172	0.01575
5498.87179	1.40169	0.01576
5497.37168	1.40168	0.01576
5495.87156	1.40166	0.01577
5494.37145	1.40165	0.01577
5492.87134	1.40163	0.01578
5491.37123	1.40163	0.01578
5489.87112	1.40164	0.01577
5488.37101	1.40167	0.01575
5486.87089	1.40168	0.01573
5485.37078	1.40169	0.0157
5483.87067	1.40169	0.01567
5482.37056	1.40167	0.01564
5480.87045	1.40164	0.01561
5479.37033	1.4016	0.01557
5477.87022	1.40154	0.01554
5476.37011	1.40147	0.01552
5474.87	1.4014	0.01552
5473.36989	1.40134	0.01552
5471.86978	1.40131	0.01554
5470.36966	1.40128	0.01555
5468.86955	1.40125	0.01556
5467.36944	1.40122	0.01557
5465.86933	1.4012	0.01559
5464.36922	1.40118	0.01561
5462.8691	1.40117	0.01563
5461.36899	1.40115	0.01566
5459.86888	1.40115	0.01566
5458.36877	1.40114	0.01567
5456.86866	1.40114	0.01567
5455.36855	1.40116	0.01568
5453.86843	1.40116	0.01568
5452.36832	1.40118	0.01567
5450.86821	1.40118	0.01567
5449.3681	1.40117	0.01565
5447.86799	1.40117	0.01564
5446.36787	1.40116	0.01562
5444.86776	1.40115	0.0156
5443.36765	1.40115	0.01558
5441.86754	1.40113	0.01555
5440.36743	1.40112	0.01553
5438.86732	1.4011	0.01551
5437.3672	1.40108	0.01549
5435.86709	1.40105	0.01548
5434.36698	1.40101	0.01546
5432.86687	1.40097	0.01546
5431.36676	1.40094	0.01545
5429.86664	1.40091	0.01545
5428.36653	1.4009	0.01545
5426.86642	1.4009	0.01544
5425.36631	1.40091	0.01542
5423.8662	1.40092	0.0154
5422.36609	1.40093	0.01537
5420.86597	1.40091	0.01534
5419.36586	1.40088	0.01532
5417.86575	1.40083	0.01529
5416.36564	1.40077	0.01527
5414.86553	1.4007	0.01524
5413.36541	1.40064	0.01524
5411.8653	1.40057	0.01525
5410.36519	1.40052	0.01525
5408.86508	1.40051	0.01527
5407.36497	1.40051	0.01527
5405.86486	1.40052	0.01527
5404.36474	1.4005	0.01527
5402.86463	1.40048	0.01527
5401.36452	1.40045	0.01528
5399.86441	1.40043	0.01528
5398.3643	1.4004	0.01527
5396.86418	1.40037	0.01526
5395.36407	1.40032	0.01525
5393.86396	1.40028	0.01526
5392.36385	1.40027	0.01528
5390.86374	1.40028	0.01528
5389.36363	1.4003	0.01528
5387.86351	1.40032	0.01525
5386.3634	1.40031	0.01522
5384.86329	1.40027	0.0152
5383.36318	1.40022	0.0152
5381.86307	1.40019	0.0152
5380.36295	1.40015	0.0152
5378.86284	1.40011	0.01518
5377.36273	1.40005	0.01517
5375.86262	1.40001	0.01517
5374.36251	1.39997	0.01519
5372.8624	1.39997	0.01521
5371.36228	1.4	0.01523
5369.86217	1.40002	0.01523
5368.36206	1.40004	0.0152
5366.86195	1.40005	0.01516
5365.36184	1.40005	0.01512
5363.86172	1.40004	0.01509
5362.36161	1.4	0.01506
5360.8615	1.39994	0.01504
5359.36139	1.39988	0.01502
5357.86128	1.39982	0.01499
5356.36117	1.39974	0.01496
5354.86105	1.39966	0.01497
5353.36094	1.39959	0.01499
5351.86083	1.39954	0.01502
5350.36072	1.39953	0.01505
5348.86061	1.39954	0.01507
5347.3605	1.39955	0.01507
5345.86038	1.39954	0.01507
5344.36027	1.39952	0.01508
5342.86016	1.39951	0.01508
5341.36005	1.39952	0.01509
5339.85994	1.39953	0.01507
5338.35982	1.39951	0.01505
5336.85971	1.39947	0.01502
5335.3596	1.39944	0.01501
5333.85949	1.39942	0.01501
5332.35938	1.39942	0.01499
5330.85927	1.39941	0.01497
5329.35915	1.39939	0.01494
5327.85904	1.39935	0.01491
5326.35893	1.39931	0.0149
5324.85882	1.39929	0.01489
5323.35871	1.39926	0.01487
5321.85859	1.39924	0.01485
5320.35848	1.39919	0.0148
5318.85837	1.39914	0.01478
5317.35826	1.39908	0.01477
5315.85815	1.39903	0.01476
5314.35804	1.39898	0.01476
5312.85792	1.39892	0.01476
5311.35781	1.39886	0.01476
5309.8577	1.39879	0.01477
5308.35759	1.39874	0.01478
5306.85748	1.3987	0.01481
5305.35736	1.39868	0.01482
5303.85725	1.39866	0.01484
5302.35714	1.39866	0.01484
5300.85703	1.39865	0.01484
5299.35692	1.39863	0.01484
5297.85681	1.39862	0.01483
5296.35669	1.39859	0.01482
5294.85658	1.39857	0.01482
5293.35647	1.39852	0.0148
5291.85636	1.39846	0.01479
5290.35625	1.39839	0.01479
5288.85613	1.39833	0.0148
5287.35602	1.39829	0.01482
5285.85591	1.39826	0.01483
5284.3558	1.39824	0.01484
5282.85569	1.39821	0.01485
5281.35558	1.39819	0.01486
5279.85546	1.39816	0.01487
5278.35535	1.39815	0.01487
5276.85524	1.39812	0.01488
5275.35513	1.39809	0.01488
5273.85502	1.39805	0.01488
5272.3549	1.39802	0.01488
5270.85479	1.39797	0.01489
5269.35468	1.39793	0.01491
5267.85457	1.39791	0.01491
5266.35446	1.39788	0.01492
5264.85435	1.39786	0.01493
5263.35423	1.39783	0.01494
5261.85412	1.39781	0.01495
5260.35401	1.3978	0.01496
5258.8539	1.3978	0.01495
5257.35379	1.39778	0.01495
5255.85367	1.39773	0.01494
5254.35356	1.39768	0.01494
5252.85345	1.39763	0.01496
5251.35334	1.39758	0.01498
5249.85323	1.39754	0.015
5248.35312	1.3975	0.01501
5246.853	1.39747	0.01504
5245.35289	1.39745	0.01506
5243.85278	1.39745	0.01508
5242.35267	1.39747	0.01511
5240.85256	1.39748	0.01511
5239.35244	1.3975	0.01511
5237.85233	1.3975	0.0151
5236.35222	1.39749	0.01508
5234.85211	1.39746	0.01507
5233.352	1.39743	0.01506
5231.85189	1.39738	0.01506
5230.35177	1.39733	0.01506
5228.85166	1.39729	0.01506
5227.35155	1.39726	0.01506
5225.85144	1.39723	0.01507
5224.35133	1.3972	0.01508
5222.85121	1.39719	0.0151
5221.3511	1.3972	0.01511
5219.85099	1.39722	0.0151
5218.35088	1.39722	0.01508
5216.85077	1.3972	0.01507
5215.35066	1.39715	0.01506
5213.85054	1.39711	0.01506
5212.35043	1.39707	0.01505
5210.85032	1.39703	0.01505
5209.35021	1.39697	0.01505
5207.8501	1.39691	0.01505
5206.34998	1.39686	0.01507
5204.84987	1.39684	0.0151
5203.34976	1.39684	0.01513
5201.84965	1.39685	0.01514
5200.34954	1.39685	0.01514
5198.84943	1.39685	0.01513
5197.34931	1.39684	0.01513
5195.8492	1.39682	0.01512
5194.34909	1.39681	0.01512
5192.84898	1.39678	0.01511
5191.34887	1.39675	0.01511
5189.84875	1.39671	0.01509
5188.34864	1.39666	0.01508
5186.84853	1.39661	0.01508
5185.34842	1.39657	0.01509
5183.84831	1.39654	0.0151
5182.3482	1.39651	0.01512
5180.84808	1.39648	0.01513
5179.34797	1.39645	0.01515
5177.84786	1.39643	0.01515
5176.34775	1.39642	0.01517
5174.84764	1.3964	0.01518
5173.34752	1.39639	0.01519
5171.84741	1.39637	0.0152
5170.3473	1.39636	0.0152
5168.84719	1.39634	0.01521
5167.34708	1.39632	0.01521
5165.84697	1.39629	0.01522
5164.34685	1.39626	0.01523
5162.84674	1.39625	0.01524
5161.34663	1.39623	0.01525
5159.84652	1.39622	0.01526
5158.34641	1.39622	0.01526
5156.8463	1.39622	0.01526
5155.34618	1.39621	0.01525
5153.84607	1.39621	0.01525
5152.34596	1.39621	0.01524
5150.84585	1.39621	0.01522
5149.34574	1.39619	0.01521
5147.84562	1.39616	0.01518
5146.34551	1.39612	0.01517
5144.8454	1.39608	0.01515
5143.34529	1.39603	0.01515
5141.84518	1.39598	0.01515
5140.34507	1.39594	0.01515
5138.84495	1.3959	0.01516
5137.34484	1.39586	0.01518
5135.84473	1.39583	0.01519
5134.34462	1.3958	0.01521
5132.84451	1.39579	0.01522
5131.34439	1.39578	0.01524
5129.84428	1.39578	0.01525
5128.34417	1.39578	0.01525
5126.84406	1.39577	0.01525
5125.34395	1.39576	0.01525
5123.84384	1.39576	0.01524
5122.34372	1.39574	0.01524
5120.84361	1.39572	0.01523
5119.3435	1.3957	0.01523
5117.84339	1.39566	0.01521
5116.34328	1.39564	0.01521
5114.84316	1.39561	0.01521
5113.34305	1.39559	0.01521
5111.84294	1.39556	0.01521
5110.34283	1.39554	0.01521
5108.84272	1.39553	0.0152
5107.34261	1.39551	0.0152
5105.84249	1.39549	0.0152
5104.34238	1.39546	0.01519
5102.84227	1.39543	0.01519
5101.34216	1.3954	0.0152
5099.84205	1.39537	0.0152
5098.34193	1.39535	0.0152
5096.84182	1.39532	0.01521
5095.34171	1.3953	0.01521
5093.8416	1.39528	0.01522
5092.34149	1.39528	0.01523
5090.84138	1.39527	0.01523
5089.34126	1.39527	0.01523
5087.84115	1.39525	0.01523
5086.34104	1.39525	0.01522
5084.84093	1.39523	0.01521
5083.34082	1.39521	0.0152
5081.8407	1.39519	0.0152
5080.34059	1.39516	0.01519
5078.84048	1.39514	0.01519
5077.34037	1.39511	0.01519
5075.84026	1.39511	0.01519
5074.34015	1.3951	0.01518
5072.84003	1.3951	0.01517
5071.33992	1.39509	0.01515
5069.83981	1.39508	0.01515
5068.3397	1.39507	0.01512
5066.83959	1.39506	0.0151
5065.33947	1.39505	0.01507
5063.83936	1.39501	0.01503
5062.33925	1.39496	0.01501
5060.83914	1.3949	0.01499
5059.33903	1.39485	0.01499
5057.83892	1.39479	0.01498
5056.3388	1.39474	0.01499
5054.83869	1.39469	0.01499
5053.33858	1.39463	0.01501
5051.83847	1.3946	0.01502
5050.33836	1.39457	0.01505
5048.83824	1.39456	0.01507
5047.33813	1.39455	0.01509
5045.83802	1.39454	0.0151
5044.33791	1.39453	0.01512
5042.8378	1.39452	0.01513
5041.33769	1.39452	0.01514
5039.83757	1.39452	0.01515
5038.33746	1.39452	0.01515
5036.83735	1.39452	0.01514
5035.33724	1.39452	0.01513
5033.83713	1.39453	0.01511
5032.33701	1.39453	0.0151
5030.8369	1.39454	0.01507
5029.33679	1.39454	0.01505
5027.83668	1.39453	0.01502
5026.33657	1.39451	0.01499
5024.83646	1.39449	0.01496
5023.33634	1.39445	0.01492
5021.83623	1.39441	0.0149
5020.33612	1.39437	0.01488
5018.83601	1.39432	0.01487
5017.3359	1.39428	0.01485
5015.83578	1.39425	0.01484
5014.33567	1.39423	0.01483
5012.83556	1.3942	0.01482
5011.33545	1.39419	0.01481
5009.83534	1.39417	0.01479
5008.33523	1.39416	0.01478
5006.83511	1.39413	0.01475
5005.335	1.3941	0.01473
5003.83489	1.39406	0.01471
5002.33478	1.39401	0.01468
5000.83467	1.39396	0.01467
4999.33455	1.39391	0.01467
4997.83444	1.39386	0.01467
4996.33433	1.39382	0.01466
4994.83422	1.39378	0.01466
4993.33411	1.39376	0.01466
4991.834	1.39373	0.01466
4990.33388	1.39372	0.01466
4988.83377	1.39371	0.01464
4987.33366	1.39371	0.01464
4985.83355	1.39369	0.01461
4984.33344	1.39366	0.01459
4982.83332	1.39362	0.01456
4981.33321	1.39358	0.01454
4979.8331	1.39352	0.01452
4978.33299	1.39346	0.01452
4976.83288	1.3934	0.01451
4975.33277	1.39334	0.01451
4973.83265	1.39329	0.01452
4972.33254	1.39325	0.01453
4970.83243	1.39321	0.01454
4969.33232	1.39318	0.01456
4967.83221	1.39316	0.01457
4966.3321	1.39315	0.01458
4964.83198	1.39314	0.01458
4963.33187	1.39313	0.01458
4961.83176	1.39312	0.01457
4960.33165	1.39311	0.01457
4958.83154	1.39309	0.01456
4957.33142	1.39307	0.01455
4955.83131	1.39304	0.01454
4954.3312	1.39301	0.01453
4952.83109	1.39298	0.01451
4951.33098	1.39295	0.01451
4949.83087	1.39292	0.01449
4948.33075	1.3929	0.01448
4946.83064	1.39289	0.01447
4945.33053	1.39287	0.01445
4943.83042	1.39286	0.01444
4942.33031	1.39284	0.01441
4940.83019	1.39282	0.01438
4939.33008	1.39278	0.01435
4937.82997	1.39273	0.01434
4936.32986	1.39268	0.01432
4934.82975	1.39262	0.01431
4933.32964	1.39255	0.01431
4931.82952	1.39251	0.0143
4930.32941	1.39246	0.0143
4928.8293	1.39243	0.01431
4927.32919	1.39241	0.01431
4925.82908	1.39239	0.01432
4924.32896	1.39237	0.01432
4922.82885	1.39237	0.01432
4921.32874	1.39236	0.01431
4919.82863	1.39235	0.01429
4918.32852	1.39232	0.01427
4916.82841	1.3923	0.01426
4915.32829	1.39227	0.01424
4913.82818	1.39225	0.01422
4912.32807	1.39222	0.01419
4910.82796	1.3922	0.01417
4909.32785	1.39217	0.01414
4907.82773	1.39215	0.01411
4906.32762	1.39212	0.01409
4904.82751	1.39209	0.01406
4903.3274	1.39204	0.01402
4901.82729	1.392	0.014
4900.32718	1.39195	0.01397
4898.82706	1.39188	0.01395
4897.32695	1.39183	0.01394
4895.82684	1.39177	0.01392
4894.32673	1.39172	0.0139
4892.82662	1.39168	0.0139
4891.3265	1.39163	0.01388
4889.82639	1.39159	0.01388
4888.32628	1.39155	0.01386
4886.82617	1.39152	0.01385
4885.32606	1.39147	0.01383
4883.82595	1.39143	0.01382
4882.32583	1.39137	0.0138
4880.82572	1.39131	0.01379
4879.32561	1.39124	0.01379
4877.8255	1.39118	0.01379
4876.32539	1.39113	0.01379
4874.82527	1.39107	0.01379
4873.32516	1.39102	0.0138
4871.82505	1.39098	0.01381
4870.32494	1.39095	0.01381
4868.82483	1.39093	0.01382
4867.32472	1.3909	0.01382
4865.8246	1.39087	0.01382
4864.32449	1.39084	0.01382
4862.82438	1.39081	0.01381
4861.32427	1.39078	0.0138
4859.82416	1.39074	0.0138
4858.32404	1.39071	0.01378
4856.82393	1.39067	0.01376
4855.32382	1.39064	0.01376
4853.82371	1.3906	0.01374
4852.3236	1.39057	0.01373
4850.82349	1.39052	0.01371
4849.32337	1.39047	0.01371
4847.82326	1.39043	0.01369
4846.32315	1.39039	0.01368
4844.82304	1.39034	0.01367
4843.32293	1.39029	0.01366
4841.82281	1.39024	0.01366
4840.3227	1.3902	0.01365
4838.82259	1.39015	0.01364
4837.32248	1.39011	0.01363
4835.82237	1.39006	0.01363
4834.32226	1.39001	0.01363
4832.82214	1.38997	0.01363
4831.32203	1.38992	0.01362
4829.82192	1.38987	0.01362
4828.32181	1.38983	0.01362
4826.8217	1.38978	0.01362
4825.32158	1.38974	0.01362
4823.82147	1.3897	0.01363
4822.32136	1.38966	0.01363
4820.82125	1.38962	0.01364
4819.32114	1.38959	0.01364
4817.82103	1.38955	0.01363
4816.32091	1.38952	0.01363
4814.8208	1.38948	0.01364
4813.32069	1.38945	0.01364
4811.82058	1.38942	0.01364
4810.32047	1.38939	0.01364
4808.82035	1.38936	0.01363
4807.32024	1.38933	0.01363
4805.82013	1.38931	0.01362
4804.32002	1.38928	0.01361
4802.81991	1.38926	0.01359
4801.3198	1.38925	0.01358
4799.81968	1.38923	0.01355
4798.31957	1.38919	0.01353
4796.81946	1.38916	0.0135
4795.31935	1.38911	0.01348
4793.81924	1.38906	0.01345
4792.31912	1.38901	0.01343
4790.81901	1.38896	0.01341
4789.3189	1.38889	0.01339
4787.81879	1.38884	0.01338
4786.31868	1.38878	0.01337
4784.81857	1.38873	0.01337
4783.31845	1.38869	0.01336
4781.81834	1.38864	0.01335
4780.31823	1.3886	0.01334
4778.81812	1.38857	0.01333
4777.31801	1.38853	0.01332
4775.81789	1.38848	0.01331
4774.31778	1.38844	0.0133
4772.81767	1.38839	0.01328
4771.31756	1.38834	0.01327
4769.81745	1.3883	0.01325
4768.31734	1.38824	0.01324
4766.81722	1.38819	0.01322
4765.31711	1.38813	0.01322
4763.817	1.38808	0.01321
4762.31689	1.38803	0.0132
4760.81678	1.38798	0.01319
4759.31667	1.38792	0.01318
4757.81655	1.38786	0.01318
4756.31644	1.3878	0.01318
4754.81633	1.38775	0.01318
4753.31622	1.3877	0.01318
4751.81611	1.38766	0.01318
4750.31599	1.38761	0.01318
4748.81588	1.38756	0.01318
4747.31577	1.38752	0.01318
4745.81566	1.38749	0.01318
4744.31555	1.38745	0.01318
4742.81544	1.38742	0.01318
4741.31532	1.38737	0.01317
4739.81521	1.38734	0.01316
4738.3151	1.3873	0.01315
4736.81499	1.38727	0.01314
4735.31488	1.38724	0.01312
4733.81476	1.3872	0.01311
4732.31465	1.38717	0.01308
4730.81454	1.38713	0.01306
4729.31443	1.38709	0.01303
4727.81432	1.38704	0.01301
4726.31421	1.38698	0.01298
4724.81409	1.38692	0.01297
4723.31398	1.38686	0.01295
4721.81387	1.3868	0.01292
4720.31376	1.38674	0.01291
4718.81365	1.38668	0.01289
4717.31353	1.38662	0.01289
4715.81342	1.38658	0.01287
4714.31331	1.38653	0.01285
4712.8132	1.38649	0.01282
4711.31309	1.38646	0.01279
4709.81298	1.38642	0.01275
4708.31286	1.38636	0.0127
4706.81275	1.3863	0.01267
4705.31264	1.3862	0.01262
4703.81253	1.38611	0.01259
4702.31242	1.38599	0.01255
4700.8123	1.38585	0.01254
4699.31219	1.3857	0.01254
4697.81208	1.38555	0.01256
4696.31197	1.38542	0.0126
4694.81186	1.38531	0.01265
4693.31175	1.38521	0.01271
4691.81163	1.38514	0.01278
4690.31152	1.38509	0.01284
4688.81141	1.38506	0.0129
4687.3113	1.38506	0.01296
4685.81119	1.38507	0.013
4684.31107	1.38508	0.01303
4682.81096	1.38509	0.01303
4681.31085	1.3851	0.01303
4679.81074	1.38509	0.01301
4678.31063	1.38508	0.01298
4676.81052	1.38504	0.01294
4675.3104	1.38499	0.0129
4673.81029	1.38491	0.01287
4672.31018	1.38483	0.01285
4670.81007	1.38474	0.01283
4669.30996	1.38465	0.01282
4667.80984	1.38456	0.01282
4666.30973	1.38446	0.01284
4664.80962	1.38439	0.01286
4663.30951	1.38433	0.01287
4661.8094	1.38428	0.0129
4660.30929	1.38423	0.01292
4658.80917	1.38419	0.01294
4657.30906	1.38416	0.01295
4655.80895	1.38414	0.01296
4654.30884	1.38411	0.01295
4652.80873	1.38408	0.01295
4651.30861	1.38404	0.01293
4649.8085	1.38399	0.01292
4648.30839	1.38394	0.0129
4646.80828	1.38389	0.01289
4645.30817	1.38383	0.01287
4643.80806	1.38375	0.01285
4642.30794	1.38368	0.01284
4640.80783	1.3836	0.01282
4639.30772	1.38352	0.01282
4637.80761	1.38345	0.01281
4636.3075	1.38337	0.01281
4634.80738	1.38328	0.01282
4633.30727	1.3832	0.01283
4631.80716	1.38313	0.01284
4630.30705	1.38305	0.01285
4628.80694	1.38298	0.01286
4627.30683	1.38291	0.01288
4625.80671	1.38284	0.01289
4624.3066	1.38278	0.01291
4622.80649	1.38272	0.01292
4621.30638	1.38267	0.01293
4619.80627	1.3826	0.01294
4618.30615	1.38253	0.01294
4616.80604	1.38245	0.01295
4615.30593	1.38236	0.01297
4613.80582	1.38228	0.013
4612.30571	1.38218	0.01302
4610.8056	1.38209	0.01305
4609.30548	1.382	0.0131
4607.80537	1.38192	0.01314
4606.30526	1.38184	0.01319
4604.80515	1.38177	0.01326
4603.30504	1.38171	0.01332
4601.80492	1.38165	0.0134
4600.30481	1.38162	0.01347
4598.8047	1.3816	0.01353
4597.30459	1.38158	0.0136
4595.80448	1.38157	0.01365
4594.30437	1.38158	0.0137
4592.80425	1.3816	0.01375
4591.30414	1.38164	0.01378
4589.80403	1.38167	0.0138
4588.30392	1.38171	0.01379
4586.80381	1.38173	0.01378
4585.30369	1.38174	0.01375
4583.80358	1.38175	0.01372
4582.30347	1.38175	0.01367
4580.80336	1.38172	0.01363
4579.30325	1.38167	0.01359
4577.80314	1.3816	0.01354
4576.30302	1.38154	0.01351
4574.80291	1.38146	0.01349
4573.3028	1.38138	0.01347
4571.80269	1.38129	0.01346
4570.30258	1.38122	0.01347
4568.80247	1.38114	0.01348
4567.30235	1.38108	0.0135
4565.80224	1.38103	0.01351
4564.30213	1.38099	0.01352
4562.80202	1.38095	0.01353
4561.30191	1.38091	0.01355
4559.80179	1.38088	0.01356
4558.30168	1.38086	0.01356
4556.80157	1.38083	0.01356
4555.30146	1.38079	0.01355
4553.80135	1.38075	0.01354
4552.30124	1.38069	0.01354
4550.80112	1.38064	0.01353
4549.30101	1.3806	0.01353
4547.8009	1.38054	0.01353
4546.30079	1.38048	0.01353
4544.80068	1.38043	0.01353
4543.30056	1.38038	0.01353
4541.80045	1.38033	0.01353
4540.30034	1.38029	0.01354
4538.80023	1.38025	0.01354
4537.30012	1.38021	0.01354
4535.80001	1.38018	0.01354
4534.29989	1.38014	0.01353
4532.79978	1.38009	0.01352
4531.29967	1.38005	0.01351
4529.79956	1.38	0.01351
4528.29945	1.37995	0.0135
4526.79933	1.37991	0.01349
4525.29922	1.37986	0.01349
4523.79911	1.3798	0.01347
4522.299	1.37976	0.01347
4520.79889	1.37971	0.01346
4519.29878	1.37967	0.01345
4517.79866	1.37963	0.01344
4516.29855	1.37959	0.01342
4514.79844	1.37953	0.01341
4513.29833	1.37949	0.01338
4511.79822	1.37943	0.01337
4510.2981	1.37937	0.01335
4508.79799	1.37931	0.01333
4507.29788	1.37924	0.01331
4505.79777	1.37917	0.01329
4504.29766	1.3791	0.01328
4502.79755	1.37903	0.01326
4501.29743	1.37897	0.01326
4499.79732	1.37889	0.01324
4498.29721	1.37881	0.01323
4496.7971	1.37873	0.01323
4495.29699	1.37866	0.01323
4493.79687	1.37858	0.01323
4492.29676	1.37848	0.01324
4490.79665	1.3784	0.01325
4489.29654	1.37831	0.01327
4487.79643	1.37824	0.01329
4486.29632	1.37818	0.01333
4484.7962	1.37812	0.01335
4483.29609	1.37807	0.01337
4481.79598	1.37804	0.01338
4480.29587	1.37801	0.0134
4478.79576	1.37798	0.01341
4477.29564	1.37796	0.01341
4475.79553	1.37793	0.0134
4474.29542	1.37788	0.01339
4472.79531	1.37783	0.01337
4471.2952	1.37778	0.01335
4469.79509	1.37771	0.01333
4468.29497	1.37764	0.01331
4466.79486	1.37756	0.01331
4465.29475	1.37747	0.01331
4463.79464	1.3774	0.01331
4462.29453	1.37732	0.01331
4460.79441	1.37726	0.01331
4459.2943	1.37718	0.01332
4457.79419	1.3771	0.01333
4456.29408	1.37705	0.01335
4454.79397	1.37699	0.01336
4453.29386	1.37694	0.01338
4451.79374	1.37688	0.01339
4450.29363	1.37681	0.0134
4448.79352	1.37676	0.01342
4447.29341	1.3767	0.01343
4445.7933	1.37665	0.01345
4444.29318	1.37662	0.01346
4442.79307	1.37658	0.01347
4441.29296	1.37655	0.01347
4439.79285	1.37653	0.01347
4438.29274	1.3765	0.01346
4436.79263	1.37648	0.01344
4435.29251	1.37644	0.01342
4433.7924	1.37639	0.0134
4432.29229	1.37635	0.01337
4430.79218	1.3763	0.01334
4429.29207	1.37623	0.01331
4427.79195	1.37616	0.01327
4426.29184	1.37608	0.01325
4424.79173	1.376	0.01322
4423.29162	1.37592	0.01321
4421.79151	1.37584	0.01319
4420.2914	1.37576	0.01317
4418.79128	1.37568	0.01315
4417.29117	1.37559	0.01315
4415.79106	1.3755	0.01313
4414.29095	1.37542	0.01313
4412.79084	1.37534	0.01312
4411.29072	1.37525	0.01312
4409.79061	1.37516	0.01312
4408.2905	1.37507	0.01312
4406.79039	1.37497	0.01312
4405.29028	1.37488	0.01314
4403.79017	1.37479	0.01315
4402.29005	1.37469	0.01317
4400.78994	1.37462	0.01319
4399.28983	1.37453	0.01322
4397.78972	1.37446	0.01324
4396.28961	1.37439	0.01326
4394.78949	1.37434	0.01329
4393.28938	1.37429	0.0133
4391.78927	1.37423	0.01332
4390.28916	1.37417	0.01333
4388.78905	1.37411	0.01335
4387.28894	1.37407	0.01336
4385.78882	1.37401	0.01336
4384.28871	1.37396	0.01336
4382.7886	1.37389	0.01335
4381.28849	1.37383	0.01335
4379.78838	1.37376	0.01336
4378.28827	1.3737	0.01336
4376.78815	1.37362	0.01336
4375.28804	1.37355	0.01337
4373.78793	1.37347	0.01337
4372.28782	1.3734	0.01338
4370.78771	1.37333	0.01339
4369.28759	1.37327	0.0134
4367.78748	1.37322	0.01341
4366.28737	1.37317	0.01342
4364.78726	1.37312	0.01341
4363.28715	1.37307	0.01341
4361.78704	1.37302	0.01339
4360.28692	1.37297	0.01338
4358.78681	1.37291	0.01336
4357.2867	1.37284	0.01334
4355.78659	1.37276	0.01333
4354.28648	1.37267	0.0133
4352.78636	1.37257	0.01329
4351.28625	1.37246	0.01328
4349.78614	1.37235	0.01328
4348.28603	1.37224	0.01329
4346.78592	1.37214	0.01331
4345.28581	1.37204	0.01333
4343.78569	1.37194	0.01336
4342.28558	1.37185	0.0134
4340.78547	1.37178	0.01343
4339.28536	1.37171	0.01348
4337.78525	1.37166	0.01351
4336.28513	1.37161	0.01354
4334.78502	1.37156	0.01357
4333.28491	1.37153	0.01359
4331.7848	1.3715	0.0136
4330.28469	1.37146	0.01361
4328.78458	1.37141	0.01361
4327.28446	1.37137	0.0136
4325.78435	1.37132	0.01359
4324.28424	1.37127	0.01358
4322.78413	1.37119	0.01357
4321.28402	1.37112	0.01355
4319.7839	1.37104	0.01355
4318.28379	1.37097	0.01353
4316.78368	1.3709	0.01353
4315.28357	1.37082	0.01352
4313.78346	1.37074	0.01352
4312.28335	1.37066	0.01352
4310.78323	1.37059	0.01351
4309.28312	1.37052	0.01351
4307.78301	1.37045	0.01351
4306.2829	1.37037	0.0135
4304.78279	1.37029	0.0135
4303.28267	1.3702	0.0135
4301.78256	1.37012	0.01351
4300.28245	1.37003	0.01351
4298.78234	1.36994	0.01351
4297.28223	1.36985	0.01353
4295.78212	1.36976	0.01354
4294.282	1.36967	0.01356
4292.78189	1.3696	0.01358
4291.28178	1.36954	0.01359
4289.78167	1.36947	0.01361
4288.28156	1.3694	0.01362
4286.78144	1.36935	0.01364
4285.28133	1.36929	0.01364
4283.78122	1.36924	0.01365
4282.28111	1.36919	0.01364
4280.781	1.36913	0.01363
4279.28089	1.36906	0.01361
4277.78077	1.36899	0.01361
4276.28066	1.36891	0.0136
4274.78055	1.36882	0.01359
4273.28044	1.36873	0.01359
4271.78033	1.36865	0.01358
4270.28021	1.36856	0.01357
4268.7801	1.36848	0.01357
4267.27999	1.36838	0.01358
4265.77988	1.3683	0.01359
4264.27977	1.36821	0.01359
4262.77966	1.36813	0.0136
4261.27954	1.36805	0.0136
4259.77943	1.36796	0.01361
4258.27932	1.36788	0.01362
4256.77921	1.3678	0.01363
4255.2791	1.36773	0.01363
4253.77898	1.36766	0.01364
4252.27887	1.36758	0.01364
4250.77876	1.36751	0.01365
4249.27865	1.36743	0.01365
4247.77854	1.36735	0.01365
4246.27843	1.36727	0.01365
4244.77831	1.36718	0.01365
4243.2782	1.36711	0.01365
4241.77809	1.36702	0.01365
4240.27798	1.36693	0.01365
4238.77787	1.36685	0.01365
4237.27775	1.36676	0.01365
4235.77764	1.36667	0.01365
4234.27753	1.36658	0.01366
4232.77742	1.36648	0.01367
4231.27731	1.36639	0.01368
4229.7772	1.36629	0.01369
4228.27708	1.3662	0.0137
4226.77697	1.36612	0.01372
4225.27686	1.36604	0.01374
4223.77675	1.36597	0.01375
4222.27664	1.3659	0.01377
4220.77652	1.36583	0.01377
4219.27641	1.36577	0.01377
4217.7763	1.36571	0.01377
4216.27619	1.36564	0.01376
4214.77608	1.36556	0.01375
4213.27597	1.36548	0.01374
4211.77585	1.36539	0.01372
4210.27574	1.36529	0.01371
4208.77563	1.3652	0.0137
4207.27552	1.3651	0.01369
4205.77541	1.36499	0.01368
4204.27529	1.36487	0.01368
4202.77518	1.36475	0.01369
4201.27507	1.36464	0.01369
4199.77496	1.36452	0.01371
4198.27485	1.3644	0.01374
4196.77474	1.36429	0.01376
4195.27462	1.36419	0.01378
4193.77451	1.36411	0.01381
4192.2744	1.36402	0.01384
4190.77429	1.36394	0.01386
4189.27418	1.36387	0.01389
4187.77407	1.36379	0.0139
4186.27395	1.36371	0.01392
4184.77384	1.36363	0.01394
4183.27373	1.36354	0.01395
4181.77362	1.36346	0.01396
4180.27351	1.36337	0.01396
4178.77339	1.36327	0.01397
4177.27328	1.36318	0.01398
4175.77317	1.3631	0.014
4174.27306	1.36301	0.014
4172.77295	1.36292	0.01402
4171.27284	1.36283	0.01404
4169.77272	1.36273	0.01405
4168.27261	1.36264	0.01406
4166.7725	1.36255	0.01408
4165.27239	1.36245	0.0141
4163.77228	1.36236	0.01411
4162.27216	1.36228	0.01414
4160.77205	1.36219	0.01415
4159.27194	1.36211	0.01417
4157.77183	1.36204	0.01419
4156.27172	1.36196	0.01419
4154.77161	1.36188	0.01421
4153.27149	1.3618	0.01422
4151.77138	1.36172	0.01423
4150.27127	1.36164	0.01424
4148.77116	1.36157	0.01424
4147.27105	1.36149	0.01423
4145.77093	1.36141	0.01423
4144.27082	1.36132	0.01423
4142.77071	1.36123	0.01423
4141.2706	1.36115	0.01422
4139.77049	1.36107	0.01422
4138.27038	1.36097	0.0142
4136.77026	1.36088	0.01419
4135.27015	1.36077	0.01418
4133.77004	1.36066	0.01417
4132.26993	1.36055	0.01417
4130.76982	1.36045	0.01417
4129.2697	1.36033	0.01416
4127.76959	1.36021	0.01416
4126.26948	1.36008	0.01417
4124.76937	1.35997	0.01418
4123.26926	1.35984	0.01419
4121.76915	1.35973	0.01421
4120.26903	1.35961	0.01424
4118.76892	1.3595	0.01425
4117.26881	1.35939	0.01427
4115.7687	1.35929	0.01429
4114.26859	1.35919	0.01431
4112.76847	1.35909	0.01432
4111.26836	1.35898	0.01435
4109.76825	1.35888	0.01436
4108.26814	1.35878	0.01438
4106.76803	1.35866	0.01441
4105.26792	1.35855	0.01442
4103.7678	1.35844	0.01444
4102.26769	1.35832	0.01446
4100.76758	1.35821	0.01449
4099.26747	1.3581	0.01452
4097.76736	1.35801	0.01456
4096.26724	1.35792	0.01459
4094.76713	1.35784	0.01461
4093.26702	1.35774	0.01463
4091.76691	1.35766	0.01465
4090.2668	1.35757	0.01467
4088.76669	1.35749	0.01467
4087.26657	1.35741	0.01468
4085.76646	1.35732	0.01468
4084.26635	1.35722	0.01468
4082.76624	1.35712	0.01467
4081.26613	1.357	0.01467
4079.76601	1.35688	0.01467
4078.2659	1.35676	0.01467
4076.76579	1.35662	0.01468
4075.26568	1.35648	0.01469
4073.76557	1.35634	0.01472
4072.26546	1.35621	0.01474
4070.76534	1.35608	0.01478
4069.26523	1.35595	0.01481
4067.76512	1.35584	0.01485
4066.26501	1.35573	0.01489
4064.7649	1.35563	0.01493
4063.26478	1.35553	0.01496
4061.76467	1.35545	0.01499
4060.26456	1.35535	0.01502
4058.76445	1.35525	0.01505
4057.26434	1.35515	0.01508
4055.76423	1.35506	0.01509
4054.26411	1.35496	0.01511
4052.764	1.35487	0.01513
4051.26389	1.35477	0.01513
4049.76378	1.35467	0.01515
4048.26367	1.35456	0.01515
4046.76355	1.35446	0.01516
4045.26344	1.35435	0.01516
4043.76333	1.35424	0.01516
4042.26322	1.3541	0.01517
4040.76311	1.35395	0.01518
4039.263	1.35381	0.0152
4037.76288	1.35367	0.01523
4036.26277	1.35353	0.01526
4034.76266	1.3534	0.01529
4033.26255	1.35327	0.01532
4031.76244	1.35315	0.01536
4030.26232	1.35303	0.0154
4028.76221	1.35292	0.01543
4027.2621	1.35282	0.01547
4025.76199	1.3527	0.0155
4024.26188	1.35257	0.01553
4022.76177	1.35244	0.01556
4021.26165	1.35231	0.01559
4019.76154	1.35218	0.01562
4018.26143	1.35205	0.01566
4016.76132	1.35192	0.0157
4015.26121	1.3518	0.01574
4013.76109	1.35168	0.01578
4012.26098	1.35155	0.01583
4010.76087	1.35143	0.01586
4009.26076	1.3513	0.01591
4007.76065	1.35117	0.01595
4006.26054	1.35104	0.01601
4004.76042	1.3509	0.01607
4003.26031	1.35077	0.01612
4001.7602	1.35066	0.01618
4000.26009	1.35055	0.01623
3998.75998	1.35045	0.01628
3997.25986	1.35034	0.01633
3995.75975	1.35023	0.01638
3994.25964	1.35013	0.01643
3992.75953	1.35002	0.01648
3991.25942	1.3499	0.01653
3989.75931	1.34976	0.01657
3988.25919	1.34962	0.01664
3986.75908	1.34948	0.0167
3985.25897	1.34936	0.01676
3983.75886	1.34924	0.01683
3982.25875	1.34913	0.01689
3980.75864	1.34902	0.01696
3979.25852	1.34892	0.01703
3977.75841	1.34882	0.01709
3976.2583	1.34872	0.01716
3974.75819	1.34861	0.01723
3973.25808	1.34848	0.0173
3971.75796	1.34836	0.01736
3970.25785	1.34823	0.01744
3968.75774	1.3481	0.01753
3967.25763	1.34797	0.01763
3965.75752	1.34785	0.01775
3964.25741	1.34774	0.01786
3962.75729	1.34766	0.01799
3961.25718	1.34759	0.0181
3959.75707	1.34754	0.01822
3958.25696	1.34751	0.01834
3956.75685	1.3475	0.01843
3955.25673	1.34751	0.01852
3953.75662	1.34752	0.01858
3952.25651	1.34757	0.01862
3950.7564	1.34758	0.01862
3949.25629	1.34757	0.01863
3947.75618	1.34751	0.01863
3946.25606	1.34742	0.01865
3944.75595	1.34733	0.01867
3943.25584	1.34724	0.01868
3941.75573	1.34711	0.01868
3940.25562	1.34696	0.01873
3938.7555	1.34682	0.0188
3937.25539	1.34672	0.0189
3935.75528	1.34668	0.01898
3934.25517	1.34669	0.01907
3932.75506	1.34671	0.01912
3931.25495	1.34669	0.01915
3929.75483	1.34667	0.01916
3928.25472	1.34668	0.01917
3926.75461	1.3467	0.01916
3925.2545	1.3467	0.01911
3923.75439	1.34661	0.01905
3922.25427	1.34643	0.01903
3920.75416	1.3462	0.01906
3919.25405	1.34595	0.01916
3917.75394	1.34569	0.01931
3916.25383	1.34544	0.01951
3914.75372	1.34524	0.01974
3913.2536	1.34516	0.02
3911.75349	1.34525	0.02022
3910.25338	1.34552	0.02042
3908.75327	1.34591	0.02054
3907.25316	1.34635	0.02059
3905.75304	1.3468	0.02052
3904.25293	1.34721	0.02034
3902.75282	1.3475	0.02006
3901.25271	1.3476	0.01972
3899.7526	1.34747	0.01941
3898.25249	1.34715	0.01914
3896.75237	1.34677	0.01895
3895.25226	1.34639	0.01883
3893.75215	1.34609	0.01875
3892.25204	1.34586	0.01868
3890.75193	1.34568	0.01864
3889.25181	1.34555	0.01867
3887.7517	1.34551	0.01876
3886.25159	1.34554	0.01886
3884.75148	1.34557	0.01891
3883.25137	1.34554	0.01894
3881.75126	1.3455	0.0189
3880.25114	1.34544	0.01882
3878.75103	1.34536	0.01877
3877.25092	1.34531	0.01875
3875.75081	1.34535	0.01873
3874.2507	1.34545	0.01862
3872.75058	1.34555	0.01847
3871.25047	1.3456	0.01831
3869.75036	1.34553	0.01817
3868.25025	1.34532	0.01808
3866.75014	1.34511	0.01805
3865.25003	1.34501	0.01799
3863.74991	1.34498	0.01783
3862.2498	1.34494	0.01762
3860.74969	1.34487	0.01742
3859.24958	1.34484	0.01728
3857.74947	1.34484	0.01716
3856.24935	1.34493	0.01703
3854.74924	1.34501	0.01682
3853.24913	1.3449	0.01651
3851.74902	1.34452	0.01621
3850.24891	1.34401	0.01601
3848.7488	1.34359	0.01593
3847.24868	1.34329	0.01589
3845.74857	1.34311	0.01584
3844.24846	1.34301	0.01573
3842.74835	1.34294	0.01555
3841.24824	1.3429	0.01536
3839.74812	1.3429	0.01516
3838.24801	1.34286	0.01498
3836.7479	1.34266	0.01482
3835.24779	1.34225	0.01467
3833.74768	1.34173	0.01454
3832.24757	1.34122	0.01442
3830.74745	1.34075	0.01433
3829.24734	1.34037	0.01428
3827.74723	1.34012	0.01425
3826.24712	1.34001	0.01422
3824.74701	1.34	0.01417
3823.24689	1.34004	0.0141
3821.74678	1.34002	0.01396
3820.24667	1.33982	0.01377
3818.74656	1.33942	0.01357
3817.24645	1.33894	0.01344
3815.74634	1.33836	0.01336
3814.24622	1.33772	0.01334
3812.74611	1.33717	0.0134
3811.246	1.33678	0.01349
3809.74589	1.33657	0.01356
3808.24578	1.33653	0.01358
3806.74566	1.33661	0.01354
3805.24555	1.33667	0.01343
3803.74544	1.33668	0.01325
3802.24533	1.33659	0.013
3800.74522	1.33629	0.0127
3799.24511	1.33571	0.01243
3797.74499	1.33493	0.01222
3796.24488	1.33404	0.0121
3794.74477	1.33308	0.01211
3793.24466	1.33217	0.01227
3791.74455	1.33137	0.01257
3790.24444	1.33073	0.01293
3788.74432	1.33025	0.01335
3787.24421	1.32995	0.01381
3785.7441	1.32974	0.01429
3784.24399	1.32956	0.01476
3782.74388	1.32944	0.0152
3781.24376	1.32939	0.01559
3779.74365	1.32934	0.01591
3778.24354	1.32922	0.01617
3776.74343	1.32908	0.01645
3775.24332	1.32895	0.01673
3773.74321	1.32886	0.01705
3772.24309	1.32882	0.01736
3770.74298	1.32884	0.01763
3769.24287	1.32884	0.01788
3767.74276	1.3288	0.01814
3766.24265	1.32876	0.01847
3764.74253	1.32876	0.01884
3763.24242	1.32887	0.0192
3761.74231	1.32914	0.0195
3760.2422	1.32953	0.0197
3758.74209	1.32996	0.01981
3757.24198	1.33046	0.01984
3755.74186	1.33109	0.01976
3754.24175	1.33183	0.01956
3752.74164	1.33256	0.01921
3751.24153	1.33312	0.01871
3749.74142	1.33339	0.01812
3748.2413	1.33345	0.01749
3746.74119	1.33345	0.01681
3745.24108	1.33343	0.01607
3743.74097	1.33327	0.01529
3742.24086	1.3329	0.01455
3740.74075	1.33242	0.0139
3739.24063	1.33195	0.01332
3737.74052	1.33157	0.01276
3736.24041	1.33119	0.0122
3734.7403	1.33062	0.0116
3733.24019	1.32983	0.01105
3731.74007	1.3289	0.01063
3730.23996	1.32796	0.01036
3728.73985	1.32703	0.01025
3727.23974	1.32608	0.01023
3725.73963	1.32513	0.01027
3724.23952	1.32422	0.01037
3722.7394	1.32347	0.01052
3721.23929	1.32292	0.01072
3719.73918	1.32252	0.01095
3718.23907	1.32219	0.0112
3716.73896	1.32192	0.01142
3715.23884	1.32168	0.01157
3713.73873	1.32151	0.01161
3712.23862	1.3213	0.01154
3710.73851	1.32094	0.0114
3709.2384	1.32037	0.0113
3707.73829	1.31968	0.01132
3706.23817	1.31893	0.01146
3704.73806	1.3182	0.01168
3703.23795	1.31751	0.01194
3701.73784	1.31688	0.01219
3700.23773	1.31636	0.01243
3698.73761	1.316	0.01271
3697.2375	1.3158	0.01303
3695.73739	1.31572	0.01335
3694.23728	1.31569	0.01364
3692.73717	1.31565	0.01385
3691.23706	1.31556	0.01397
3689.73694	1.31533	0.01403
3688.23683	1.31498	0.01407
3686.73672	1.31459	0.01413
3685.23661	1.31425	0.01424
3683.7365	1.314	0.01437
3682.23638	1.31387	0.01444
3680.73627	1.31387	0.0144
3679.23616	1.31396	0.01425
3677.73605	1.31407	0.014
3676.23594	1.31411	0.01363
3674.73583	1.31393	0.01322
3673.23571	1.31345	0.01284
3671.7356	1.31275	0.01252
3670.23549	1.31183	0.01224
3668.73538	1.31066	0.01205
3667.23527	1.30934	0.01205
3665.73515	1.30801	0.0123
3664.23504	1.30681	0.01278
3662.73493	1.3059	0.01342
3661.23482	1.30539	0.0141
3659.73471	1.30525	0.01472
3658.2346	1.30539	0.01519
3656.73448	1.30569	0.01552
3655.23437	1.30605	0.0157
3653.73426	1.30638	0.01575
3652.23415	1.30663	0.01562
3650.73404	1.3067	0.01529
3649.23392	1.30638	0.01483
3647.73381	1.30562	0.01436
3646.2337	1.30449	0.01406
3644.73359	1.30318	0.014
3643.23348	1.3019	0.01417
3641.73337	1.30073	0.01449
3640.23325	1.29974	0.01489
3638.73314	1.29896	0.01533
3637.23303	1.2984	0.01583
3635.73292	1.29807	0.01641
3634.23281	1.29794	0.01701
3632.73269	1.29791	0.01755
3631.23258	1.29795	0.01794
3629.73247	1.29796	0.01814
3628.23236	1.29777	0.0182
3626.73225	1.29737	0.01825
3625.23214	1.29688	0.01834
3623.73202	1.2964	0.01848
3622.23191	1.29598	0.01862
3620.7318	1.2956	0.0187
3619.23169	1.29518	0.01872
3617.73158	1.29468	0.01873
3616.23146	1.29414	0.01881
3614.73135	1.29363	0.01894
3613.23124	1.29311	0.01912
3611.73113	1.2925	0.01928
3610.23102	1.2918	0.01944
3608.73091	1.29102	0.01962
3607.23079	1.29019	0.01985
3605.73068	1.28936	0.02018
3604.23057	1.2886	0.02062
3602.73046	1.28791	0.02114
3601.23035	1.28729	0.02168
3599.73024	1.28677	0.02221
3598.23012	1.28634	0.02271
3596.73001	1.28599	0.02318
3595.2299	1.28569	0.02361
3593.72979	1.28539	0.02402
3592.22968	1.28507	0.02441
3590.72956	1.28472	0.02478
3589.22945	1.28435	0.02509
3587.72934	1.28389	0.02536
3586.22923	1.28327	0.02564
3584.72912	1.28254	0.026
3583.22901	1.28175	0.02648
3581.72889	1.28101	0.02707
3580.22878	1.28034	0.02773
3578.72867	1.27978	0.02841
3577.22856	1.27936	0.02906
3575.72845	1.27905	0.0297
3574.22833	1.27886	0.03033
3572.72822	1.27879	0.03095
3571.22811	1.27879	0.03151
3569.728	1.27882	0.03198
3568.22789	1.27878	0.03233
3566.72778	1.27859	0.03259
3565.22766	1.27822	0.03282
3563.72755	1.2777	0.0331
3562.22744	1.27712	0.03345
3560.72733	1.2765	0.03387
3559.22722	1.27587	0.03435
3557.7271	1.27527	0.03487
3556.22699	1.27474	0.03544
3554.72688	1.27431	0.03602
3553.22677	1.27401	0.03664
3551.72666	1.27377	0.03728
3550.22655	1.27356	0.0379
3548.72643	1.27339	0.03849
3547.22632	1.27321	0.03903
3545.72621	1.27299	0.03952
3544.2261	1.2727	0.04
3542.72599	1.27232	0.04049
3541.22587	1.27191	0.04101
3539.72576	1.27153	0.04158
3538.22565	1.27117	0.04218
3536.72554	1.27085	0.04278
3535.22543	1.27055	0.04337
3533.72532	1.2703	0.04398
3532.2252	1.27012	0.04459
3530.72509	1.26999	0.0452
3529.22498	1.26989	0.04578
3527.72487	1.26979	0.04634
3526.22476	1.26964	0.04686
3524.72464	1.26944	0.04737
3523.22453	1.26921	0.04788
3521.72442	1.26894	0.0484
3520.22431	1.26868	0.04895
3518.7242	1.2684	0.04951
3517.22409	1.26814	0.0501
3515.72397	1.26792	0.0507
3514.22386	1.26775	0.05131
3512.72375	1.26764	0.05191
3511.22364	1.26756	0.05249
3509.72353	1.2675	0.05306
3508.22341	1.26744	0.05362
3506.7233	1.26738	0.05414
3505.22319	1.26731	0.05466
3503.72308	1.26721	0.05515
3502.22297	1.26708	0.05563
3500.72286	1.26689	0.05612
3499.22274	1.26669	0.05662
3497.72263	1.2665	0.05715
3496.22252	1.26632	0.05769
3494.72241	1.26615	0.05825
3493.2223	1.266	0.05882
3491.72218	1.26588	0.05938
3490.22207	1.2658	0.05996
3488.72196	1.26576	0.06052
3487.22185	1.26573	0.06108
3485.72174	1.2657	0.06161
3484.22163	1.26567	0.06212
3482.72151	1.26563	0.06262
3481.2214	1.26558	0.06311
3479.72129	1.26549	0.0636
3478.22118	1.26539	0.06408
3476.72107	1.26528	0.06457
3475.22095	1.26516	0.06507
3473.72084	1.26506	0.06557
3472.22073	1.26494	0.06608
3470.72062	1.26484	0.06661
3469.22051	1.26475	0.06714
3467.7204	1.26467	0.06768
3466.22028	1.26461	0.06822
3464.72017	1.26453	0.06876
3463.22006	1.26447	0.06931
3461.71995	1.26441	0.06986
3460.21984	1.26436	0.07042
3458.71972	1.26432	0.07099
3457.21961	1.2643	0.07154
3455.7195	1.26431	0.0721
3454.21939	1.26434	0.07263
3452.71928	1.26437	0.07316
3451.21917	1.26444	0.07367
3449.71905	1.26451	0.07417
3448.21894	1.26459	0.07465
3446.71883	1.26465	0.07512
3445.21872	1.26469	0.07555
3443.71861	1.26469	0.07599
3442.21849	1.26467	0.07642
3440.71838	1.26463	0.07686
3439.21827	1.26459	0.07732
3437.71816	1.26452	0.07779
3436.21805	1.26447	0.07828
3434.71794	1.26442	0.07876
3433.21782	1.2644	0.07927
3431.71771	1.2644	0.07979
3430.2176	1.26441	0.0803
3428.71749	1.26445	0.08081
3427.21738	1.2645	0.08132
3425.71726	1.26457	0.08182
3424.21715	1.26464	0.08231
3422.71704	1.26472	0.08278
3421.21693	1.2648	0.08324
3419.71682	1.26486	0.08369
3418.21671	1.26492	0.08413
3416.71659	1.26496	0.08457
3415.21648	1.265	0.08501
3413.71637	1.26504	0.08545
3412.21626	1.26506	0.0859
3410.71615	1.26508	0.08635
3409.21604	1.26511	0.0868
3407.71592	1.26514	0.08727
3406.21581	1.26519	0.08772
3404.7157	1.26526	0.08819
3403.21559	1.26534	0.08865
3401.71548	1.26542	0.08911
3400.21536	1.26552	0.08955
3398.71525	1.26562	0.08999
3397.21514	1.26571	0.09042
3395.71503	1.26581	0.09084
3394.21492	1.26591	0.09126
3392.71481	1.266	0.09166
3391.21469	1.26609	0.09206
3389.71458	1.26617	0.09246
3388.21447	1.26625	0.09285
3386.71436	1.26632	0.09324
3385.21425	1.26639	0.09364
3383.71413	1.26646	0.09404
3382.21402	1.26652	0.09444
3380.71391	1.26658	0.09484
3379.2138	1.26665	0.09524
3377.71369	1.26674	0.09565
3376.21358	1.26683	0.09605
3374.71346	1.26693	0.09645
3373.21335	1.26704	0.09683
3371.71324	1.26717	0.09721
3370.21313	1.26728	0.09758
3368.71302	1.2674	0.09793
3367.2129	1.2675	0.09829
3365.71279	1.2676	0.09864
3364.21268	1.26768	0.09898
3362.71257	1.26776	0.09931
3361.21246	1.26783	0.09966
3359.71235	1.26789	0.09999
3358.21223	1.26794	0.10033
3356.71212	1.26802	0.10067
3355.21201	1.26808	0.10101
3353.7119	1.26816	0.10136
3352.21179	1.26822	0.1017
3350.71167	1.2683	0.10204
3349.21156	1.26836	0.10238
3347.71145	1.26843	0.10272
3346.21134	1.2685	0.10306
3344.71123	1.26856	0.10338
3343.21112	1.26864	0.10371
3341.711	1.26871	0.10403
3340.21089	1.26878	0.10435
3338.71078	1.26884	0.10466
3337.21067	1.2689	0.10496
3335.71056	1.26895	0.10527
3334.21044	1.26899	0.10557
3332.71033	1.26901	0.10587
3331.21022	1.26902	0.10618
3329.71011	1.26902	0.1065
3328.21	1.26902	0.10683
3326.70989	1.26901	0.10716
3325.20977	1.26901	0.1075
3323.70966	1.26902	0.10785
3322.20955	1.26902	0.10821
3320.70944	1.26904	0.10857
3319.20933	1.26907	0.10893
3317.70921	1.26913	0.1093
3316.2091	1.26918	0.10965
3314.70899	1.26924	0.11001
3313.20888	1.2693	0.11035
3311.70877	1.26935	0.11068
3310.20866	1.26941	0.11101
3308.70854	1.26946	0.11133
3307.20843	1.26949	0.11165
3305.70832	1.2695	0.11197
3304.20821	1.26951	0.11229
3302.7081	1.26952	0.11262
3301.20798	1.26953	0.11295
3299.70787	1.26954	0.11328
3298.20776	1.26954	0.11361
3296.70765	1.26954	0.11395
3295.20754	1.26954	0.1143
3293.70743	1.26955	0.11465
3292.20731	1.26956	0.115
3290.7072	1.26956	0.11536
3289.20709	1.26956	0.11572
3287.70698	1.26956	0.11609
3286.20687	1.26956	0.11645
3284.70675	1.26957	0.11682
3283.20664	1.2696	0.11719
3281.70653	1.26963	0.11756
3280.20642	1.26967	0.11793
3278.70631	1.2697	0.11829
3277.2062	1.26973	0.11864
3275.70608	1.26976	0.119
3274.20597	1.26979	0.11936
3272.70586	1.2698	0.11971
3271.20575	1.26981	0.12006
3269.70564	1.2698	0.12042
3268.20552	1.2698	0.12078
3266.70541	1.2698	0.12115
3265.2053	1.26981	0.12152
3263.70519	1.26982	0.12189
3262.20508	1.26983	0.12227
3260.70497	1.26984	0.12265
3259.20485	1.26985	0.12303
3257.70474	1.26986	0.12342
3256.20463	1.26988	0.12381
3254.70452	1.26989	0.1242
3253.20441	1.26991	0.12458
3251.70429	1.26991	0.12497
3250.20418	1.26993	0.12536
3248.70407	1.26995	0.12576
3247.20396	1.26998	0.12616
3245.70385	1.27001	0.12656
3244.20374	1.27003	0.12696
3242.70362	1.27006	0.12735
3241.20351	1.27009	0.12776
3239.7034	1.27013	0.12815
3238.20329	1.27016	0.12855
3236.70318	1.27019	0.12894
3235.20306	1.27022	0.12934
3233.70295	1.27026	0.12974
3232.20284	1.27029	0.13013
3230.70273	1.27032	0.13054
3229.20262	1.27034	0.13093
3227.70251	1.27036	0.13134
3226.20239	1.27038	0.13175
3224.70228	1.2704	0.13217
3223.20217	1.27043	0.13259
3221.70206	1.27047	0.13301
3220.20195	1.27052	0.13343
3218.70183	1.27058	0.13385
3217.20172	1.27063	0.13426
3215.70161	1.2707	0.13468
3214.2015	1.27076	0.13508
3212.70139	1.27081	0.13549
3211.20128	1.27086	0.1359
3209.70116	1.27089	0.13629
3208.20105	1.27092	0.1367
3206.70094	1.27093	0.13711
3205.20083	1.27095	0.13753
3203.70072	1.27096	0.13796
3202.20061	1.27099	0.1384
3200.70049	1.27102	0.13884
3199.20038	1.27106	0.13928
3197.70027	1.2711	0.13973
3196.20016	1.27116	0.14018
3194.70005	1.27121	0.14063
3193.19993	1.27126	0.14109
3191.69982	1.27132	0.14155
3190.19971	1.27137	0.14201
3188.6996	1.27144	0.14246
3187.19949	1.27151	0.14292
3185.69938	1.27158	0.14338
3184.19926	1.27165	0.14384
3182.69915	1.27172	0.1443
3181.19904	1.27181	0.14476
3179.69893	1.2719	0.14522
3178.19882	1.27199	0.14568
3176.6987	1.27209	0.14613
3175.19859	1.27216	0.14657
3173.69848	1.27224	0.14702
3172.19837	1.27231	0.14748
3170.69826	1.27237	0.14795
3169.19815	1.27244	0.14841
3167.69803	1.2725	0.14888
3166.19792	1.27256	0.14937
3164.69781	1.27263	0.14985
3163.1977	1.27272	0.15035
3161.69759	1.27282	0.15085
3160.19747	1.27293	0.15135
3158.69736	1.27305	0.15185
3157.19725	1.27318	0.15234
3155.69714	1.27331	0.15283
3154.19703	1.27345	0.15333
3152.69692	1.27358	0.15381
3151.1968	1.27371	0.15429
3149.69669	1.27382	0.15477
3148.19658	1.27394	0.15526
3146.69647	1.27405	0.15576
3145.19636	1.27417	0.15626
3143.69624	1.2743	0.15675
3142.19613	1.27444	0.15725
3140.69602	1.27458	0.15776
3139.19591	1.27472	0.15826
3137.6958	1.27488	0.15877
3136.19569	1.27503	0.15928
3134.69557	1.27519	0.15979
3133.19546	1.27534	0.1603
3131.69535	1.27551	0.16082
3130.19524	1.27567	0.16133
3128.69513	1.27585	0.16185
3127.19501	1.27604	0.16237
3125.6949	1.27623	0.16287
3124.19479	1.27645	0.16338
3122.69468	1.27666	0.16389
3121.19457	1.27688	0.16439
3119.69446	1.27711	0.16488
3118.19434	1.27731	0.16536
3116.69423	1.27753	0.16584
3115.19412	1.27771	0.16633
3113.69401	1.2779	0.16681
3112.1939	1.27808	0.16731
3110.69378	1.27827	0.16781
3109.19367	1.27847	0.16831
3107.69356	1.27867	0.16881
3106.19345	1.27889	0.16932
3104.69334	1.27911	0.16984
3103.19323	1.27935	0.17035
3101.69311	1.2796	0.17087
3100.193	1.27985	0.17137
3098.69289	1.2801	0.17188
3097.19278	1.28034	0.17238
3095.69267	1.28058	0.17288
3094.19255	1.28083	0.17338
3092.69244	1.28108	0.1739
3091.19233	1.28134	0.1744
3089.69222	1.28161	0.17491
3088.19211	1.28189	0.17542
3086.692	1.28217	0.17591
3085.19188	1.28248	0.1764
3083.69177	1.28278	0.1769
3082.19166	1.28308	0.17738
3080.69155	1.28338	0.17786
3079.19144	1.28369	0.17834
3077.69132	1.28398	0.17881
3076.19121	1.28427	0.17927
3074.6911	1.28455	0.17974
3073.19099	1.28484	0.18022
3071.69088	1.28513	0.18069
3070.19077	1.28542	0.18118
3068.69065	1.28573	0.18166
3067.19054	1.28605	0.18212
3065.69043	1.28638	0.18259
3064.19032	1.2867	0.18306
3062.69021	1.28703	0.18352
3061.19009	1.28735	0.18398
3059.68998	1.28767	0.18445
3058.18987	1.28799	0.1849
3056.68976	1.2883	0.18536
3055.18965	1.28861	0.18583
3053.68954	1.28892	0.18628
3052.18942	1.28924	0.18675
3050.68931	1.28956	0.18723
3049.1892	1.28989	0.1877
3047.68909	1.29024	0.18818
3046.18898	1.29058	0.18866
3044.68886	1.29094	0.18913
3043.18875	1.29132	0.1896
3041.68864	1.29169	0.19007
3040.18853	1.29207	0.19052
3038.68842	1.29246	0.19097
3037.18831	1.29284	0.19142
3035.68819	1.29322	0.19187
3034.18808	1.29361	0.1923
3032.68797	1.29399	0.19273
3031.18786	1.29435	0.19315
3029.68775	1.29471	0.19358
3028.18763	1.29507	0.19403
3026.68752	1.29542	0.19448
3025.18741	1.29579	0.19493
3023.6873	1.29616	0.19539
3022.18719	1.29654	0.19584
3020.68708	1.29694	0.19629
3019.18696	1.29733	0.19675
3017.68685	1.29777	0.19722
3016.18674	1.29821	0.19768
3014.68663	1.29866	0.19812
3013.18652	1.2991	0.19855
3011.68641	1.29954	0.19898
3010.18629	1.29997	0.1994
3008.68618	1.3004	0.19983
3007.18607	1.30082	0.20027
3005.68596	1.30125	0.20069
3004.18585	1.30169	0.20112
3002.68573	1.30214	0.20155
3001.18562	1.30259	0.20198
2999.68551	1.30306	0.20241
2998.1854	1.30356	0.20284
2996.68529	1.30407	0.20325
2995.18518	1.30458	0.20365
2993.68506	1.30508	0.20405
2992.18495	1.30559	0.20443
2990.68484	1.30609	0.20481
2989.18473	1.30659	0.20518
2987.68462	1.3071	0.20555
2986.1845	1.30759	0.20591
2984.68439	1.30809	0.20626
2983.18428	1.3086	0.20661
2981.68417	1.30911	0.20695
2980.18406	1.30962	0.20729
2978.68395	1.31014	0.20763
2977.18383	1.31065	0.20795
2975.68372	1.31115	0.20827
2974.18361	1.31165	0.20859
2972.6835	1.31214	0.2089
2971.18339	1.31262	0.20922
2969.68327	1.31309	0.20954
2968.18316	1.31357	0.20987
2966.68305	1.31405	0.2102
2965.18294	1.31454	0.21053
2963.68283	1.31504	0.21086
2962.18272	1.31555	0.2112
2960.6826	1.31606	0.21154
2959.18249	1.31658	0.21187
2957.68238	1.31712	0.21221
2956.18227	1.31767	0.21254
2954.68216	1.31821	0.21286
2953.18204	1.31877	0.21316
2951.68193	1.31931	0.21347
2950.18182	1.31987	0.21376
2948.68171	1.32042	0.21407
2947.1816	1.32098	0.21435
2945.68149	1.32154	0.21464
2944.18137	1.32209	0.21492
2942.68126	1.32264	0.2152
2941.18115	1.32319	0.21548
2939.68104	1.32375	0.21576
2938.18093	1.32432	0.21605
2936.68081	1.32489	0.21633
2935.1807	1.32547	0.21661
2933.68059	1.32606	0.21689
2932.18048	1.32667	0.21717
2930.68037	1.3273	0.21744
2929.18026	1.32794	0.2177
2927.68014	1.32861	0.21794
2926.18003	1.3293	0.21816
2924.67992	1.33	0.21834
2923.17981	1.3307	0.2185
2921.6797	1.33139	0.21862
2920.17958	1.33207	0.21872
2918.67947	1.33273	0.21879
2917.17936	1.33336	0.21884
2915.67925	1.33394	0.21888
2914.17914	1.33448	0.21891
2912.67903	1.33498	0.21895
2911.17891	1.33544	0.21901
2909.6788	1.33589	0.21908
2908.17869	1.33633	0.21918
2906.67858	1.33678	0.2193
2905.17847	1.33724	0.21944
2903.67835	1.33772	0.21958
2902.17824	1.33822	0.21975
2900.67813	1.33874	0.21991
2899.17802	1.33927	0.22008
2897.67791	1.33982	0.22024
2896.1778	1.34036	0.22041
2894.67768	1.3409	0.22056
2893.17757	1.34144	0.22071
2891.67746	1.34198	0.22085
2890.17735	1.34253	0.22099
2888.67724	1.34307	0.22114
2887.17712	1.34363	0.22128
2885.67701	1.34419	0.22142
2884.1769	1.34477	0.22156
2882.67679	1.34534	0.22169
2881.17668	1.34592	0.22181
2879.67657	1.34652	0.22193
2878.17645	1.34711	0.22204
2876.67634	1.3477	0.22215
2875.17623	1.3483	0.22225
2873.67612	1.34889	0.22234
2872.17601	1.34948	0.22243
2870.67589	1.35007	0.22251
2869.17578	1.35066	0.2226
2867.67567	1.35126	0.22268
2866.17556	1.35186	0.22276
2864.67545	1.35247	0.22284
2863.17534	1.3531	0.2229
2861.67522	1.35374	0.22297
2860.17511	1.3544	0.22301
2858.675	1.35508	0.22302
2857.17489	1.35578	0.22302
2855.67478	1.35646	0.22298
2854.17466	1.35713	0.22293
2852.67455	1.35779	0.22284
2851.17444	1.35842	0.22275
2849.67433	1.35902	0.22264
2848.17422	1.3596	0.2225
2846.67411	1.36013	0.22237
2845.17399	1.36064	0.22224
2843.67388	1.36112	0.22213
2842.17377	1.3616	0.22203
2840.67366	1.36209	0.22196
2839.17355	1.36257	0.22188
2837.67343	1.36307	0.22181
2836.17332	1.36355	0.22175
2834.67321	1.36405	0.22169
2833.1731	1.36457	0.22165
2831.67299	1.36509	0.2216
2830.17288	1.36561	0.22155
2828.67276	1.36615	0.22149
2827.17265	1.36669	0.22142
2825.67254	1.36722	0.22134
2824.17243	1.36777	0.22125
2822.67232	1.3683	0.22116
2821.17221	1.36884	0.22106
2819.67209	1.36937	0.22096
2818.17198	1.3699	0.22084
2816.67187	1.37041	0.22072
2815.17176	1.37092	0.2206
2813.67165	1.37144	0.22047
2812.17153	1.37194	0.22034
2810.67142	1.37245	0.22021
2809.17131	1.37296	0.22008
2807.6712	1.37346	0.21994
2806.17109	1.37398	0.2198
2804.67098	1.37448	0.21965
2803.17086	1.37499	0.21949
2801.67075	1.3755	0.21934
2800.17064	1.37601	0.21916
2798.67053	1.37651	0.21897
2797.17042	1.37701	0.21879
2795.6703	1.37749	0.21859
2794.17019	1.37797	0.21838
2792.67008	1.37843	0.21818
2791.16997	1.37889	0.21797
2789.66986	1.37934	0.21775
2788.16975	1.37978	0.21753
2786.66963	1.38022	0.21732
2785.16952	1.38064	0.21711
2783.66941	1.38108	0.21689
2782.1693	1.3815	0.21667
2780.66919	1.38193	0.21646
2779.16907	1.38235	0.21623
2777.66896	1.38276	0.216
2776.16885	1.38318	0.21578
2774.66874	1.38358	0.21554
2773.16863	1.38398	0.21531
2771.66852	1.38438	0.21507
2770.1684	1.38477	0.21483
2768.66829	1.38515	0.21459
2767.16818	1.38553	0.21435
2765.66807	1.38591	0.21411
2764.16796	1.38628	0.21386
2762.66784	1.38665	0.21361
2761.16773	1.38702	0.21336
2759.66762	1.38737	0.21311
2758.16751	1.38774	0.21285
2756.6674	1.3881	0.2126
2755.16729	1.38846	0.21233
2753.66717	1.38881	0.21205
2752.16706	1.38915	0.21177
2750.66695	1.38948	0.21149
2749.16684	1.38981	0.2112
2747.66673	1.39012	0.21091
2746.16661	1.39042	0.2106
2744.6665	1.39069	0.21031
2743.16639	1.39095	0.21002
2741.66628	1.3912	0.20973
2740.16617	1.39144	0.20946
2738.66606	1.39167	0.20919
2737.16594	1.3919	0.20892
2735.66583	1.39213	0.20866
2734.16572	1.39236	0.2084
2732.66561	1.39259	0.20816
2731.1655	1.39283	0.20791
2729.66538	1.39307	0.20766
2728.16527	1.3933	0.20741
2726.66516	1.39353	0.20716
2725.16505	1.39374	0.2069
2723.66494	1.39395	0.20665
2722.16483	1.39415	0.20639
2720.66471	1.39434	0.20614
2719.1646	1.39452	0.20589
2717.66449	1.39469	0.20565
2716.16438	1.39486	0.20541
2714.66427	1.39502	0.20518
2713.16415	1.39517	0.20495
2711.66404	1.39534	0.20474
2710.16393	1.39549	0.20453
2708.66382	1.39565	0.20432
2707.16371	1.3958	0.20411
2705.6636	1.39595	0.20392
2704.16348	1.3961	0.20372
2702.66337	1.39625	0.20353
2701.16326	1.39639	0.20335
2699.66315	1.39653	0.20316
2698.16304	1.39667	0.20299
2696.66292	1.39681	0.20282
2695.16281	1.39695	0.20265
2693.6627	1.39709	0.20249
2692.16259	1.39724	0.20233
2690.66248	1.39738	0.20218
2689.16237	1.39754	0.20203
2687.66225	1.3977	0.20188
2686.16214	1.39786	0.20173
2684.66203	1.39803	0.20157
2683.16192	1.39819	0.20142
2681.66181	1.39836	0.20126
2680.16169	1.39851	0.2011
2678.66158	1.39868	0.20094
2677.16147	1.39883	0.20078
2675.66136	1.39898	0.20062
2674.16125	1.39912	0.20045
2672.66114	1.39926	0.2003
2671.16102	1.39939	0.20014
2669.66091	1.39952	0.19999
2668.1608	1.39966	0.19984
2666.66069	1.3998	0.1997
2665.16058	1.39993	0.19955
2663.66046	1.40006	0.19941
2662.16035	1.40019	0.19926
2660.66024	1.40032	0.19912
2659.16013	1.40045	0.19899
2657.66002	1.40059	0.19885
2656.15991	1.40071	0.19872
2654.65979	1.40084	0.19858
2653.15968	1.40096	0.19845
2651.65957	1.4011	0.19832
2650.15946	1.40122	0.1982
2648.65935	1.40135	0.19806
2647.15923	1.40149	0.19794
2645.65912	1.40162	0.19781
2644.15901	1.40175	0.19768
2642.6589	1.40187	0.19755
2641.15879	1.40201	0.19742
2639.65868	1.40213	0.19728
2638.15856	1.40225	0.19715
2636.65845	1.40236	0.19701
2635.15834	1.40246	0.19688
2633.65823	1.40256	0.19675
2632.15812	1.40266	0.19663
2630.658	1.40274	0.1965
2629.15789	1.40283	0.19639
2627.65778	1.40291	0.19627
2626.15767	1.40299	0.19617
2624.65756	1.40307	0.19607
2623.15745	1.40314	0.19598
2621.65733	1.40321	0.1959
2620.15722	1.40329	0.19582
2618.65711	1.40338	0.19575
2617.157	1.40346	0.19568
2615.65689	1.40355	0.19562
2614.15678	1.40364	0.19556
2612.65666	1.40374	0.1955
2611.15655	1.40383	0.19546
2609.65644	1.40394	0.1954
2608.15633	1.40404	0.19536
2606.65622	1.40414	0.19532
2605.1561	1.40424	0.19527
2603.65599	1.40434	0.19524
2602.15588	1.40444	0.1952
2600.65577	1.40454	0.19518
2599.15566	1.40465	0.19516
2597.65555	1.40476	0.19514
2596.15543	1.40488	0.19513
2594.65532	1.405	0.19513
2593.15521	1.40513	0.19512
2591.6551	1.40526	0.19512
2590.15499	1.40542	0.19513
2588.65487	1.40557	0.19513
2587.15476	1.40574	0.19514
2585.65465	1.40592	0.19514
2584.15454	1.40611	0.19514
2582.65443	1.40629	0.19514
2581.15432	1.40649	0.19513
2579.6542	1.40669	0.19512
2578.15409	1.4069	0.1951
2576.65398	1.40711	0.19509
2575.15387	1.40732	0.19506
2573.65376	1.40753	0.19503
2572.15364	1.40775	0.195
2570.65353	1.40797	0.19496
2569.15342	1.40819	0.19492
2567.65331	1.40842	0.19488
2566.1532	1.40865	0.19482
2564.65309	1.40888	0.19477
2563.15297	1.40911	0.19471
2561.65286	1.40935	0.19465
2560.15275	1.40958	0.19459
2558.65264	1.40982	0.19451
2557.15253	1.41006	0.19443
2555.65241	1.41029	0.19436
2554.1523	1.41053	0.19427
2552.65219	1.41078	0.19418
2551.15208	1.41102	0.19408
2549.65197	1.41127	0.19397
2548.15186	1.41152	0.19387
2546.65174	1.41177	0.19375
2545.15163	1.41201	0.19363
2543.65152	1.41225	0.19349
2542.15141	1.41248	0.19334
2540.6513	1.41271	0.1932
2539.15118	1.41291	0.19306
2537.65107	1.41312	0.19291
2536.15096	1.41333	0.19277
2534.65085	1.41352	0.19262
2533.15074	1.41372	0.19248
2531.65063	1.41392	0.19232
2530.15051	1.41412	0.19218
2528.6504	1.41433	0.19203
2527.15029	1.41453	0.19188
2525.65018	1.41473	0.19172
2524.15007	1.41493	0.19157
2522.64995	1.41512	0.19139
2521.14984	1.41531	0.19122
2519.64973	1.41548	0.19106
2518.14962	1.41565	0.19089
2516.64951	1.41581	0.19072
2515.1494	1.41597	0.19056
2513.64928	1.41612	0.1904
2512.14917	1.41627	0.19024
2510.64906	1.41643	0.19008
2509.14895	1.41658	0.18993
2507.64884	1.41674	0.18978
2506.14872	1.41689	0.18963
2504.64861	1.41705	0.18948
2503.1485	1.41721	0.18934
2501.64839	1.41737	0.1892
2500.14828	1.41753	0.18905
2498.64817	1.41769	0.1889
2497.14805	1.41785	0.18875
2495.64794	1.41801	0.1886
2494.14783	1.41817	0.18845
2492.64772	1.41833	0.18831
2491.14761	1.4185	0.18816
2489.64749	1.41867	0.18801
2488.14738	1.41884	0.18786
2486.64727	1.41901	0.1877
2485.14716	1.41918	0.18754
2483.64705	1.41936	0.18738
2482.14694	1.41953	0.18722
2480.64682	1.4197	0.18705
2479.14671	1.41987	0.18688
2477.6466	1.42004	0.1867
2476.14649	1.4202	0.18653
2474.64638	1.42036	0.18635
2473.14626	1.42053	0.18618
2471.64615	1.42068	0.18599
2470.14604	1.42085	0.18582
2468.64593	1.42101	0.18564
2467.14582	1.42117	0.18546
2465.64571	1.42134	0.18528
2464.14559	1.42151	0.1851
2462.64548	1.42168	0.18491
2461.14537	1.42186	0.18471
2459.64526	1.42204	0.18452
2458.14515	1.42222	0.18432
2456.64503	1.4224	0.1841
2455.14492	1.42258	0.18389
2453.64481	1.42275	0.18366
2452.1447	1.42292	0.18344
2450.64459	1.42308	0.1832
2449.14448	1.42324	0.18297
2447.64436	1.42341	0.18272
2446.14425	1.42358	0.18247
2444.64414	1.42373	0.18222
2443.14403	1.4239	0.18195
2441.64392	1.42405	0.18169
2440.1438	1.42422	0.18142
2438.64369	1.42437	0.18114
2437.14358	1.42452	0.18084
2435.64347	1.42466	0.18053
2434.14336	1.4248	0.18022
2432.64325	1.42491	0.17991
2431.14313	1.42502	0.17958
2429.64302	1.42512	0.17926
2428.14291	1.42521	0.17892
2426.6428	1.42527	0.17859
2425.14269	1.42534	0.17825
2423.64258	1.42539	0.17792
2422.14246	1.42543	0.17757
2420.64235	1.42548	0.17723
2419.14224	1.4255	0.1769
2417.64213	1.42552	0.17656
2416.14202	1.42553	0.17621
2414.6419	1.42553	0.17587
2413.14179	1.42552	0.17552
2411.64168	1.42549	0.17518
2410.14157	1.42544	0.17485
2408.64146	1.42539	0.17451
2407.14135	1.42532	0.17417
2405.64123	1.42524	0.17385
2404.14112	1.42514	0.17353
2402.64101	1.42504	0.17322
2401.1409	1.42492	0.17293
2399.64079	1.4248	0.17264
2398.14067	1.42467	0.17237
2396.64056	1.42454	0.17211
2395.14045	1.42441	0.17186
2393.64034	1.42428	0.17161
2392.14023	1.42415	0.17138
2390.64012	1.42403	0.17115
2389.14	1.42391	0.17093
2387.63989	1.42379	0.17071
2386.13978	1.42368	0.1705
2384.63967	1.42357	0.17028
2383.13956	1.42345	0.17006
2381.63944	1.42333	0.16984
2380.13933	1.4232	0.16963
2378.63922	1.42308	0.16942
2377.13911	1.42294	0.16921
2375.639	1.4228	0.16901
2374.13889	1.42265	0.16881
2372.63877	1.4225	0.16861
2371.13866	1.42235	0.16842
2369.63855	1.4222	0.16823
2368.13844	1.42204	0.16806
2366.63833	1.42189	0.16787
2365.13821	1.42172	0.1677
2363.6381	1.42157	0.16753
2362.13799	1.4214	0.16737
2360.63788	1.42124	0.1672
2359.13777	1.42107	0.16705
2357.63766	1.42091	0.16689
2356.13754	1.42074	0.16675
2354.63743	1.42057	0.1666
2353.13732	1.42038	0.16646
2351.63721	1.42021	0.16632
2350.1371	1.42003	0.16618
2348.63698	1.41985	0.16606
2347.13687	1.41967	0.16592
2345.63676	1.41949	0.16581
2344.13665	1.4193	0.16569
2342.63654	1.41911	0.16557
2341.13643	1.41893	0.16547
2339.63631	1.41873	0.16536
2338.1362	1.41853	0.16526
2336.63609	1.41834	0.16515
2335.13598	1.41815	0.16506
2333.63587	1.41795	0.16497
2332.13575	1.41775	0.16488
2330.63564	1.41754	0.1648
2329.13553	1.41734	0.16472
2327.63542	1.41713	0.16465
2326.13531	1.41692	0.16458
2324.6352	1.41671	0.16451
2323.13508	1.41649	0.16445
2321.63497	1.41628	0.1644
2320.13486	1.41606	0.16434
2318.63475	1.41583	0.1643
2317.13464	1.41562	0.16426
2315.63452	1.41539	0.16422
2314.13441	1.41516	0.16419
2312.6343	1.41493	0.16416
2311.13419	1.4147	0.16414
2309.63408	1.41446	0.16413
2308.13397	1.41422	0.16412
2306.63385	1.41398	0.16412
2305.13374	1.41373	0.16412
2303.63363	1.41348	0.16414
2302.13352	1.41323	0.16415
2300.63341	1.41298	0.16418
2299.13329	1.41271	0.16421
2297.63318	1.41245	0.16425
2296.13307	1.41218	0.1643
2294.63296	1.41191	0.16436
2293.13285	1.41164	0.16443
2291.63274	1.41136	0.16451
2290.13262	1.41106	0.1646
2288.63251	1.41077	0.16471
2287.1324	1.41047	0.16483
2285.63229	1.41016	0.16497
2284.13218	1.40984	0.16514
2282.63206	1.40952	0.16534
2281.13195	1.40921	0.16555
2279.63184	1.4089	0.16581
2278.13173	1.4086	0.16608
2276.63162	1.40831	0.16639
2275.13151	1.40805	0.16672
2273.63139	1.40783	0.16708
2272.13128	1.40764	0.16745
2270.63117	1.40749	0.16784
2269.13106	1.40737	0.16822
2267.63095	1.40728	0.16861
2266.13083	1.40722	0.16901
2264.63072	1.40719	0.1694
2263.13061	1.40717	0.16978
2261.6305	1.40717	0.17017
2260.13039	1.40718	0.17054
2258.63028	1.40721	0.17091
2257.13016	1.40725	0.17129
2255.63005	1.4073	0.17166
2254.12994	1.40737	0.17202
2252.62983	1.40747	0.17239
2251.12972	1.40758	0.17275
2249.6296	1.40771	0.17311
2248.12949	1.40786	0.17347
2246.62938	1.40804	0.17382
2245.12927	1.40823	0.17415
2243.62916	1.40843	0.17447
2242.12905	1.40865	0.17479
2240.62893	1.40888	0.17509
2239.12882	1.40912	0.17538
2237.62871	1.40938	0.17566
2236.1286	1.40965	0.17594
2234.62849	1.40993	0.1762
2233.12838	1.41022	0.17646
2231.62826	1.41052	0.17669
2230.12815	1.41083	0.17692
2228.62804	1.41116	0.17714
2227.12793	1.41152	0.17734
2225.62782	1.41187	0.17752
2224.1277	1.41224	0.17769
2222.62759	1.41263	0.17784
2221.12748	1.41302	0.17798
2219.62737	1.41342	0.17809
2218.12726	1.41382	0.17818
2216.62715	1.41423	0.17826
2215.12703	1.41463	0.1783
2213.62692	1.41504	0.17834
2212.12681	1.41544	0.17836
2210.6267	1.41585	0.17836
2209.12659	1.41626	0.17833
2207.62647	1.41667	0.17828
2206.12636	1.41707	0.17823
2204.62625	1.41746	0.17815
2203.12614	1.41785	0.17806
2201.62603	1.41823	0.17794
2200.12592	1.4186	0.17782
2198.6258	1.41896	0.17768
2197.12569	1.41931	0.17754
2195.62558	1.41966	0.17737
2194.12547	1.42	0.1772
2192.62536	1.42033	0.17701
2191.12524	1.42067	0.17682
2189.62513	1.42099	0.17662
2188.12502	1.42131	0.1764
2186.62491	1.42163	0.17617
2185.1248	1.42193	0.17593
2183.62469	1.42222	0.17568
2182.12457	1.4225	0.17541
2180.62446	1.42276	0.17513
2179.12435	1.42302	0.17485
2177.62424	1.42327	0.17456
2176.12413	1.42349	0.17426
2174.62401	1.4237	0.17396
2173.1239	1.4239	0.17365
2171.62379	1.42409	0.17334
2170.12368	1.42427	0.17304
2168.62357	1.42445	0.17273
2167.12346	1.42461	0.17242
2165.62334	1.42477	0.1721
2164.12323	1.42493	0.17177
2162.62312	1.42508	0.17145
2161.12301	1.42522	0.17112
2159.6229	1.42536	0.17078
2158.12278	1.4255	0.17044
2156.62267	1.42561	0.1701
2155.12256	1.42571	0.16974
2153.62245	1.4258	0.16939
2152.12234	1.42588	0.16903
2150.62223	1.42594	0.16868
2149.12211	1.426	0.16833
2147.622	1.42604	0.16798
2146.12189	1.42608	0.16763
2144.62178	1.42611	0.16728
2143.12167	1.42614	0.16694
2141.62155	1.42617	0.16659
2140.12144	1.4262	0.16624
2138.62133	1.42623	0.16589
2137.12122	1.42625	0.16553
2135.62111	1.42627	0.16517
2134.121	1.42628	0.1648
2132.62088	1.42628	0.16443
2131.12077	1.42626	0.16405
2129.62066	1.42624	0.16367
2128.12055	1.4262	0.16329
2126.62044	1.42615	0.1629
2125.12032	1.42609	0.16252
2123.62021	1.42601	0.16214
2122.1201	1.42593	0.16176
2120.61999	1.42584	0.16138
2119.11988	1.42575	0.16101
2117.61977	1.42564	0.16063
2116.11965	1.42553	0.16026
2114.61954	1.42542	0.15988
2113.11943	1.4253	0.1595
2111.61932	1.42516	0.15913
2110.11921	1.42501	0.15876
2108.61909	1.42486	0.15838
2107.11898	1.4247	0.15802
2105.61887	1.42452	0.15765
2104.11876	1.42435	0.15728
2102.61865	1.42416	0.15692
2101.11854	1.42397	0.15655
2099.61842	1.42378	0.15618
2098.11831	1.42357	0.15582
2096.6182	1.42336	0.15545
2095.11809	1.42314	0.15509
2093.61798	1.4229	0.15473
2092.11786	1.42265	0.15436
2090.61775	1.42239	0.154
2089.11764	1.42211	0.15364
2087.61753	1.42181	0.15328
2086.11742	1.4215	0.15294
2084.61731	1.42118	0.15261
2083.11719	1.42086	0.15229
2081.61708	1.42053	0.15197
2080.11697	1.42019	0.15166
2078.61686	1.41984	0.15137
2077.11675	1.41948	0.15108
2075.61663	1.41914	0.15081
2074.11652	1.41879	0.15053
2072.61641	1.41845	0.15026
2071.1163	1.4181	0.15
2069.61619	1.41774	0.14973
2068.11608	1.41738	0.14947
2066.61596	1.41702	0.1492
2065.11585	1.41665	0.14894
2063.61574	1.41627	0.14867
2062.11563	1.41585	0.14842
2060.61552	1.41543	0.14817
2059.1154	1.41499	0.14794
2057.61529	1.41454	0.14772
2056.11518	1.41407	0.14752
2054.61507	1.41361	0.14734
2053.11496	1.41315	0.14716
2051.61485	1.4127	0.14699
2050.11473	1.41226	0.14684
2048.61462	1.41182	0.1467
2047.11451	1.41138	0.14656
2045.6144	1.41095	0.14643
2044.11429	1.41053	0.1463
2042.61418	1.4101	0.14617
2041.11406	1.40966	0.14604
2039.61395	1.40921	0.14591
2038.11384	1.40876	0.14578
2036.61373	1.40829	0.14568
2035.11362	1.40782	0.14558
2033.6135	1.40734	0.14549
2032.11339	1.40685	0.14541
2030.61328	1.40637	0.14535
2029.11317	1.4059	0.14529
2027.61306	1.40545	0.14523
2026.11295	1.405	0.14519
2024.61283	1.40458	0.14513
2023.11272	1.40414	0.14507
2021.61261	1.40371	0.14502
2020.1125	1.40328	0.14496
2018.61239	1.40285	0.1449
2017.11227	1.4024	0.14482
2015.61216	1.40191	0.14474
2014.11205	1.40139	0.14468
2012.61194	1.40086	0.14463
2011.11183	1.40032	0.1446
2009.61172	1.39978	0.14459
2008.1116	1.39922	0.14459
2006.61149	1.39867	0.14462
2005.11138	1.39812	0.14468
2003.61127	1.39761	0.14474
2002.11116	1.39713	0.14481
2000.61104	1.39668	0.14488
1999.11093	1.39624	0.14494
1997.61082	1.39582	0.14498
1996.11071	1.39541	0.14502
1994.6106	1.395	0.14504
1993.11049	1.39458	0.14503
1991.61037	1.39412	0.145
1990.11026	1.3936	0.14496
1988.61015	1.39302	0.14494
1987.11004	1.39242	0.14494
1985.60993	1.39178	0.14496
1984.10981	1.39113	0.14502
1982.6097	1.39046	0.14512
1981.10959	1.38978	0.14525
1979.60948	1.38913	0.14541
1978.10937	1.38854	0.1456
1976.60926	1.38798	0.14579
1975.10914	1.38745	0.146
1973.60903	1.38694	0.14622
1972.10892	1.38645	0.14642
1970.60881	1.38595	0.14661
1969.1087	1.38547	0.1468
1967.60858	1.38497	0.14697
1966.10847	1.38444	0.14713
1964.60836	1.38386	0.14729
1963.10825	1.38326	0.14747
1961.60814	1.38265	0.14769
1960.10803	1.38203	0.14793
1958.60791	1.3814	0.14819
1957.1078	1.38076	0.1485
1955.60769	1.38016	0.14882
1954.10758	1.3796	0.14916
1952.60747	1.37909	0.14951
1951.10735	1.37864	0.14985
1949.60724	1.3782	0.15018
1948.10713	1.37776	0.15051
1946.60702	1.37736	0.15082
1945.10691	1.37694	0.1511
1943.6068	1.37651	0.15135
1942.10668	1.37603	0.15158
1940.60657	1.37546	0.15181
1939.10646	1.37483	0.15209
1937.60635	1.37418	0.15242
1936.10624	1.3735	0.15281
1934.60612	1.37286	0.15322
1933.10601	1.37224	0.15366
1931.6059	1.37165	0.15414
1930.10579	1.37112	0.15464
1928.60568	1.37069	0.15514
1927.10557	1.37034	0.15566
1925.60545	1.37004	0.15616
1924.10534	1.36976	0.15661
1922.60523	1.36947	0.15701
1921.10512	1.36915	0.15738
1919.60501	1.36881	0.15771
1918.10489	1.36844	0.158
1916.60478	1.36799	0.15829
1915.10467	1.36746	0.15858
1913.60456	1.36688	0.15892
1912.10445	1.3663	0.15928
1910.60434	1.3657	0.15967
1909.10422	1.3651	0.1601
1907.60411	1.36447	0.16055
1906.104	1.36385	0.16106
1904.60389	1.36326	0.16161
1903.10378	1.36271	0.16222
1901.60366	1.36219	0.16286
1900.10355	1.36174	0.16349
1898.60344	1.36133	0.16411
1897.10333	1.36096	0.16471
1895.60322	1.36062	0.1653
1894.10311	1.3603	0.16587
1892.60299	1.35997	0.16644
1891.10288	1.35964	0.16698
1889.60277	1.35928	0.1675
1888.10266	1.35885	0.168
1886.60255	1.35832	0.16853
1885.10243	1.35776	0.16912
1883.60232	1.35715	0.16979
1882.10221	1.35655	0.17053
1880.6021	1.35603	0.17131
1879.10199	1.35561	0.17211
1877.60188	1.35531	0.17289
1876.10176	1.3551	0.17365
1874.60165	1.35497	0.17442
1873.10154	1.35492	0.17515
1871.60143	1.35492	0.17584
1870.10132	1.35494	0.17641
1868.6012	1.35488	0.17688
1867.10109	1.35463	0.17728
1865.60098	1.35421	0.17768
1864.10087	1.35366	0.17815
1862.60076	1.35304	0.17871
1861.10065	1.35238	0.17936
1859.60053	1.35168	0.1801
1858.10042	1.35097	0.18094
1856.60031	1.35035	0.18186
1855.1002	1.34989	0.18284
1853.60009	1.34963	0.18386
1852.09997	1.34952	0.1849
1850.59986	1.34949	0.18592
1849.09975	1.34952	0.18689
1847.59964	1.34961	0.18778
1846.09953	1.3497	0.18861
1844.59942	1.34973	0.18937
1843.0993	1.34961	0.1901
1841.59919	1.34938	0.19082
1840.09908	1.34911	0.19159
1838.59897	1.34887	0.1924
1837.09886	1.34867	0.19324
1835.59875	1.34851	0.19406
1834.09863	1.34842	0.19488
1832.59852	1.34841	0.1957
1831.09841	1.3485	0.19649
1829.5983	1.34861	0.19724
1828.09819	1.34866	0.19795
1826.59807	1.3486	0.19865
1825.09796	1.34843	0.19933
1823.59785	1.34813	0.20004
1822.09774	1.34775	0.20079
1820.59763	1.34733	0.20161
1819.09752	1.34691	0.2025
1817.5974	1.34651	0.20346
1816.09729	1.34617	0.20452
1814.59718	1.34592	0.20568
1813.09707	1.34578	0.20691
1811.59696	1.34576	0.20815
1810.09684	1.34582	0.20937
1808.59673	1.34592	0.2106
1807.09662	1.34602	0.21185
1805.59651	1.34616	0.21313
1804.0964	1.34641	0.2144
1802.59629	1.3468	0.21559
1801.09617	1.34728	0.21668
1799.59606	1.34776	0.21768
1798.09595	1.34818	0.21864
1796.59584	1.34861	0.2196
1795.09573	1.34906	0.22054
1793.59561	1.3495	0.22144
1792.0955	1.34988	0.22225
1790.59539	1.35006	0.22298
1789.09528	1.35006	0.22378
1787.59517	1.34996	0.22474
1786.09506	1.34991	0.22588
1784.59494	1.34992	0.22713
1783.09483	1.35006	0.2284
1781.59472	1.35035	0.22966
1780.09461	1.35078	0.2309
1778.5945	1.35136	0.23212
1777.09438	1.3521	0.23339
1775.59427	1.35297	0.23465
1774.09416	1.3539	0.23583
1772.59405	1.35487	0.23681
1771.09394	1.3557	0.23762
1769.59383	1.3563	0.23837
1768.09371	1.35674	0.23913
1766.5936	1.35706	0.23998
1765.09349	1.35731	0.24099
1763.59338	1.35755	0.24215
1762.09327	1.35784	0.24336
1760.59315	1.35821	0.24459
1759.09304	1.35873	0.24587
1757.59293	1.35945	0.24724
1756.09282	1.36038	0.24866
1754.59271	1.36146	0.25011
1753.0926	1.36272	0.25151
1751.59248	1.36414	0.25281
1750.09237	1.36559	0.25392
1748.59226	1.36695	0.25492
1747.09215	1.36819	0.25591
1745.59204	1.36942	0.25688
1744.09192	1.37075	0.2578
1742.59181	1.37218	0.25862
1741.0917	1.37366	0.25934
1739.59159	1.37511	0.25993
1738.09148	1.37651	0.26046
1736.59137	1.37793	0.26099
1735.09125	1.37942	0.2615
1733.59114	1.3808	0.26194
1732.09103	1.38184	0.26239
1730.59092	1.38259	0.26297
1729.09081	1.38328	0.26371
1727.59069	1.38409	0.26454
1726.09058	1.38515	0.26543
1724.59047	1.38645	0.26635
1723.09036	1.38793	0.26727
1721.59025	1.38961	0.26819
1720.09014	1.39163	0.26911
1718.59002	1.39394	0.26994
1717.08991	1.3963	0.27054
1715.5898	1.39845	0.2709
1714.08969	1.40027	0.27121
1712.58958	1.40187	0.27159
1711.08946	1.40353	0.27201
1709.58935	1.40538	0.27242
1708.08924	1.40749	0.27274
1706.58913	1.40983	0.27282
1705.08902	1.41237	0.27267
1703.58891	1.41505	0.2724
1702.08879	1.41789	0.27206
1700.58868	1.42078	0.27155
1699.08857	1.42339	0.27078
1697.58846	1.42553	0.26984
1696.08835	1.42732	0.26876
1694.58823	1.42886	0.26754
1693.08812	1.43026	0.26631
1691.58801	1.43166	0.2652
1690.0879	1.43311	0.26421
1688.58779	1.43461	0.26327
1687.08768	1.4363	0.26234
1685.58756	1.4383	0.26133
1684.08745	1.44035	0.26014
1682.58734	1.44213	0.25875
1681.08723	1.44367	0.25729
1679.58712	1.44511	0.25584
1678.087	1.44646	0.25437
1676.58689	1.44773	0.25286
1675.08678	1.44888	0.25124
1673.58667	1.44984	0.24953
1672.08656	1.45068	0.24779
1670.58645	1.45154	0.24616
1669.08633	1.45228	0.24471
1667.58622	1.45274	0.24353
1666.08611	1.45306	0.24259
1664.586	1.45362	0.24167
1663.08589	1.4545	0.24069
1661.58577	1.45554	0.23966
1660.08566	1.45671	0.23866
1658.58555	1.45821	0.23761
1657.08544	1.46022	0.23638
1655.58533	1.46274	0.23485
1654.08522	1.46542	0.23288
1652.5851	1.46764	0.23036
1651.08499	1.46905	0.22756
1649.58488	1.46997	0.22478
1648.08477	1.47071	0.22195
1646.58466	1.4712	0.21894
1645.08455	1.47118	0.21578
1643.58443	1.47063	0.21271
1642.08432	1.46979	0.20989
1640.58421	1.46901	0.20734
1639.0841	1.46856	0.20508
1637.58399	1.46833	0.20296
1636.08387	1.46802	0.20073
1634.58376	1.46742	0.19835
1633.08365	1.46661	0.19608
1631.58354	1.46578	0.19411
1630.08343	1.46498	0.19231
1628.58332	1.46423	0.19047
1627.0832	1.46349	0.18852
1625.58309	1.46269	0.18648
1624.08298	1.46183	0.18443
1622.58287	1.46095	0.18242
1621.08276	1.46007	0.18055
1619.58264	1.45921	0.17879
1618.08253	1.45829	0.17696
1616.58242	1.45715	0.17503
1615.08231	1.45569	0.17306
1613.5822	1.45399	0.17121
1612.08209	1.45221	0.16956
1610.58197	1.45044	0.16807
1609.08186	1.4487	0.16672
1607.58175	1.44696	0.16548
1606.08164	1.44517	0.16433
1604.58153	1.44341	0.16326
1603.08141	1.44175	0.1623
1601.5813	1.44018	0.16145
1600.08119	1.43863	0.16067
1598.58108	1.43707	0.15992
1597.08097	1.4355	0.1592
1595.58086	1.43391	0.15852
1594.08074	1.4323	0.15791
1592.58063	1.43065	0.15739
1591.08052	1.42895	0.157
1589.58041	1.42728	0.15672
1588.0803	1.42571	0.15651
1586.58018	1.42429	0.15634
1585.08007	1.42298	0.1562
1583.57996	1.42174	0.15613
1582.07985	1.42061	0.15609
1580.57974	1.41968	0.15603
1579.07963	1.41891	0.15591
1577.57951	1.41822	0.1557
1576.0794	1.41742	0.1554
1574.57929	1.41636	0.15515
1573.07918	1.41513	0.15512
1571.57907	1.414	0.1552
1570.07895	1.41322	0.15514
1568.57884	1.41265	0.1549
1567.07873	1.41213	0.15454
1565.57862	1.41168	0.15411
1564.07851	1.41138	0.15364
1562.5784	1.4113	0.1531
1561.07828	1.41142	0.15239
1559.57817	1.41139	0.15136
1558.07806	1.41069	0.15001
1556.57795	1.4092	0.14871
1555.07784	1.40734	0.14773
1553.57772	1.40536	0.14705
1552.07761	1.40349	0.1465
1550.5775	1.40183	0.14598
1549.07739	1.40028	0.1455
1547.57728	1.39883	0.14509
1546.07717	1.39775	0.14479
1544.57705	1.3972	0.1445
1543.07694	1.39689	0.14412
1541.57683	1.39647	0.14348
1540.07672	1.3956	0.14258
1538.57661	1.3941	0.14162
1537.07649	1.39216	0.14082
1535.57638	1.39007	0.14026
1534.07627	1.38798	0.13985
1532.57616	1.38583	0.13951
1531.07605	1.38373	0.13931
1529.57594	1.38186	0.13929
1528.07582	1.38037	0.13939
1526.57571	1.37932	0.13955
1525.0756	1.3785	0.13972
1523.57549	1.37772	0.13984
1522.07538	1.37681	0.13983
1520.57526	1.37574	0.13969
1519.07515	1.37462	0.13944
1517.57504	1.37357	0.13907
1516.07493	1.37246	0.13855
1514.57482	1.37119	0.138
1513.07471	1.36983	0.13751
1511.57459	1.3685	0.1371
1510.07448	1.36724	0.13665
1508.57437	1.36606	0.13609
1507.07426	1.36474	0.13536
1505.57415	1.36291	0.13461
1504.07403	1.36065	0.13409
1502.57392	1.3583	0.13386
1501.07381	1.35608	0.13382
1499.5737	1.35399	0.13382
1498.07359	1.35198	0.13378
1496.57348	1.34992	0.13375
1495.07336	1.34786	0.13381
1493.57325	1.34602	0.13406
1492.07314	1.34446	0.13447
1490.57303	1.34299	0.13488
1489.07292	1.34134	0.13521
1487.5728	1.33944	0.13549
1486.07269	1.33739	0.13582
1484.57258	1.33541	0.13624
1483.07247	1.33363	0.13673
1481.57236	1.33202	0.13727
1480.07225	1.33048	0.1378
1478.57213	1.329	0.13835
1477.07202	1.32767	0.13885
1475.57191	1.32652	0.1393
1474.0718	1.3254	0.13968
1472.57169	1.3241	0.14001
1471.07157	1.32253	0.14034
1469.57146	1.32083	0.14071
1468.07135	1.31924	0.1411
1466.57124	1.31782	0.14144
1465.07113	1.31645	0.14169
1463.57102	1.31504	0.1419
1462.0709	1.31363	0.14212
1460.57079	1.31237	0.14235
1459.07068	1.31128	0.14252
1457.57057	1.31019	0.14251
1456.07046	1.30878	0.14233
1454.57035	1.30694	0.14211
1453.07023	1.30481	0.14199
1451.57012	1.30254	0.14206
1450.07001	1.30022	0.14227
1448.5699	1.29788	0.14257
1447.06979	1.29551	0.14292
1445.56967	1.29314	0.14336
1444.06956	1.29091	0.14395
1442.56945	1.28888	0.14471
1441.06934	1.28706	0.14556
1439.56923	1.28537	0.14639
1438.06912	1.28372	0.14714
1436.569	1.28204	0.14779
1435.06889	1.28023	0.14838
1433.56878	1.27833	0.149
1432.06867	1.27642	0.1497
1430.56856	1.27454	0.1504
1429.06844	1.27267	0.15105
1427.56833	1.27082	0.15167
1426.06822	1.26895	0.15227
1424.56811	1.26711	0.15286
1423.068	1.2653	0.15344
1421.56789	1.26352	0.15402
1420.06777	1.26171	0.15459
1418.56766	1.25976	0.15506
1417.06755	1.25761	0.15551
1415.56744	1.25529	0.156
1414.06733	1.25285	0.1566
1412.56721	1.25032	0.1573
1411.0671	1.24776	0.15812
1409.56699	1.2452	0.15902
1408.06688	1.24269	0.16001
1406.56677	1.24028	0.16105
1405.06666	1.238	0.16213
1403.56654	1.23582	0.16324
1402.06643	1.23367	0.16438
1400.56632	1.23155	0.1655
1399.06621	1.22943	0.16657
1397.5661	1.22729	0.16755
1396.06598	1.22505	0.16847
1394.56587	1.22267	0.16936
1393.06576	1.22013	0.17025
1391.56565	1.21745	0.17121
1390.06554	1.2147	0.17227
1388.56543	1.21187	0.17341
1387.06531	1.20897	0.17461
1385.5652	1.206	0.17588
1384.06509	1.20298	0.17724
1382.56498	1.19996	0.17872
1381.06487	1.19696	0.18033
1379.56475	1.19399	0.18204
1378.06464	1.19103	0.18384
1376.56453	1.18804	0.18571
1375.06442	1.18505	0.18764
1373.56431	1.18204	0.18962
1372.0642	1.17902	0.19166
1370.56408	1.17598	0.1938
1369.06397	1.17293	0.19603
1367.56386	1.16984	0.19835
1366.06375	1.16676	0.20077
1364.56364	1.16368	0.20328
1363.06352	1.1606	0.20587
1361.56341	1.15751	0.20854
1360.0633	1.15439	0.21131
1358.56319	1.15125	0.21423
1357.06308	1.14811	0.2173
1355.56297	1.14498	0.22051
1354.06285	1.14187	0.22387
1352.56274	1.13878	0.2274
1351.06263	1.13572	0.23108
1349.56252	1.13277	0.23492
1348.06241	1.12995	0.23889
1346.56229	1.12727	0.24302
1345.06218	1.12473	0.24726
1343.56207	1.12233	0.25161
1342.06196	1.12009	0.25606
1340.56185	1.11801	0.26057
1339.06174	1.11608	0.26511
1337.56162	1.11425	0.26968
1336.06151	1.11251	0.27428
1334.5614	1.11086	0.27894
1333.06129	1.10931	0.28367
1331.56118	1.10787	0.28847
1330.06106	1.10657	0.29331
1328.56095	1.1054	0.29818
1327.06084	1.10438	0.30308
1325.56073	1.10355	0.308
1324.06062	1.1029	0.31293
1322.56051	1.10247	0.31785
1321.06039	1.10224	0.32273
1319.56028	1.10219	0.32754
1318.06017	1.10231	0.33223
1316.56006	1.10256	0.3368
1315.05995	1.10293	0.34126
1313.55983	1.10339	0.34558
1312.05972	1.10394	0.34975
1310.55961	1.10454	0.3538
1309.0595	1.10517	0.35769
1307.55939	1.10584	0.36146
1306.05928	1.10653	0.36509
1304.55916	1.10722	0.36858
1303.05905	1.10792	0.37194
1301.55894	1.10861	0.37518
1300.05883	1.10929	0.37828
1298.55872	1.10992	0.38126
1297.0586	1.11053	0.3841
1295.55849	1.11106	0.38682
1294.05838	1.11151	0.38941
1292.55827	1.11186	0.39189
1291.05816	1.1121	0.39426
1289.55805	1.11221	0.39654
1288.05793	1.11216	0.39873
1286.55782	1.11195	0.40086
1285.05771	1.11155	0.40294
1283.5576	1.11096	0.405
1282.05749	1.11017	0.40706
1280.55737	1.10917	0.40916
1279.05726	1.10797	0.41128
1277.55715	1.10656	0.41349
1276.05704	1.10493	0.41579
1274.55693	1.1031	0.41823
1273.05682	1.10108	0.42081
1271.5567	1.09886	0.42358
1270.05659	1.09647	0.42655
1268.55648	1.09392	0.42975
1267.05637	1.09122	0.43319
1265.55626	1.0884	0.4369
1264.05615	1.08546	0.44092
1262.55603	1.08245	0.44524
1261.05592	1.07939	0.44989
1259.55581	1.07632	0.45488
1258.0557	1.07325	0.4602
1256.55559	1.07022	0.46589
1255.05547	1.06726	0.47192
1253.55536	1.0644	0.47832
1252.05525	1.06168	0.48507
1250.55514	1.05912	0.49216
1249.05503	1.05675	0.49959
1247.55492	1.05462	0.50735
1246.0548	1.05275	0.5154
1244.55469	1.05117	0.52375
1243.05458	1.04991	0.53236
1241.55447	1.04899	0.5412
1240.05436	1.04844	0.55025
1238.55424	1.04827	0.55947
1237.05413	1.04849	0.56884
1235.55402	1.04912	0.57833
1234.05391	1.05015	0.58789
1232.5538	1.0516	0.59748
1231.05369	1.05345	0.6071
1229.55357	1.05571	0.6167
1228.05346	1.05837	0.62625
1226.55335	1.06141	0.63574
1225.05324	1.06483	0.64511
1223.55313	1.06862	0.65435
1222.05301	1.07275	0.66346
1220.5529	1.0772	0.67239
1219.05279	1.08196	0.68115
1217.55268	1.087	0.6897
1216.05257	1.09231	0.69805
1214.55246	1.09786	0.70619
1213.05234	1.10362	0.71409
1211.55223	1.10958	0.72177
1210.05212	1.11572	0.72921
1208.55201	1.12202	0.73643
1207.0519	1.12846	0.74342
1205.55178	1.13503	0.75018
1204.05167	1.14171	0.75671
1202.55156	1.14847	0.76302
1201.05145	1.15531	0.76914
1199.55134	1.1622	0.77503
1198.05123	1.16912	0.78075
1196.55111	1.17607	0.78629
1195.051	1.18304	0.79167
1193.55089	1.19001	0.7969
1192.05078	1.19697	0.80203
1190.55067	1.20393	0.80706
1189.05055	1.21089	0.81201
1187.55044	1.21786	0.81691
1186.05033	1.22485	0.82177
1184.55022	1.23188	0.82661
1183.05011	1.23899	0.83145
1181.55	1.24617	0.83627
1180.04988	1.25348	0.84111
1178.54977	1.26093	0.84595
1177.04966	1.26855	0.85078
1175.54955	1.27636	0.85561
1174.04944	1.2844	0.86039
1172.54932	1.29268	0.86511
1171.04921	1.30123	0.86977
1169.5491	1.31006	0.87432
1168.04899	1.31917	0.87874
1166.54888	1.3286	0.883
1165.04877	1.33834	0.88706
1163.54865	1.3484	0.89088
1162.04854	1.35876	0.89443
1160.54843	1.36943	0.89768
1159.04832	1.3804	0.90058
1157.54821	1.39165	0.90309
1156.04809	1.40316	0.90518
1154.54798	1.4149	0.9068
1153.04787	1.42686	0.90793
1151.54776	1.43898	0.90855
1150.04765	1.45124	0.90859
1148.54754	1.4636	0.90805
1147.04742	1.47598	0.9069
1145.54731	1.48837	0.90512
1144.0472	1.50069	0.90271
1142.54709	1.51288	0.89965
1141.04698	1.52487	0.89596
1139.54686	1.53662	0.89162
1138.04675	1.54805	0.88667
1136.54664	1.5591	0.88113
1135.04653	1.56973	0.87502
1133.54642	1.57987	0.86839
1132.04631	1.58949	0.86128
1130.54619	1.59853	0.85372
1129.04608	1.60697	0.84577
1127.54597	1.61477	0.83749
1126.04586	1.62191	0.82892
1124.54575	1.62837	0.82014
1123.04563	1.63413	0.81117
1121.54552	1.6392	0.8021
1120.04541	1.64357	0.79298
1118.5453	1.64723	0.78386
1117.04519	1.6502	0.77478
1115.54508	1.65249	0.76582
1114.04496	1.6541	0.75702
1112.54485	1.65508	0.74843
1111.04474	1.65543	0.74011
1109.54463	1.65518	0.73208
1108.04452	1.65438	0.72438
1106.5444	1.65304	0.71707
1105.04429	1.65118	0.71017
1103.54418	1.64887	0.7037
1102.04407	1.64611	0.69771
1100.54396	1.64293	0.6922
1099.04385	1.63938	0.68722
1097.54373	1.63546	0.68279
1096.04362	1.63121	0.67895
1094.54351	1.62664	0.67573
1093.0434	1.62179	0.67315
1091.54329	1.61669	0.67129
1090.04317	1.61137	0.67016
1088.54306	1.6059	0.66983
1087.04295	1.60032	0.67035
1085.54284	1.59472	0.67175
1084.04273	1.58919	0.67409
1082.54262	1.58383	0.67739
1081.0425	1.57875	0.68165
1079.54239	1.5741	0.68691
1078.04228	1.57001	0.69311
1076.54217	1.5666	0.70025
1075.04206	1.56402	0.70825
1073.54194	1.56241	0.71702
1072.04183	1.56188	0.72646
1070.54172	1.56251	0.73644
1069.04161	1.56439	0.74681
1067.5415	1.56758	0.75741
1066.04139	1.5721	0.76809
1064.54127	1.57792	0.77871
1063.04116	1.58501	0.78911
1061.54105	1.59331	0.79917
1060.04094	1.60277	0.80876
1058.54083	1.61331	0.81777
1057.04072	1.62486	0.82607
1055.5406	1.63735	0.83358
1054.04049	1.6507	0.84022
1052.54038	1.66484	0.84593
1051.04027	1.6797	0.85063
1049.54016	1.69524	0.85426
1048.04004	1.71133	0.85672
1046.53993	1.72784	0.85796
1045.03982	1.74464	0.85793
1043.53971	1.76158	0.85662
1042.0396	1.77853	0.85404
1040.53949	1.79534	0.85019
1039.03937	1.81187	0.84511
1037.53926	1.82799	0.83881
1036.03915	1.84359	0.83137
1034.53904	1.85858	0.82285
1033.03893	1.87289	0.81334
1031.53881	1.88644	0.80293
1030.0387	1.89917	0.79169
1028.53859	1.91103	0.77972
1027.03848	1.92196	0.76711
1025.53837	1.93193	0.75394
1024.03826	1.94091	0.74031
1022.53814	1.94887	0.72633
1021.03803	1.95582	0.71208
1019.53792	1.96175	0.69764
1018.03781	1.96668	0.68311
1016.5377	1.97064	0.66857
1015.03758	1.97366	0.65412
1013.53747	1.97579	0.63981
1012.03736	1.97705	0.6257
1010.53725	1.97749	0.61186
1009.03714	1.97715	0.59835
1007.53703	1.97608	0.58522
1006.03691	1.97431	0.57251
1004.5368	1.97191	0.56028
1003.03669	1.96891	0.54856
1001.53658	1.96541	0.5374
1000.03647	1.96144	0.52681
998.53635	1.95711	0.51683
997.03624	1.95248	0.50746
995.53613	1.94766	0.4987
994.03602	1.94273	0.49052
992.53591	1.93777	0.48291
991.0358	1.93285	0.47583
989.53568	1.92803	0.46921
988.03557	1.92335	0.46299
986.53546	1.91884	0.45713
985.03535	1.91447	0.45155
983.53524	1.91026	0.44619
982.03512	1.90618	0.44102
980.53501	1.9022	0.43598
979.0349	1.89825	0.43104
977.53479	1.89432	0.42618
976.03468	1.89037	0.42138
974.53457	1.88636	0.41664
973.03445	1.88227	0.41197
971.53434	1.87806	0.40736
970.03423	1.87373	0.40283
968.53412	1.86926	0.39839
967.03401	1.86464	0.39405
965.53389	1.85985	0.38982
964.03378	1.85489	0.38573
962.53367	1.84974	0.38177
961.03356	1.84438	0.37798
959.53345	1.83882	0.37435
958.03334	1.83303	0.37093
956.53322	1.827	0.36772
955.03311	1.82071	0.36476
953.533	1.81415	0.36209
952.03289	1.80731	0.35973
950.53278	1.80019	0.35774
949.03266	1.79277	0.35616
947.53255	1.78507	0.35505
946.03244	1.77709	0.35447
944.53233	1.76887	0.35448
943.03222	1.76044	0.35515
941.53211	1.75182	0.35656
940.03199	1.74312	0.35876
938.53188	1.73439	0.36183
937.03177	1.72576	0.36582
935.53166	1.71733	0.37077
934.03155	1.70925	0.37673
932.53143	1.70166	0.38369
931.03132	1.69475	0.39164
929.53121	1.68866	0.40055
928.0311	1.68358	0.41035
926.53099	1.67966	0.42095
925.03088	1.67705	0.43221
923.53076	1.67585	0.44401
922.03065	1.67618	0.45617
920.53054	1.6781	0.46852
919.03043	1.68164	0.48085
917.53032	1.68681	0.49295
916.0302	1.69357	0.50464
914.53009	1.70187	0.51569
913.02998	1.71162	0.52591
911.52987	1.72271	0.53513
910.02976	1.73502	0.54316
908.52965	1.74836	0.54987
907.02953	1.76259	0.55511
905.52942	1.77749	0.55879
904.02931	1.79287	0.56081
902.5292	1.80851	0.56114
901.02909	1.82418	0.55973
899.52897	1.83964	0.55661
898.02886	1.85467	0.55182
896.52875	1.86903	0.54543
895.02864	1.88251	0.53755
893.52853	1.89492	0.52833
892.02842	1.90611	0.51793
890.5283	1.91591	0.50654
889.02819	1.92427	0.49436
887.52808	1.93111	0.4816
886.02797	1.93643	0.46848
884.52786	1.94025	0.45518
883.02774	1.94264	0.44195
881.52763	1.94371	0.42891
880.02752	1.94359	0.41623
878.52741	1.94239	0.40401
877.0273	1.94028	0.39236
875.52719	1.93738	0.38134
874.02707	1.93384	0.371
872.52696	1.9298	0.36135
871.02685	1.92536	0.35239
869.52674	1.92064	0.34409
868.02663	1.91571	0.33644
866.52652	1.91063	0.32938
865.0264	1.90547	0.3229
863.52629	1.90028	0.31695
862.02618	1.89509	0.31148
860.52607	1.88993	0.30646
859.02596	1.88481	0.30185
857.52584	1.87976	0.2976
856.02573	1.87481	0.29369
854.52562	1.86993	0.29007
853.02551	1.86516	0.28674
851.5254	1.86048	0.28364
850.02529	1.85591	0.28077
848.52517	1.85142	0.27809
847.02506	1.84703	0.27558
845.52495	1.84271	0.27321
844.02484	1.83845	0.27099
842.52473	1.83423	0.2689
841.02461	1.83004	0.26694
839.5245	1.82587	0.26512
838.02439	1.8217	0.26345
836.52428	1.81752	0.26193
835.02417	1.81333	0.26057
833.52406	1.80916	0.25939
832.02394	1.80502	0.25839
830.52383	1.80096	0.25756
829.02372	1.797	0.25691
827.52361	1.79316	0.25642
826.0235	1.78948	0.25606
824.52338	1.78598	0.25583
823.02327	1.78264	0.25568
821.52316	1.77949	0.25559
820.02305	1.77648	0.25553
818.52294	1.77358	0.25549
817.02283	1.77076	0.25545
815.52271	1.768	0.25541
814.0226	1.76529	0.25538
812.52249	1.7626	0.25533
811.02238	1.75991	0.25531
809.52227	1.75723	0.2553
808.02215	1.75457	0.25533
806.52204	1.75191	0.2554
805.02193	1.74929	0.2555
803.52182	1.74669	0.25567
802.02171	1.74411	0.25589
800.5216	1.74156	0.25617
799.02148	1.73905	0.2565
797.52137	1.73659	0.25689
796.02126	1.73419	0.25733
794.52115	1.73182	0.25782
793.02104	1.72952	0.25834
791.52092	1.72727	0.25892
790.02081	1.72509	0.25954
788.5207	1.72296	0.2602
787.02059	1.7209	0.26088
785.52048	1.71889	0.2616
784.02037	1.71693	0.26233
782.52025	1.71503	0.26308
781.02014	1.7132	0.26386
779.52003	1.7114	0.26466
778.01992	1.70967	0.26546
776.51981	1.70799	0.26627
775.01969	1.70636	0.26709
773.51958	1.70478	0.26791
772.01947	1.70324	0.26874
770.51936	1.70175	0.26958
769.01925	1.7003	0.27041
767.51914	1.6989	0.27125
766.01902	1.69754	0.27209
764.51891	1.69623	0.27291
763.0188	1.69495	0.27374
761.51869	1.69372	0.27455
760.01858	1.69253	0.27535
758.51846	1.69138	0.27615
757.01835	1.69025	0.27692
755.51824	1.68916	0.27769
754.01813	1.6881	0.27844
752.51802	1.68706	0.27917
751.01791	1.68605	0.27988
749.51779	1.68507	0.28057
748.01768	1.68412	0.28124
746.51757	1.68319	0.28187
745.01746	1.68229	0.28248
743.51735	1.68141	0.28307
742.01723	1.68054	0.28361
740.51712	1.67968	0.28411
739.01701	1.6788	0.28457
737.5169	1.67793	0.28501
736.01679	1.67705	0.28542
734.51668	1.67614	0.2858
733.01656	1.67521	0.28613
731.51645	1.67428	0.28644
730.01634	1.67331	0.28671
728.51623	1.67232	0.28696
727.01612	1.6713	0.28718
725.516	1.67024	0.2874
724.01589	1.66913	0.28759
722.51578	1.66798	0.28776
721.01567	1.66678	0.28792
719.51556	1.66551	0.28806
718.01545	1.66416	0.28822
716.51533	1.66273	0.28841
715.01522	1.66126	0.28862
713.51511	1.65975	0.28887
712.015	1.65818	0.28914
710.51489	1.65658	0.28945
709.01477	1.65493	0.28979
707.51466	1.65325	0.29018
706.01455	1.65157	0.29062
704.51444	1.64988	0.2911
703.01433	1.64815	0.29161
701.51422	1.64642	0.29215
700.0141	1.64466	0.29271
698.51399	1.64288	0.2933
697.01388	1.64108	0.29393
695.51377	1.63925	0.29459
694.01366	1.63738	0.29528
692.51354	1.63549	0.29601
691.01343	1.63356	0.29676
689.51332	1.63161	0.29755
688.01321	1.62963	0.29836
686.5131	1.6276	0.2992
685.01299	1.62554	0.30011
683.51287	1.62344	0.30109
682.01276	1.6213	0.30213
680.51265	1.6192	0.30317
679.01254	1.61713	0.30418
677.51243	1.61505	0.30518
676.01232	1.6129	0.30619
674.5122	1.61065	0.30723
673.01209	1.60833	0.30832
671.51198	1.60596	0.30943
670.01187	1.60351	0.31053
668.51176	1.60085	0.31161
667.01164	1.5979	0.31273
665.51153	1.59473	0.31402
664.01142	1.59145	0.3155
662.51131	1.58809	0.31717
661.0112	1.58466	0.31898
659.51109	1.58114	0.32092
658.01097	1.57752	0.32302
656.51086	1.57383	0.32528
655.01075	1.57012	0.32776
653.51064	1.56637	0.33047
652.01053	1.56254	0.33338
650.51041	1.55858	0.33646
649.0103	1.55446	0.33976
647.51019	1.55022	0.34331
646.01008	1.54586	0.34715
644.50997	1.54141	0.35132
643.00986	1.53689	0.35585
641.50974	1.53231	0.36078
640.00963	1.52771	0.36614
638.50952	1.52312	0.37196
637.00941	1.51859	0.37827
635.5093	1.51418	0.38508
634.00918	1.5099	0.39241
632.50907	1.50583	0.40028
631.00896	1.502	0.40874
629.50885	1.49855	0.41776
628.00874	1.49553	0.42733
626.50863	1.49304	0.4374
625.00851	1.49115	0.44791
623.5084	1.4899	0.45881
622.00829	1.48936	0.47006
620.50818	1.48957	0.48158
619.00807	1.49053	0.4933
617.50795	1.49224	0.50512
616.00784	1.49464	0.51698
614.50773	1.49768	0.52882
613.00762	1.5013	0.54062
611.50751	1.5055	0.55237
610.0074	1.51024	0.56404
608.50728	1.51547	0.57564
607.00717	1.52118	0.58719
605.50706	1.52736	0.59872
604.00695	1.53406	0.61023
602.50684	1.54132	0.62175
601.00672	1.5492	0.63327
599.50661	1.55774	0.6448
598.0065	1.56696	0.65632
596.50639	1.57694	0.66788
595.00628	1.58778	0.67944
593.50617	1.59959	0.69097
592.00605	1.61243	0.70238
590.50594	1.62641	0.7136
589.00583	1.64163	0.72456
587.50572	1.65829	0.73511
586.00561	1.67657	0.74502
584.50549	1.69661	0.75407
583.00538	1.71851	0.76189
581.50527	1.74233	0.7681
580.00516	1.76804	0.77224
578.50505	1.7955	0.77385
577.00494	1.82439	0.77252
575.50482	1.85415	0.7679
574.00471	1.88411	0.75972
572.5046	1.91344	0.74791
571.00449	1.94136	0.73253
569.50438	1.967	0.71378
568.00426	1.98955	0.69203
566.50415	2.00836	0.66789
565.00404	2.02299	0.64205
563.50393	2.03331	0.61526
562.00382	2.03946	0.58831
560.50371	2.04174	0.56182
559.00359	2.04063	0.5364
557.50348	2.03668	0.51246
556.00337	2.03052	0.49035
554.50326	2.02276	0.4703
553.00315	2.01395	0.45238
551.50303	2.00452	0.43655
550.00292	1.99482	0.42264
548.50281	1.98508	0.41046
547.0027	1.97543	0.39985
545.50259	1.96599	0.39059
544.00248	1.95681	0.38254
542.50236	1.94795	0.37556
541.00225	1.93945	0.3695
539.50214	1.9313	0.36423
538.00203	1.92356	0.35963
536.50192	1.91623	0.35556
535.0018	1.90927	0.35199
533.50169	1.90262	0.34886
532.00158	1.89629	0.34615
530.50147	1.8903	0.34375
529.00136	1.88466	0.34158
527.50125	1.87935	0.33956
526.00113	1.87424	0.33764
524.50102	1.86922	0.33583
523.00091	1.86427	0.33419
521.5008	1.85948	0.33274
520.00069	1.85482	0.33141
518.50057	1.85022	0.33014
517.00046	1.84557	0.32896
515.50035	1.84083	0.3279
514.00024	1.83609	0.32702
512.50013	1.83149	0.32632
511.00002	1.82701	0.32578
509.4999	1.82262	0.32537
507.99979	1.81823	0.32507
506.49968	1.81382	0.32487
504.99957	1.80945	0.32482
503.49946	1.80512	0.32493
501.99934	1.80079	0.32517
500.49923	1.79632	0.32556
498.99912	1.79174	0.32616
497.49901	1.78713	0.32701
495.9989	1.78256	0.32807
494.49879	1.77808	0.32933
492.99867	1.77367	0.3308
491.49856	1.7693	0.33249
489.99845	1.76494	0.33444
488.49834	1.76065	0.33667
486.99823	1.75645	0.33925
485.49812	1.75234	0.34209
483.998	1.74833	0.34516
482.49789	1.7444	0.34844
480.99778	1.74061	0.352
479.49767	1.73699	0.35589
477.99756	1.73365	0.36009
476.49744	1.73059	0.36459
474.99733	1.72782	0.36939
473.49722	1.72532	0.37446
471.99711	1.72304	0.3798
470.497	1.72101	0.38542
468.99689	1.7194	0.39136
467.49677	1.71833	0.39751
465.99666	1.71781	0.40387
464.49655	1.71788	0.41037
462.99644	1.71863	0.41695
461.49633	1.72009	0.42353
459.99621	1.7223	0.43002
458.4961	1.72526	0.43632
456.99599	1.7288	0.44232
455.49588	1.73275	0.44798
453.99577	1.73719	0.45327
452.49566	1.74216	0.45814
450.99554	1.74754	0.46249
449.49543	1.75328	0.46628
447.99532	1.75933	0.46945
446.49521	1.76563	0.47197
444.9951	1.77212	0.47381
443.49498	1.77871	0.47498
441.99487	1.78521	0.47551
440.49476	1.79144	0.47539
438.99465	1.79732	0.47467
437.49454	1.80286	0.47345
435.99443	1.80795	0.47174
434.49431	1.81254	0.46963
432.9942	1.81669	0.46721
431.49409	1.82036	0.46458
429.99398	1.82358	0.46185
428.49387	1.8264	0.4591
426.99375	1.82885	0.45634
425.49364	1.83098	0.45361
423.99353	1.83285	0.45092
422.49342	1.8345	0.44827
420.99331	1.83599	0.44569
419.4932	1.83736	0.4432
417.99308	1.83874	0.44077
416.49297	1.84018	0.43832
414.99286	1.84164	0.43574
413.49275	1.84302	0.43301
411.99264	1.84427	0.43014
410.49252	1.8453	0.42713
408.99241	1.84607	0.42402
407.4923	1.84649	0.42084
405.99219	1.84652	0.41762
404.49208	1.84611	0.41436
402.99197	1.84527	0.41113
401.49185	1.84404	0.40803
399.99174	1.84248	0.4051
