#DISTRIBUTEDBY=Aerosol Refractive Index Archive (www.atm.ox.ac.uk/project/RI/)
#DESCRIPTION=Ash from Mayon Vocano, a typical andesitic ash.
#SUBSTANCE=Mayon Ash
#SAMPLEFORM=Solid
#TEMPERATURE=
#CONCENTRATION=
#REFERENCE=Edward M. Patterson, Optical absorption coefficients of soil aerosol 
##particles and volcanic ash between 1 and 16 &mu;m, in the 2nd Conference on 
##Atmospheric Radiation, American Meteorological Society, 177-180, 1975.
#CONTACT= 
#COMMENT=Digitized from publication graph, absolute accuracy is unknown. 
## The imaginary refractive index was reported, and is presented in this file.
#FORMAT=WAVL K
       1.0123881    0.0063315998
       1.0769999    0.0065881200
       1.1093644    0.0069013699
       1.1739721    0.0071809799
       1.2546763    0.0073728999
       1.3031575    0.0076719401
       1.3032282    0.0078787096
       1.3678056    0.0080896299
       1.4323932    0.0083616003
       1.4647476    0.0087011298
       1.4809551    0.0089948401
       1.5615987    0.0089928797
       1.6261458    0.0091116596
       1.6746067    0.0094184102
       1.7230474    0.0096068904
       1.7714174    0.0095419800
       1.8037313    0.0097982800
       1.8199591     0.010196600
       1.8522933     0.010540300
       1.9006936     0.010609200
       1.9329268     0.010468200
       1.9812664     0.010260100
       1.9973325    0.0099904304
       2.0624325     0.010326300
       2.1599879     0.010323600
       2.2088417     0.010671200
       2.2577060     0.011030400
       2.3390141     0.011101600
       2.4366100     0.011247200
       2.4854335     0.011472300
       2.4855454     0.012018800
       2.5830906     0.011936000
       2.6969542     0.012172800
       2.7295508     0.012583100
       2.7622492     0.013536700
       2.8111948     0.014561800
       2.8438526     0.015458400
       2.8764591     0.015979500
       2.9576958     0.015556700
       2.9901192     0.014947100
       3.0062343     0.014361900
       3.0383966     0.013799100
       3.0867260     0.013435200
       3.1673487     0.013343300
       3.2963817     0.013338600
       3.3448522     0.013787700
       3.3933736     0.014635900
       3.4257985     0.015745001
       3.4420766     0.016715201
       3.4741481     0.015432100
       3.4901836     0.014827900
       3.4903857     0.016166501
       3.5223560     0.014341900
       3.5545687     0.014057400
       3.6190752     0.013961800
       3.6836219     0.014146300
       3.7804521     0.014523700
       3.8611659     0.014911900
       3.9579961     0.015309700
       4.0386992     0.015718900
       4.1032956     0.016247399
       4.1517552     0.016794300
       4.1841090     0.017476300
       4.2003667     0.018430199
       4.2166951     0.020093100
       4.2491197     0.021615701
       4.2492816     0.023101600
       4.2817058     0.024852300
       4.3136554     0.021756100
       4.3137869     0.023097601
       4.3457967     0.020764999
       4.3779183     0.019557200
       4.4263476     0.019948600
       4.4909237     0.020482600
       4.5232775     0.021314301
       4.5878739     0.022030899
       4.6686373     0.023229299
       4.7655060     0.024168400
       4.8462390     0.025146401
       4.9108455     0.026165200
       4.9915881     0.027224099
       5.0729317     0.028514801
       5.1380449     0.029473500
       5.2031984     0.030872200
       5.2683525     0.032337300
       5.3823111     0.034320701
       5.4963202     0.037159700
       5.6428349     0.039963402
       5.8056588     0.043842599
       6.0010025     0.048414901
       6.1772247     0.053466398
       6.3694446     0.058651101
       6.5456568     0.064341404
       6.6898245     0.069196001
       6.8499893     0.074413598
       7.0099942     0.080024600
       7.1834211     0.087206900
       7.3095822     0.094416402
       7.4672145      0.10086300
       7.5933653      0.10847800
       7.7352918      0.11822400
       7.8457073      0.12800300
       7.9561228      0.13859200
       8.0359258      0.15207800
       8.1490543      0.16797400
       8.2137115      0.17830101
       8.2784497      0.19565900
       8.3431483      0.21187200
       8.3917198      0.22943801
       8.4725235      0.24515700
       8.5372318      0.26724100
       8.6180364      0.28555000
       8.6988507      0.30714899
       8.7473316      0.31960699
       8.8118578      0.32168299
       8.8764447      0.33029401
       8.9249352      0.34598401
       8.9733948      0.35763201
       9.0056033      0.36968699
       9.0686356      0.37706900
       9.1159516      0.38976300
       9.1632273      0.39492899
       9.2734664      0.39480799
       9.3521848      0.39210600
       9.4624729      0.39988300
       9.6200084      0.41048101
       9.7302871      0.41862199
       9.8405752      0.42692500
       9.9350785      0.42965999
       10.062541      0.42951000
       10.191537      0.42651400
       10.288236      0.41246101
       10.368770      0.39624500
       10.465470      0.38318899
       10.530038      0.37806100
       10.594505      0.37053099
       10.691206      0.35832199
       10.771738      0.34884200
       10.852372      0.33961299
       10.916840      0.33284900
       10.997373      0.32620400
       11.029605      0.31551099
       11.094069      0.31128901
       11.126199      0.30108500
       11.174598      0.29314500
       11.238962      0.28351101
       11.319592      0.27236500
       11.383954      0.25993401
       11.464484      0.24806000
       11.528847      0.23517001
       11.609477      0.22743100
       11.690007      0.21849000
       11.786602      0.20850000
       11.851066      0.19898400
       11.931595      0.18863600
       11.995959      0.18002699
       12.074099      0.17066400
       12.120889      0.16506299
       12.199002      0.16069600
       12.261453      0.15749501
       12.370791      0.15640400
       12.495791      0.15844201
       12.589663      0.16375400
       12.699100      0.17036600
       12.792972      0.17607901
       12.917972      0.18196701
       13.011753      0.18682200
       13.182216      0.18673199
       13.414842      0.18661000
       13.647370      0.18648700
       13.755962      0.18767400
       13.864456      0.18886800
       14.004160      0.18754300
       14.132061      0.18255700
       14.227986      0.17890500
       14.372025      0.17765000
       14.500025      0.17758800
       14.611988      0.17753300
       14.708014      0.18106200
       14.836115      0.18464600
       14.932141      0.18831600
       14.996191      0.19335701
       15.041861      0.19333200
       15.072140      0.19076200
       15.132700      0.18820900
       15.223635      0.18941499
       15.269103      0.19320500
       15.314665      0.19838600
       15.360228      0.20781000
       15.420882      0.21767201
       15.466445      0.22801100
       15.512007      0.24043600
       15.557570      0.25353700
       15.588039      0.26559201
       15.633602      0.27820799
       15.709349      0.28375000
       15.800284      0.27807400
       15.845562      0.26539400
       15.890934      0.25668299
       15.936307      0.24661300
       15.951304      0.22468500
       15.951399      0.23695900
       15.981490      0.21588001
