#FORMAT = WAVN N dn K dK
#DESCRIPTION = Refractive indices of water ice at 190 K from 800 to 4004 cm<SUP>-1</SUP>
#SUBSTANCE= Water Ice
#SAMPLEFORM= Aerosol
#TEMPERATURE= 190 K
#CONCENTRATION= 100 %
#DOI=10.1021/j100017a010
#REFERENCE= Clapp, M. L., R. E. Miller, and D. R. Worsnop, Frequency-
## Dependent Optical Constants of Water Ice Obtained Directly from Aerosol
## Extinction Spectra, J. Phys. Chem., volume 99, pgs. 6317-6326, 1995.
#CONTACT= R. E. Miller (remiller@unc.edu)
#COMMENT= downloaded from ftp://frenchie.chem.unc.edu/ri/Water/
4003.73901 1.23200 0.01232 0.00178 0.00002
4002.53491 1.23200 0.01232 0.00179 0.00002
4001.57007 1.23200 0.01232 0.00179 0.00002
4000.60498 1.23200 0.01232 0.00178 0.00002
3999.63989 1.23190 0.01232 0.00176 0.00002
3998.67505 1.23190 0.01232 0.00173 0.00002
3997.70996 1.23190 0.01232 0.00169 0.00002
3996.74512 1.23180 0.01232 0.00165 0.00002
3995.78003 1.23170 0.01232 0.00162 0.00002
3994.81396 1.23170 0.01232 0.00160 0.00002
3993.84912 1.23160 0.01232 0.00158 0.00002
3992.88403 1.23160 0.01232 0.00154 0.00002
3991.91895 1.23150 0.01232 0.00143 0.00001
3990.95410 1.23140 0.01231 0.00126 0.00001
3989.98901 1.23130 0.01231 0.00109 0.00001
3989.02393 1.23100 0.01231 0.00101 0.00001
3988.05908 1.23080 0.01231 0.00104 0.00001
3987.09399 1.23070 0.01231 0.00115 0.00001
3986.12891 1.23060 0.01231 0.00124 0.00001
3985.16406 1.23050 0.01230 0.00124 0.00001
3984.19800 1.23050 0.01230 0.00115 0.00001
3983.23291 1.23040 0.01230 0.00103 0.00001
3982.26807 1.23030 0.01230 0.00092 0.00001
3981.30298 1.23020 0.01230 0.00084 0.00001
3980.33789 1.23000 0.01230 0.00077 0.00001
3979.37305 1.22980 0.01230 0.00066 0.00001
3978.40796 1.22960 0.01230 0.00057 0.00001
3977.44312 1.22930 0.01229 0.00053 0.00001
3976.47803 1.22900 0.01229 0.00055 0.00001
3975.51294 1.22870 0.01229 0.00062 0.00001
3974.54810 1.22850 0.01228 0.00075 0.00001
3973.58301 1.22830 0.01228 0.00095 0.00001
3972.61694 1.22820 0.01228 0.00114 0.00001
3971.65210 1.22820 0.01228 0.00127 0.00001
3970.68701 1.22820 0.01228 0.00136 0.00001
3969.72192 1.22830 0.01228 0.00137 0.00001
3968.75708 1.22830 0.01228 0.00128 0.00001
3967.79199 1.22830 0.01228 0.00109 0.00001
3966.82690 1.22820 0.01228 0.00089 0.00001
3965.86206 1.22800 0.01228 0.00075 0.00001
3964.89697 1.22770 0.01228 0.00065 0.00001
3963.93188 1.22740 0.01227 0.00060 0.00001
3962.96704 1.22710 0.01227 0.00065 0.00001
3962.00098 1.22690 0.01227 0.00080 0.00001
3961.03589 1.22670 0.01227 0.00092 0.00001
3960.07104 1.22650 0.01227 0.00097 0.00001
3959.10596 1.22640 0.01226 0.00106 0.00001
3958.14111 1.22630 0.01226 0.00124 0.00001
3957.17603 1.22620 0.01226 0.00141 0.00001
3956.21094 1.22630 0.01226 0.00149 0.00001
3955.24609 1.22630 0.01226 0.00146 0.00001
3954.28101 1.22630 0.01226 0.00133 0.00001
3953.31592 1.22630 0.01226 0.00114 0.00001
3952.35107 1.22610 0.01226 0.00093 0.00001
3951.38501 1.22580 0.01226 0.00075 0.00001
3950.41992 1.22540 0.01225 0.00067 0.00001
3949.45508 1.22500 0.01225 0.00076 0.00001
3948.48999 1.22470 0.01225 0.00104 0.00001
3947.52490 1.22450 0.01224 0.00139 0.00001
3946.56006 1.22450 0.01224 0.00170 0.00002
3945.59497 1.22450 0.01224 0.00187 0.00002
3944.62988 1.22460 0.01225 0.00191 0.00002
3943.66504 1.22470 0.01225 0.00193 0.00002
3942.69995 1.22480 0.01225 0.00197 0.00002
3941.73511 1.22490 0.01225 0.00195 0.00002
3940.77002 1.22490 0.01225 0.00181 0.00002
3939.80396 1.22490 0.01225 0.00158 0.00002
3938.83911 1.22490 0.01225 0.00132 0.00001
3937.87402 1.22470 0.01225 0.00110 0.00001
3936.90894 1.22450 0.01224 0.00095 0.00001
3935.94409 1.22420 0.01224 0.00083 0.00001
3934.97900 1.22400 0.01224 0.00070 0.00001
3934.01392 1.22370 0.01224 0.00064 0.00001
3933.04907 1.22340 0.01223 0.00068 0.00001
3932.08398 1.22320 0.01223 0.00075 0.00001
3931.11890 1.22310 0.01223 0.00081 0.00001
3930.15405 1.22290 0.01223 0.00078 0.00001
3929.18799 1.22270 0.01223 0.00068 0.00001
3928.22290 1.22250 0.01222 0.00064 0.00001
3927.25806 1.22230 0.01222 0.00070 0.00001
3926.29297 1.22210 0.01222 0.00078 0.00001
3925.32788 1.22190 0.01222 0.00083 0.00001
3924.36304 1.22170 0.01222 0.00087 0.00001
3923.39795 1.22160 0.01222 0.00090 0.00001
3922.43311 1.22140 0.01221 0.00093 0.00001
3921.46802 1.22120 0.01221 0.00095 0.00001
3920.50293 1.22100 0.01221 0.00098 0.00001
3919.53809 1.22080 0.01221 0.00104 0.00001
3918.57300 1.22070 0.01221 0.00114 0.00001
3917.60693 1.22050 0.01221 0.00126 0.00001
3916.64209 1.22050 0.01221 0.00139 0.00001
3915.67700 1.22040 0.01220 0.00147 0.00001
3914.71191 1.22040 0.01220 0.00147 0.00001
3913.74707 1.22030 0.01220 0.00140 0.00001
3912.78198 1.22020 0.01220 0.00139 0.00001
3911.81689 1.22010 0.01220 0.00148 0.00001
3910.85205 1.22000 0.01220 0.00157 0.00002
3909.88696 1.22000 0.01220 0.00156 0.00002
3908.92212 1.22010 0.01220 0.00147 0.00001
3907.95703 1.22000 0.01220 0.00129 0.00001
3906.99097 1.21990 0.01220 0.00104 0.00001
3906.02588 1.21970 0.01220 0.00079 0.00001
3905.06104 1.21940 0.01219 0.00062 0.00001
3904.09595 1.21910 0.01219 0.00056 0.00001
3903.13110 1.21880 0.01219 0.00055 0.00001
3902.16602 1.21850 0.01218 0.00056 0.00001
3901.20093 1.21830 0.01218 0.00061 0.00001
3900.23608 1.21800 0.01218 0.00068 0.00001
3899.27100 1.21780 0.01218 0.00075 0.00001
3898.30591 1.21760 0.01218 0.00079 0.00001
3897.34106 1.21740 0.01217 0.00087 0.00001
3896.37500 1.21730 0.01217 0.00099 0.00001
3895.40991 1.21710 0.01217 0.00110 0.00001
3894.44507 1.21710 0.01217 0.00118 0.00001
3893.47998 1.21700 0.01217 0.00122 0.00001
3892.51489 1.21700 0.01217 0.00123 0.00001
3891.55005 1.21690 0.01217 0.00117 0.00001
3890.58496 1.21690 0.01217 0.00106 0.00001
3889.62012 1.21670 0.01217 0.00089 0.00001
3888.65503 1.21650 0.01216 0.00072 0.00001
3887.68994 1.21630 0.01216 0.00062 0.00001
3886.72510 1.21600 0.01216 0.00062 0.00001
3885.76001 1.21570 0.01216 0.00067 0.00001
3884.79395 1.21550 0.01216 0.00071 0.00001
3883.82910 1.21540 0.01215 0.00073 0.00001
3882.86401 1.21520 0.01215 0.00073 0.00001
3881.89893 1.21510 0.01215 0.00072 0.00001
3880.93408 1.21490 0.01215 0.00072 0.00001
3879.96899 1.21480 0.01215 0.00070 0.00001
3879.00391 1.21460 0.01215 0.00065 0.00001
3878.03906 1.21440 0.01214 0.00058 0.00001
3877.07397 1.21420 0.01214 0.00051 0.00001
3876.10889 1.21400 0.01214 0.00044 0.00000
3875.14404 1.21380 0.01214 0.00038 0.00000
3874.17798 1.21350 0.01213 0.00030 0.00000
3873.21289 1.21320 0.01213 0.00021 0.00000
3872.24805 1.21280 0.01213 0.00024 0.00000
3871.28296 1.21260 0.01213 0.00037 0.00000
3870.31812 1.21230 0.01212 0.00046 0.00000
3869.35303 1.21200 0.01212 0.00046 0.00000
3868.38794 1.21170 0.01212 0.00048 0.00000
3867.42310 1.21140 0.01211 0.00060 0.00001
3866.45801 1.21120 0.01211 0.00084 0.00001
3865.49292 1.21100 0.01211 0.00113 0.00001
3864.52808 1.21090 0.01211 0.00135 0.00001
3863.56201 1.21090 0.01211 0.00145 0.00001
3862.59692 1.21090 0.01211 0.00149 0.00001
3861.63208 1.21080 0.01211 0.00152 0.00002
3860.66699 1.21080 0.01211 0.00155 0.00002
3859.70190 1.21070 0.01211 0.00154 0.00002
3858.73706 1.21070 0.01211 0.00146 0.00001
3857.77197 1.21060 0.01211 0.00132 0.00001
3856.80688 1.21050 0.01211 0.00117 0.00001
3855.84204 1.21030 0.01210 0.00105 0.00001
3854.87695 1.21000 0.01210 0.00094 0.00001
3853.91211 1.20970 0.01210 0.00085 0.00001
3852.94702 1.20940 0.01209 0.00083 0.00001
3851.98096 1.20910 0.01209 0.00090 0.00001
3851.01611 1.20890 0.01209 0.00102 0.00001
3850.05103 1.20870 0.01209 0.00115 0.00001
3849.08594 1.20860 0.01209 0.00121 0.00001
3848.12109 1.20850 0.01209 0.00117 0.00001
3847.15601 1.20840 0.01208 0.00111 0.00001
3846.19092 1.20830 0.01208 0.00106 0.00001
3845.22607 1.20810 0.01208 0.00099 0.00001
3844.26099 1.20790 0.01208 0.00088 0.00001
3843.29590 1.20770 0.01208 0.00071 0.00001
3842.33105 1.20740 0.01207 0.00051 0.00001
3841.36499 1.20700 0.01207 0.00037 0.00000
3840.39990 1.20660 0.01207 0.00034 0.00000
3839.43506 1.20620 0.01206 0.00045 0.00000
3838.46997 1.20580 0.01206 0.00064 0.00001
3837.50488 1.20550 0.01205 0.00080 0.00001
3836.54004 1.20520 0.01205 0.00093 0.00001
3835.57495 1.20490 0.01205 0.00113 0.00001
3834.61011 1.20470 0.01205 0.00142 0.00001
3833.64502 1.20460 0.01205 0.00168 0.00002
3832.67993 1.20460 0.01205 0.00184 0.00002
3831.71509 1.20460 0.01205 0.00187 0.00002
3830.75000 1.20450 0.01204 0.00182 0.00002
3829.78394 1.20450 0.01204 0.00182 0.00002
3828.81909 1.20440 0.01204 0.00187 0.00002
3827.85400 1.20430 0.01204 0.00186 0.00002
3826.88892 1.20420 0.01204 0.00174 0.00002
3825.92407 1.20400 0.01204 0.00159 0.00002
3824.95898 1.20380 0.01204 0.00146 0.00001
3823.99390 1.20350 0.01204 0.00144 0.00001
3823.02905 1.20330 0.01203 0.00151 0.00002
3822.06396 1.20310 0.01203 0.00155 0.00002
3821.09912 1.20290 0.01203 0.00154 0.00002
3820.13403 1.20270 0.01203 0.00156 0.00002
3819.16797 1.20260 0.01203 0.00162 0.00002
3818.20288 1.20250 0.01202 0.00161 0.00002
3817.23804 1.20240 0.01202 0.00151 0.00002
3816.27295 1.20220 0.01202 0.00132 0.00001
3815.30811 1.20190 0.01202 0.00112 0.00001
3814.34302 1.20160 0.01202 0.00102 0.00001
3813.37793 1.20130 0.01201 0.00105 0.00001
3812.41309 1.20100 0.01201 0.00112 0.00001
3811.44800 1.20070 0.01201 0.00118 0.00001
3810.48291 1.20050 0.01200 0.00116 0.00001
3809.51807 1.20020 0.01200 0.00112 0.00001
3808.55200 1.20000 0.01200 0.00117 0.00001
3807.58691 1.19980 0.01200 0.00129 0.00001
3806.62207 1.19960 0.01200 0.00136 0.00001
3805.65698 1.19950 0.01199 0.00133 0.00001
3804.69189 1.19940 0.01199 0.00124 0.00001
3803.72705 1.19920 0.01199 0.00111 0.00001
3802.76196 1.19900 0.01199 0.00092 0.00001
3801.79712 1.19870 0.01199 0.00068 0.00001
3800.83203 1.19830 0.01198 0.00048 0.00000
3799.86694 1.19780 0.01198 0.00039 0.00000
3798.90210 1.19730 0.01197 0.00043 0.00000
3797.93701 1.19680 0.01197 0.00059 0.00001
3796.97095 1.19640 0.01196 0.00082 0.00001
3796.00610 1.19610 0.01196 0.00107 0.00001
3795.04102 1.19580 0.01196 0.00128 0.00001
3794.07593 1.19560 0.01196 0.00142 0.00001
3793.11108 1.19550 0.01195 0.00156 0.00002
3792.14600 1.19530 0.01195 0.00170 0.00002
3791.18091 1.19520 0.01195 0.00177 0.00002
3790.21606 1.19510 0.01195 0.00177 0.00002
3789.25098 1.19490 0.01195 0.00176 0.00002
3788.28589 1.19480 0.01195 0.00173 0.00002
3787.32104 1.19450 0.01194 0.00166 0.00002
3786.35498 1.19420 0.01194 0.00156 0.00002
3785.38989 1.19390 0.01194 0.00152 0.00002
3784.42505 1.19350 0.01194 0.00159 0.00002
3783.45996 1.19320 0.01193 0.00177 0.00002
3782.49512 1.19290 0.01193 0.00198 0.00002
3781.53003 1.19270 0.01193 0.00211 0.00002
3780.56494 1.19250 0.01192 0.00220 0.00002
3779.60010 1.19240 0.01192 0.00238 0.00002
3778.63501 1.19230 0.01192 0.00261 0.00003
3777.66992 1.19230 0.01192 0.00271 0.00003
3776.70508 1.19230 0.01192 0.00262 0.00003
3775.73901 1.19230 0.01192 0.00251 0.00003
3774.77393 1.19230 0.01192 0.00238 0.00002
3773.80908 1.19210 0.01192 0.00216 0.00002
3772.84399 1.19190 0.01192 0.00185 0.00002
3771.87891 1.19170 0.01192 0.00160 0.00002
3770.91406 1.19130 0.01191 0.00143 0.00001
3769.94897 1.19090 0.01191 0.00127 0.00001
3768.98389 1.19050 0.01190 0.00110 0.00001
3768.01904 1.19000 0.01190 0.00098 0.00001
3767.05396 1.18950 0.01189 0.00096 0.00001
3766.08911 1.18900 0.01189 0.00099 0.00001
3765.12402 1.18850 0.01189 0.00108 0.00001
3764.15796 1.18810 0.01188 0.00131 0.00001
3763.19312 1.18780 0.01188 0.00162 0.00002
3762.22803 1.18760 0.01188 0.00181 0.00002
3761.26294 1.18740 0.01187 0.00187 0.00002
3760.29810 1.18720 0.01187 0.00195 0.00002
3759.33301 1.18690 0.01187 0.00207 0.00002
3758.36792 1.18670 0.01187 0.00213 0.00002
3757.40308 1.18650 0.01186 0.00213 0.00002
3756.43799 1.18620 0.01186 0.00217 0.00002
3755.47290 1.18600 0.01186 0.00228 0.00002
3754.50806 1.18580 0.01186 0.00236 0.00002
3753.54199 1.18560 0.01186 0.00239 0.00002
3752.57690 1.18540 0.01185 0.00244 0.00002
3751.61206 1.18530 0.01185 0.00248 0.00002
3750.64697 1.18520 0.01185 0.00245 0.00002
3749.68188 1.18500 0.01185 0.00235 0.00002
3748.71704 1.18480 0.01185 0.00223 0.00002
3747.75195 1.18460 0.01185 0.00211 0.00002
3746.78711 1.18430 0.01184 0.00198 0.00002
3745.82202 1.18400 0.01184 0.00184 0.00002
3744.85693 1.18360 0.01184 0.00173 0.00002
3743.89209 1.18320 0.01183 0.00166 0.00002
3742.92700 1.18280 0.01183 0.00161 0.00002
3741.96094 1.18240 0.01182 0.00158 0.00002
3740.99609 1.18200 0.01182 0.00158 0.00002
3740.03101 1.18150 0.01181 0.00162 0.00002
3739.06592 1.18110 0.01181 0.00174 0.00002
3738.10107 1.18070 0.01181 0.00192 0.00002
3737.13599 1.18040 0.01180 0.00212 0.00002
3736.17090 1.18020 0.01180 0.00228 0.00002
3735.20605 1.18000 0.01180 0.00235 0.00002
3734.24097 1.17980 0.01180 0.00236 0.00002
3733.27588 1.17960 0.01180 0.00237 0.00002
3732.31104 1.17930 0.01179 0.00240 0.00002
3731.34497 1.17910 0.01179 0.00244 0.00002
3730.37988 1.17880 0.01179 0.00247 0.00002
3729.41504 1.17860 0.01179 0.00247 0.00002
3728.44995 1.17830 0.01178 0.00243 0.00002
3727.48511 1.17810 0.01178 0.00238 0.00002
3726.52002 1.17780 0.01178 0.00232 0.00002
3725.55493 1.17750 0.01178 0.00226 0.00002
3724.59009 1.17710 0.01177 0.00222 0.00002
3723.62500 1.17680 0.01177 0.00223 0.00002
3722.65991 1.17640 0.01176 0.00227 0.00002
3721.69507 1.17610 0.01176 0.00231 0.00002
3720.72900 1.17580 0.01176 0.00234 0.00002
3719.76392 1.17550 0.01175 0.00240 0.00002
3718.79907 1.17520 0.01175 0.00248 0.00002
3717.83398 1.17500 0.01175 0.00255 0.00003
3716.86890 1.17490 0.01175 0.00259 0.00003
3715.90405 1.17470 0.01175 0.00255 0.00003
3714.93896 1.17450 0.01174 0.00241 0.00002
3713.97412 1.17430 0.01174 0.00219 0.00002
3713.00903 1.17400 0.01174 0.00193 0.00002
3712.04395 1.17360 0.01174 0.00174 0.00002
3711.07910 1.17310 0.01173 0.00163 0.00002
3710.11401 1.17270 0.01173 0.00153 0.00002
3709.14795 1.17220 0.01172 0.00146 0.00001
3708.18311 1.17170 0.01172 0.00144 0.00001
3707.21802 1.17130 0.01171 0.00148 0.00001
3706.25293 1.17080 0.01171 0.00153 0.00002
3705.28809 1.17040 0.01170 0.00157 0.00002
3704.32300 1.17000 0.01170 0.00162 0.00002
3703.35791 1.16960 0.01170 0.00170 0.00002
3702.39307 1.16920 0.01169 0.00181 0.00002
3701.42798 1.16890 0.01169 0.00195 0.00002
3700.46289 1.16860 0.01169 0.00208 0.00002
3699.49805 1.16840 0.01168 0.00215 0.00002
3698.53198 1.16820 0.01168 0.00212 0.00002
3697.56689 1.16800 0.01168 0.00201 0.00002
3696.60205 1.16770 0.01168 0.00189 0.00002
3695.63696 1.16740 0.01167 0.00178 0.00002
3694.67212 1.16710 0.01167 0.00169 0.00002
3693.70703 1.16680 0.01167 0.00158 0.00002
3692.74194 1.16640 0.01166 0.00141 0.00001
3691.77710 1.16600 0.01166 0.00119 0.00001
3690.81201 1.16560 0.01166 0.00097 0.00001
3689.84692 1.16510 0.01165 0.00078 0.00001
3688.88208 1.16450 0.01164 0.00062 0.00001
3687.91602 1.16390 0.01164 0.00052 0.00001
3686.95093 1.16330 0.01163 0.00050 0.00001
3685.98608 1.16270 0.01163 0.00057 0.00001
3685.02100 1.16220 0.01162 0.00073 0.00001
3684.05591 1.16180 0.01162 0.00091 0.00001
3683.09106 1.16140 0.01161 0.00097 0.00001
3682.12598 1.16110 0.01161 0.00093 0.00001
3681.16089 1.16070 0.01161 0.00085 0.00001
3680.19604 1.16030 0.01160 0.00077 0.00001
3679.23096 1.15980 0.01160 0.00071 0.00001
3678.26611 1.15930 0.01159 0.00065 0.00001
3677.30103 1.15880 0.01159 0.00058 0.00001
3676.33496 1.15830 0.01158 0.00050 0.00001
3675.37012 1.15770 0.01158 0.00048 0.00000
3674.40503 1.15710 0.01157 0.00051 0.00001
3673.43994 1.15660 0.01157 0.00059 0.00001
3672.47510 1.15600 0.01156 0.00070 0.00001
3671.51001 1.15550 0.01156 0.00084 0.00001
3670.54492 1.15510 0.01155 0.00097 0.00001
3669.58008 1.15470 0.01155 0.00108 0.00001
3668.61499 1.15430 0.01154 0.00113 0.00001
3667.64990 1.15400 0.01154 0.00112 0.00001
3666.68506 1.15360 0.01154 0.00108 0.00001
3665.71899 1.15320 0.01153 0.00105 0.00001
3664.75391 1.15270 0.01153 0.00101 0.00001
3663.78906 1.15230 0.01152 0.00092 0.00001
3662.82397 1.15180 0.01152 0.00078 0.00001
3661.85889 1.15130 0.01151 0.00069 0.00001
3660.89404 1.15080 0.01151 0.00065 0.00001
3659.92896 1.15020 0.01150 0.00060 0.00001
3658.96411 1.14960 0.01150 0.00054 0.00001
3657.99902 1.14910 0.01149 0.00050 0.00001
3657.03394 1.14850 0.01148 0.00047 0.00000
3656.06909 1.14790 0.01148 0.00047 0.00000
3655.10400 1.14740 0.01147 0.00047 0.00000
3654.13794 1.14680 0.01147 0.00045 0.00000
3653.17310 1.14620 0.01146 0.00042 0.00000
3652.20801 1.14560 0.01146 0.00038 0.00000
3651.24292 1.14500 0.01145 0.00037 0.00000
3650.27808 1.14440 0.01144 0.00038 0.00000
3649.31299 1.14380 0.01144 0.00041 0.00000
3648.34790 1.14320 0.01143 0.00043 0.00000
3647.38306 1.14260 0.01143 0.00043 0.00000
3646.41797 1.14200 0.01142 0.00042 0.00000
3645.45288 1.14130 0.01141 0.00040 0.00000
3644.48804 1.14060 0.01141 0.00041 0.00000
3643.52197 1.14000 0.01140 0.00044 0.00000
3642.55688 1.13930 0.01139 0.00049 0.00000
3641.59204 1.13860 0.01139 0.00054 0.00001
3640.62695 1.13790 0.01138 0.00060 0.00001
3639.66211 1.13710 0.01137 0.00069 0.00001
3638.69702 1.13640 0.01136 0.00086 0.00001
3637.73193 1.13570 0.01136 0.00109 0.00001
3636.76709 1.13510 0.01135 0.00130 0.00001
3635.80200 1.13450 0.01135 0.00146 0.00001
3634.83691 1.13400 0.01134 0.00160 0.00002
3633.87207 1.13350 0.01133 0.00171 0.00002
3632.90601 1.13290 0.01133 0.00173 0.00002
3631.94092 1.13230 0.01132 0.00169 0.00002
3630.97607 1.13160 0.01132 0.00163 0.00002
3630.01099 1.13080 0.01131 0.00163 0.00002
3629.04590 1.13000 0.01130 0.00178 0.00002
3628.08105 1.12920 0.01129 0.00205 0.00002
3627.11597 1.12850 0.01128 0.00233 0.00002
3626.15088 1.12790 0.01128 0.00258 0.00003
3625.18604 1.12720 0.01127 0.00278 0.00003
3624.22095 1.12660 0.01127 0.00296 0.00003
3623.25610 1.12600 0.01126 0.00316 0.00003
3622.29102 1.12550 0.01125 0.00337 0.00003
3621.32495 1.12490 0.01125 0.00354 0.00004
3620.36011 1.12440 0.01124 0.00367 0.00004
3619.39502 1.12390 0.01124 0.00376 0.00004
3618.42993 1.12340 0.01123 0.00377 0.00004
3617.46509 1.12280 0.01123 0.00363 0.00004
3616.50000 1.12210 0.01122 0.00343 0.00003
3615.53491 1.12120 0.01121 0.00329 0.00003
3614.57007 1.12020 0.01120 0.00331 0.00003
3613.60498 1.11920 0.01119 0.00354 0.00004
3612.63989 1.11820 0.01118 0.00391 0.00004
3611.67505 1.11740 0.01117 0.00433 0.00004
3610.70898 1.11670 0.01117 0.00474 0.00005
3609.74390 1.11610 0.01116 0.00513 0.00005
3608.77905 1.11550 0.01115 0.00549 0.00005
3607.81396 1.11500 0.01115 0.00578 0.00006
3606.84912 1.11450 0.01115 0.00600 0.00006
3605.88403 1.11400 0.01114 0.00613 0.00006
3604.91895 1.11350 0.01113 0.00618 0.00006
3603.95410 1.11290 0.01113 0.00617 0.00006
3602.98901 1.11230 0.01112 0.00614 0.00006
3602.02393 1.11160 0.01112 0.00614 0.00006
3601.05908 1.11090 0.01111 0.00617 0.00006
3600.09302 1.11010 0.01110 0.00618 0.00006
3599.12793 1.10930 0.01109 0.00615 0.00006
3598.16309 1.10850 0.01108 0.00611 0.00006
3597.19800 1.10750 0.01107 0.00609 0.00006
3596.23291 1.10640 0.01106 0.00615 0.00006
3595.26807 1.10530 0.01105 0.00636 0.00006
3594.30298 1.10430 0.01104 0.00673 0.00007
3593.33789 1.10330 0.01103 0.00723 0.00007
3592.37305 1.10250 0.01102 0.00779 0.00008
3591.40796 1.10180 0.01102 0.00832 0.00008
3590.44312 1.10120 0.01101 0.00877 0.00009
3589.47803 1.10080 0.01101 0.00910 0.00009
3588.51196 1.10020 0.01100 0.00925 0.00009
3587.54712 1.09970 0.01100 0.00926 0.00009
3586.58203 1.09900 0.01099 0.00923 0.00009
3585.61694 1.09820 0.01098 0.00922 0.00009
3584.65210 1.09730 0.01097 0.00926 0.00009
3583.68701 1.09640 0.01096 0.00935 0.00009
3582.72192 1.09550 0.01095 0.00947 0.00009
3581.75708 1.09450 0.01094 0.00962 0.00010
3580.79199 1.09360 0.01094 0.00982 0.00010
3579.82690 1.09260 0.01093 0.01005 0.00010
3578.86206 1.09170 0.01092 0.01029 0.00010
3577.89600 1.09070 0.01091 0.01054 0.00011
3576.93091 1.08980 0.01090 0.01084 0.00011
3575.96606 1.08890 0.01089 0.01119 0.00011
3575.00098 1.08800 0.01088 0.01150 0.00011
3574.03589 1.08710 0.01087 0.01174 0.00012
3573.07104 1.08620 0.01086 0.01191 0.00012
3572.10596 1.08520 0.01085 0.01207 0.00012
3571.14111 1.08420 0.01084 0.01233 0.00012
3570.17603 1.08310 0.01083 0.01270 0.00013
3569.21094 1.08210 0.01082 0.01312 0.00013
3568.24609 1.08110 0.01081 0.01356 0.00014
3567.28101 1.08010 0.01080 0.01402 0.00014
3566.31494 1.07930 0.01079 0.01449 0.00014
3565.35010 1.07840 0.01078 0.01491 0.00015
3564.38501 1.07760 0.01078 0.01526 0.00015
3563.41992 1.07670 0.01077 0.01550 0.00015
3562.45508 1.07580 0.01076 0.01570 0.00016
3561.48999 1.07480 0.01075 0.01598 0.00016
3560.52490 1.07370 0.01074 0.01635 0.00016
3559.56006 1.07270 0.01073 0.01676 0.00017
3558.59497 1.07160 0.01072 0.01718 0.00017
3557.62988 1.07060 0.01071 0.01763 0.00018
3556.66504 1.06960 0.01070 0.01810 0.00018
3555.69897 1.06860 0.01069 0.01858 0.00019
3554.73389 1.06760 0.01068 0.01910 0.00019
3553.76904 1.06670 0.01067 0.01967 0.00020
3552.80396 1.06590 0.01066 0.02027 0.00020
3551.83911 1.06520 0.01065 0.02081 0.00021
3550.87402 1.06460 0.01065 0.02119 0.00021
3549.90894 1.06390 0.01064 0.02131 0.00021
3548.94409 1.06300 0.01063 0.02125 0.00021
3547.97900 1.06200 0.01062 0.02117 0.00021
3547.01392 1.06070 0.01061 0.02121 0.00021
3546.04907 1.05940 0.01059 0.02144 0.00021
3545.08301 1.05800 0.01058 0.02182 0.00022
3544.11792 1.05670 0.01057 0.02227 0.00022
3543.15308 1.05540 0.01055 0.02271 0.00023
3542.18799 1.05400 0.01054 0.02309 0.00023
3541.22290 1.05260 0.01053 0.02348 0.00023
3540.25806 1.05100 0.01051 0.02400 0.00024
3539.29297 1.04940 0.01049 0.02476 0.00025
3538.32788 1.04790 0.01048 0.02584 0.00026
3537.36304 1.04670 0.01047 0.02714 0.00027
3536.39795 1.04570 0.01046 0.02846 0.00028
3535.43311 1.04500 0.01045 0.02962 0.00030
3534.46802 1.04440 0.01044 0.03048 0.00030
3533.50195 1.04390 0.01044 0.03106 0.00031
3532.53711 1.04320 0.01043 0.03151 0.00032
3531.57202 1.04230 0.01042 0.03196 0.00032
3530.60693 1.04150 0.01041 0.03253 0.00033
3529.64209 1.04070 0.01041 0.03314 0.00033
3528.67700 1.04000 0.01040 0.03362 0.00034
3527.71191 1.03920 0.01039 0.03386 0.00034
3526.74707 1.03830 0.01038 0.03388 0.00034
3525.78198 1.03710 0.01037 0.03380 0.00034
3524.81689 1.03560 0.01036 0.03378 0.00034
3523.85205 1.03390 0.01034 0.03401 0.00034
3522.88599 1.03220 0.01032 0.03468 0.00035
3521.92090 1.03050 0.01031 0.03572 0.00036
3520.95605 1.02920 0.01029 0.03691 0.00037
3519.99097 1.02820 0.01028 0.03802 0.00038
3519.02588 1.02730 0.01027 0.03883 0.00039
3518.06104 1.02630 0.01026 0.03933 0.00039
3517.09595 1.02520 0.01025 0.03966 0.00040
3516.13110 1.02390 0.01024 0.04002 0.00040
3515.16602 1.02250 0.01022 0.04063 0.00041
3514.20093 1.02100 0.01021 0.04148 0.00041
3513.23608 1.01970 0.01020 0.04241 0.00042
3512.27100 1.01850 0.01018 0.04326 0.00043
3511.30493 1.01730 0.01017 0.04396 0.00044
3510.34009 1.01610 0.01016 0.04456 0.00045
3509.37500 1.01470 0.01015 0.04519 0.00045
3508.40991 1.01330 0.01013 0.04591 0.00046
3507.44507 1.01190 0.01012 0.04676 0.00047
3506.47998 1.01060 0.01011 0.04766 0.00048
3505.51489 1.00930 0.01009 0.04848 0.00048
3504.55005 1.00790 0.01008 0.04921 0.00049
3503.58496 1.00650 0.01006 0.04995 0.00050
3502.62012 1.00500 0.01005 0.05074 0.00051
3501.65503 1.00350 0.01003 0.05159 0.00052
3500.68896 1.00200 0.01002 0.05253 0.00053
3499.72412 1.00050 0.01000 0.05363 0.00054
3498.75903 0.99910 0.00999 0.05479 0.00055
3497.79395 0.99770 0.00998 0.05584 0.00056
3496.82910 0.99640 0.00996 0.05675 0.00057
3495.86401 0.99500 0.00995 0.05762 0.00058
3494.89893 0.99350 0.00993 0.05853 0.00059
3493.93408 0.99200 0.00992 0.05952 0.00060
3492.96899 0.99040 0.00990 0.06062 0.00061
3492.00391 0.98890 0.00989 0.06189 0.00062
3491.03906 0.98750 0.00987 0.06323 0.00063
3490.07300 0.98620 0.00986 0.06447 0.00064
3489.10791 0.98500 0.00985 0.06558 0.00066
3488.14307 0.98380 0.00984 0.06656 0.00067
3487.17798 0.98250 0.00982 0.06742 0.00067
3486.21289 0.98110 0.00981 0.06815 0.00068
3485.24805 0.97940 0.00979 0.06881 0.00069
3484.28296 0.97740 0.00977 0.06953 0.00070
3483.31812 0.97530 0.00975 0.07052 0.00071
3482.35303 0.97320 0.00973 0.07195 0.00072
3481.38794 0.97110 0.00971 0.07372 0.00074
3480.42310 0.96930 0.00969 0.07559 0.00076
3479.45801 0.96780 0.00968 0.07741 0.00077
3478.49194 0.96640 0.00966 0.07915 0.00079
3477.52710 0.96510 0.00965 0.08082 0.00081
3476.56201 0.96390 0.00964 0.08241 0.00082
3475.59692 0.96280 0.00963 0.08384 0.00084
3474.63208 0.96160 0.00962 0.08498 0.00085
3473.66699 0.96030 0.00960 0.08588 0.00086
3472.70190 0.95860 0.00959 0.08666 0.00087
3471.73706 0.95660 0.00957 0.08748 0.00087
3470.77197 0.95420 0.00954 0.08848 0.00088
3469.80688 0.95160 0.00952 0.08984 0.00090
3468.84204 0.94890 0.00949 0.09173 0.00092
3467.87598 0.94640 0.00946 0.09418 0.00094
3466.91089 0.94430 0.00944 0.09713 0.00097
3465.94604 0.94270 0.00943 0.10022 0.00100
3464.98096 0.94160 0.00942 0.10295 0.00103
3464.01611 0.94070 0.00941 0.10523 0.00105
3463.05103 0.94000 0.00940 0.10716 0.00107
3462.08594 0.93910 0.00939 0.10882 0.00109
3461.12109 0.93790 0.00938 0.11023 0.00110
3460.15601 0.93650 0.00936 0.11149 0.00111
3459.19092 0.93470 0.00935 0.11279 0.00113
3458.22607 0.93270 0.00933 0.11429 0.00114
3457.26001 0.93050 0.00930 0.11609 0.00116
3456.29492 0.92830 0.00928 0.11816 0.00118
3455.33008 0.92610 0.00926 0.12039 0.00120
3454.36499 0.92390 0.00924 0.12277 0.00123
3453.39990 0.92170 0.00922 0.12533 0.00125
3452.43506 0.91970 0.00920 0.12807 0.00128
3451.46997 0.91770 0.00918 0.13096 0.00131
3450.50488 0.91580 0.00916 0.13397 0.00134
3449.54004 0.91410 0.00914 0.13708 0.00137
3448.57495 0.91260 0.00913 0.14024 0.00140
3447.61011 0.91110 0.00911 0.14341 0.00143
3446.64502 0.90980 0.00910 0.14655 0.00147
3445.67896 0.90850 0.00908 0.14965 0.00150
3444.71411 0.90730 0.00907 0.15274 0.00153
3443.74902 0.90610 0.00906 0.15589 0.00156
3442.78394 0.90500 0.00905 0.15910 0.00159
3441.81909 0.90390 0.00904 0.16234 0.00162
3440.85400 0.90290 0.00903 0.16558 0.00166
3439.88892 0.90200 0.00902 0.16879 0.00169
3438.92407 0.90110 0.00901 0.17200 0.00172
3437.95898 0.90020 0.00900 0.17523 0.00175
3436.99390 0.89940 0.00899 0.17852 0.00179
3436.02905 0.89870 0.00899 0.18186 0.00182
3435.06299 0.89800 0.00898 0.18523 0.00185
3434.09790 0.89750 0.00897 0.18855 0.00189
3433.13306 0.89710 0.00897 0.19175 0.00192
3432.16797 0.89660 0.00897 0.19480 0.00195
3431.20288 0.89610 0.00896 0.19777 0.00198
3430.23804 0.89540 0.00895 0.20076 0.00201
3429.27295 0.89460 0.00895 0.20386 0.00204
3428.30811 0.89380 0.00894 0.20712 0.00207
3427.34302 0.89290 0.00893 0.21059 0.00211
3426.37793 0.89210 0.00892 0.21429 0.00214
3425.41309 0.89150 0.00891 0.21822 0.00218
3424.44800 0.89110 0.00891 0.22232 0.00222
3423.48193 0.89110 0.00891 0.22647 0.00226
3422.51709 0.89130 0.00891 0.23051 0.00231
3421.55200 0.89170 0.00892 0.23437 0.00234
3420.58691 0.89230 0.00892 0.23804 0.00238
3419.62207 0.89300 0.00893 0.24153 0.00242
3418.65698 0.89360 0.00894 0.24487 0.00245
3417.69189 0.89410 0.00894 0.24810 0.00248
3416.72705 0.89460 0.00895 0.25129 0.00251
3415.76196 0.89510 0.00895 0.25449 0.00254
3414.79712 0.89550 0.00895 0.25774 0.00258
3413.83203 0.89600 0.00896 0.26106 0.00261
3412.86597 0.89650 0.00896 0.26450 0.00264
3411.90088 0.89720 0.00897 0.26798 0.00268
3410.93604 0.89810 0.00898 0.27144 0.00271
3409.97095 0.89920 0.00899 0.27472 0.00275
3409.00610 0.90030 0.00900 0.27767 0.00278
3408.04102 0.90120 0.00901 0.28039 0.00280
3407.07593 0.90200 0.00902 0.28306 0.00283
3406.11108 0.90260 0.00903 0.28581 0.00286
3405.14600 0.90310 0.00903 0.28873 0.00289
3404.18091 0.90360 0.00904 0.29188 0.00292
3403.21606 0.90430 0.00904 0.29528 0.00295
3402.25000 0.90520 0.00905 0.29878 0.00299
3401.28491 0.90630 0.00906 0.30220 0.00302
3400.32007 0.90770 0.00908 0.30544 0.00305
3399.35498 0.90910 0.00909 0.30847 0.00308
3398.38989 0.91060 0.00911 0.31138 0.00311
3397.42505 0.91220 0.00912 0.31426 0.00314
3396.45996 0.91370 0.00914 0.31702 0.00317
3395.49512 0.91530 0.00915 0.31948 0.00319
3394.53003 0.91680 0.00917 0.32169 0.00322
3393.56494 0.91810 0.00918 0.32378 0.00324
3392.60010 0.91910 0.00919 0.32588 0.00326
3391.63501 0.91990 0.00920 0.32810 0.00328
3390.66895 0.92060 0.00921 0.33055 0.00331
3389.70410 0.92130 0.00921 0.33336 0.00333
3388.73901 0.92230 0.00922 0.33647 0.00336
3387.77393 0.92360 0.00924 0.33981 0.00340
3386.80908 0.92530 0.00925 0.34307 0.00343
3385.84399 0.92740 0.00927 0.34596 0.00346
3384.87891 0.92960 0.00930 0.34841 0.00348
3383.91406 0.93180 0.00932 0.35043 0.00350
3382.94897 0.93380 0.00934 0.35216 0.00352
3381.98389 0.93560 0.00936 0.35373 0.00354
3381.01904 0.93720 0.00937 0.35518 0.00355
3380.05298 0.93840 0.00938 0.35653 0.00357
3379.08789 0.93950 0.00939 0.35795 0.00358
3378.12305 0.94040 0.00940 0.35966 0.00360
3377.15796 0.94120 0.00941 0.36158 0.00362
3376.19312 0.94200 0.00942 0.36357 0.00364
3375.22803 0.94290 0.00943 0.36566 0.00366
3374.26294 0.94390 0.00944 0.36794 0.00368
3373.29810 0.94510 0.00945 0.37035 0.00370
3372.33301 0.94650 0.00946 0.37272 0.00373
3371.36792 0.94800 0.00948 0.37489 0.00375
3370.40308 0.94960 0.00950 0.37673 0.00377
3369.43701 0.95120 0.00951 0.37836 0.00378
3368.47192 0.95270 0.00953 0.37993 0.00380
3367.50708 0.95410 0.00954 0.38146 0.00381
3366.54199 0.95540 0.00955 0.38288 0.00383
3365.57690 0.95650 0.00956 0.38417 0.00384
3364.61206 0.95740 0.00957 0.38531 0.00385
3363.64697 0.95810 0.00958 0.38648 0.00386
3362.68188 0.95860 0.00959 0.38787 0.00388
3361.71704 0.95900 0.00959 0.38954 0.00390
3360.75195 0.95930 0.00959 0.39146 0.00391
3359.78711 0.95980 0.00960 0.39358 0.00394
3358.82202 0.96040 0.00960 0.39585 0.00396
3357.85596 0.96130 0.00961 0.39815 0.00398
3356.89111 0.96220 0.00962 0.40036 0.00400
3355.92603 0.96330 0.00963 0.40247 0.00402
3354.96094 0.96440 0.00964 0.40447 0.00404
3353.99609 0.96550 0.00965 0.40645 0.00406
3353.03101 0.96670 0.00967 0.40853 0.00409
3352.06592 0.96810 0.00968 0.41055 0.00411
3351.10107 0.96960 0.00970 0.41228 0.00412
3350.13599 0.97110 0.00971 0.41364 0.00414
3349.17090 0.97230 0.00972 0.41455 0.00415
3348.20605 0.97310 0.00973 0.41528 0.00415
3347.23999 0.97340 0.00973 0.41611 0.00416
3346.27490 0.97350 0.00974 0.41726 0.00417
3345.31006 0.97340 0.00973 0.41892 0.00419
3344.34497 0.97330 0.00973 0.42091 0.00421
3343.37988 0.97330 0.00973 0.42301 0.00423
3342.41504 0.97350 0.00974 0.42520 0.00425
3341.44995 0.97390 0.00974 0.42746 0.00427
3340.48511 0.97430 0.00974 0.42977 0.00430
3339.52002 0.97480 0.00975 0.43203 0.00432
3338.55493 0.97540 0.00975 0.43427 0.00434
3337.59009 0.97610 0.00976 0.43650 0.00436
3336.62500 0.97680 0.00977 0.43872 0.00439
3335.65894 0.97750 0.00977 0.44091 0.00441
3334.69409 0.97830 0.00978 0.44295 0.00443
3333.72900 0.97890 0.00979 0.44470 0.00445
3332.76392 0.97940 0.00979 0.44641 0.00446
3331.79907 0.97970 0.00980 0.44833 0.00448
3330.83398 0.97990 0.00980 0.45041 0.00450
3329.86890 0.98010 0.00980 0.45256 0.00453
3328.90405 0.98030 0.00980 0.45474 0.00455
3327.93896 0.98040 0.00980 0.45694 0.00457
3326.97412 0.98050 0.00980 0.45925 0.00459
3326.00903 0.98060 0.00981 0.46179 0.00462
3325.04297 0.98080 0.00981 0.46443 0.00464
3324.07788 0.98100 0.00981 0.46707 0.00467
3323.11304 0.98130 0.00981 0.46967 0.00470
3322.14795 0.98160 0.00982 0.47225 0.00472
3321.18311 0.98180 0.00982 0.47482 0.00475
3320.21802 0.98190 0.00982 0.47738 0.00477
3319.25293 0.98190 0.00982 0.48005 0.00480
3318.28809 0.98180 0.00982 0.48299 0.00483
3317.32300 0.98170 0.00982 0.48621 0.00486
3316.35791 0.98190 0.00982 0.48970 0.00490
3315.39307 0.98230 0.00982 0.49324 0.00493
3314.42700 0.98290 0.00983 0.49662 0.00497
3313.46191 0.98360 0.00984 0.49985 0.00500
3312.49707 0.98420 0.00984 0.50294 0.00503
3311.53198 0.98480 0.00985 0.50597 0.00506
3310.56689 0.98510 0.00985 0.50904 0.00509
3309.60205 0.98540 0.00985 0.51222 0.00512
3308.63696 0.98570 0.00986 0.51562 0.00516
3307.67212 0.98600 0.00986 0.51917 0.00519
3306.70703 0.98630 0.00986 0.52279 0.00523
3305.74194 0.98660 0.00987 0.52645 0.00526
3304.77710 0.98690 0.00987 0.53011 0.00530
3303.81201 0.98710 0.00987 0.53393 0.00534
3302.84595 0.98730 0.00987 0.53803 0.00538
3301.88110 0.98750 0.00987 0.54239 0.00542
3300.91602 0.98790 0.00988 0.54701 0.00547
3299.95093 0.98860 0.00989 0.55183 0.00552
3298.98608 0.98960 0.00990 0.55685 0.00557
3298.02100 0.99080 0.00991 0.56184 0.00562
3297.05591 0.99230 0.00992 0.56656 0.00567
3296.09106 0.99380 0.00994 0.57109 0.00571
3295.12598 0.99520 0.00995 0.57552 0.00576
3294.16089 0.99650 0.00996 0.58005 0.00580
3293.19604 0.99780 0.00998 0.58483 0.00585
3292.22998 0.99930 0.00999 0.58987 0.00590
3291.26489 1.00100 0.01001 0.59516 0.00595
3290.30005 1.00310 0.01003 0.60046 0.00600
3289.33496 1.00540 0.01005 0.60553 0.00606
3288.37012 1.00790 0.01008 0.61029 0.00610
3287.40503 1.01020 0.01010 0.61466 0.00615
3286.43994 1.01240 0.01012 0.61893 0.00619
3285.47510 1.01420 0.01014 0.62337 0.00623
3284.51001 1.01580 0.01016 0.62810 0.00628
3283.54492 1.01740 0.01017 0.63322 0.00633
3282.58008 1.01920 0.01019 0.63869 0.00639
3281.61401 1.02110 0.01021 0.64446 0.00644
3280.64893 1.02330 0.01023 0.65041 0.00650
3279.68408 1.02570 0.01026 0.65641 0.00656
3278.71899 1.02830 0.01028 0.66255 0.00663
3277.75391 1.03120 0.01031 0.66895 0.00669
3276.78906 1.03450 0.01034 0.67552 0.00676
3275.82397 1.03830 0.01038 0.68218 0.00682
3274.85889 1.04240 0.01042 0.68869 0.00689
3273.89404 1.04680 0.01047 0.69481 0.00695
3272.92896 1.05130 0.01051 0.70066 0.00701
3271.96411 1.05580 0.01056 0.70633 0.00706
3270.99902 1.06020 0.01060 0.71203 0.00712
3270.03296 1.06460 0.01065 0.71790 0.00718
3269.06812 1.06910 0.01069 0.72403 0.00724
3268.10303 1.07380 0.01074 0.73050 0.00730
3267.13794 1.07900 0.01079 0.73717 0.00737
3266.17310 1.08460 0.01085 0.74392 0.00744
3265.20801 1.09070 0.01091 0.75059 0.00751
3264.24292 1.09730 0.01097 0.75702 0.00757
3263.27808 1.10430 0.01104 0.76320 0.00763
3262.31299 1.11160 0.01112 0.76907 0.00769
3261.34790 1.11910 0.01119 0.77460 0.00775
3260.38306 1.12660 0.01127 0.77974 0.00780
3259.41699 1.13420 0.01134 0.78468 0.00785
3258.45190 1.14160 0.01142 0.78959 0.00790
3257.48706 1.14920 0.01149 0.79462 0.00795
3256.52197 1.15700 0.01157 0.79990 0.00800
3255.55688 1.16530 0.01165 0.80529 0.00805
3254.59204 1.17420 0.01174 0.81068 0.00811
3253.62695 1.18370 0.01184 0.81575 0.00816
3252.66211 1.19390 0.01194 0.82021 0.00820
3251.69702 1.20430 0.01204 0.82392 0.00824
3250.73193 1.21480 0.01215 0.82678 0.00827
3249.76709 1.22520 0.01225 0.82904 0.00829
3248.80200 1.23530 0.01235 0.83090 0.00831
3247.83594 1.24530 0.01245 0.83249 0.00832
3246.87109 1.25500 0.01255 0.83391 0.00834
3245.90601 1.26450 0.01264 0.83521 0.00835
3244.94092 1.27390 0.01274 0.83647 0.00836
3243.97607 1.28340 0.01283 0.83780 0.00838
3243.01099 1.29310 0.01293 0.83929 0.00839
3242.04590 1.30310 0.01303 0.84076 0.00841
3241.08105 1.31360 0.01314 0.84201 0.00842
3240.11597 1.32450 0.01324 0.84287 0.00843
3239.15088 1.33590 0.01336 0.84315 0.00843
3238.18604 1.34740 0.01347 0.84267 0.00843
3237.21997 1.35900 0.01359 0.84123 0.00841
3236.25488 1.37030 0.01370 0.83898 0.00839
3235.29004 1.38100 0.01381 0.83605 0.00836
3234.32495 1.39130 0.01391 0.83274 0.00833
3233.36011 1.40110 0.01401 0.82932 0.00829
3232.39502 1.41060 0.01411 0.82582 0.00826
3231.42993 1.41990 0.01420 0.82229 0.00822
3230.46509 1.42900 0.01429 0.81861 0.00819
3229.50000 1.43810 0.01438 0.81467 0.00815
3228.53491 1.44700 0.01447 0.81041 0.00810
3227.57007 1.45570 0.01456 0.80578 0.00806
3226.60400 1.46410 0.01464 0.80076 0.00801
3225.63892 1.47210 0.01472 0.79533 0.00795
3224.67407 1.47960 0.01480 0.78971 0.00790
3223.70898 1.48650 0.01486 0.78406 0.00784
3222.74390 1.49300 0.01493 0.77849 0.00778
3221.77905 1.49920 0.01499 0.77308 0.00773
3220.81396 1.50510 0.01505 0.76777 0.00768
3219.84912 1.51080 0.01511 0.76254 0.00763
3218.88403 1.51630 0.01516 0.75737 0.00757
3217.91895 1.52180 0.01522 0.75224 0.00752
3216.95410 1.52700 0.01527 0.74709 0.00747
3215.98901 1.53210 0.01532 0.74183 0.00742
3215.02295 1.53700 0.01537 0.73653 0.00737
3214.05811 1.54170 0.01542 0.73123 0.00731
3213.09302 1.54610 0.01546 0.72599 0.00726
3212.12793 1.55030 0.01550 0.72085 0.00721
3211.16309 1.55440 0.01554 0.71573 0.00716
3210.19800 1.55820 0.01558 0.71057 0.00711
3209.23291 1.56180 0.01562 0.70550 0.00705
3208.26807 1.56520 0.01565 0.70063 0.00701
3207.30298 1.56840 0.01568 0.69595 0.00696
3206.33789 1.57170 0.01572 0.69145 0.00691
3205.37305 1.57490 0.01575 0.68698 0.00687
3204.40698 1.57810 0.01578 0.68244 0.00682
3203.44189 1.58120 0.01581 0.67784 0.00678
3202.47705 1.58400 0.01584 0.67320 0.00673
3201.51196 1.58660 0.01587 0.66859 0.00669
3200.54712 1.58890 0.01589 0.66408 0.00664
3199.58203 1.59100 0.01591 0.65984 0.00660
3198.61694 1.59300 0.01593 0.65600 0.00656
3197.65210 1.59500 0.01595 0.65245 0.00652
3196.68701 1.59710 0.01597 0.64913 0.00649
3195.72192 1.59930 0.01599 0.64591 0.00646
3194.75708 1.60160 0.01602 0.64269 0.00643
3193.79102 1.60400 0.01604 0.63947 0.00639
3192.82593 1.60640 0.01606 0.63622 0.00636
3191.86108 1.60880 0.01609 0.63295 0.00633
3190.89600 1.61100 0.01611 0.62966 0.00630
3189.93091 1.61320 0.01613 0.62641 0.00626
3188.96606 1.61520 0.01615 0.62323 0.00623
3188.00098 1.61710 0.01617 0.62021 0.00620
3187.03589 1.61890 0.01619 0.61744 0.00617
3186.07104 1.62080 0.01621 0.61496 0.00615
3185.10596 1.62290 0.01623 0.61285 0.00613
3184.14111 1.62520 0.01625 0.61085 0.00611
3183.17603 1.62790 0.01628 0.60876 0.00609
3182.20996 1.63070 0.01631 0.60655 0.00607
3181.24512 1.63370 0.01634 0.60413 0.00604
3180.28003 1.63670 0.01637 0.60153 0.00602
3179.31494 1.63970 0.01640 0.59874 0.00599
3178.35010 1.64260 0.01643 0.59579 0.00596
3177.38501 1.64530 0.01645 0.59270 0.00593
3176.41992 1.64770 0.01648 0.58965 0.00590
3175.45508 1.65000 0.01650 0.58679 0.00587
3174.48999 1.65220 0.01652 0.58407 0.00584
3173.52490 1.65440 0.01654 0.58152 0.00582
3172.56006 1.65650 0.01656 0.57920 0.00579
3171.59399 1.65880 0.01659 0.57717 0.00577
3170.62891 1.66120 0.01661 0.57535 0.00575
3169.66406 1.66410 0.01664 0.57372 0.00574
3168.69897 1.66720 0.01667 0.57206 0.00572
3167.73389 1.67070 0.01671 0.57019 0.00570
3166.76904 1.67450 0.01674 0.56806 0.00568
3165.80396 1.67840 0.01678 0.56557 0.00566
3164.83911 1.68240 0.01682 0.56272 0.00563
3163.87402 1.68620 0.01686 0.55945 0.00559
3162.90894 1.68980 0.01690 0.55594 0.00556
3161.94409 1.69310 0.01693 0.55231 0.00552
3160.97900 1.69620 0.01696 0.54870 0.00549
3160.01294 1.69900 0.01699 0.54526 0.00545
3159.04810 1.70170 0.01702 0.54190 0.00542
3158.08301 1.70440 0.01704 0.53862 0.00539
3157.11792 1.70710 0.01707 0.53547 0.00535
3156.15308 1.70990 0.01710 0.53250 0.00533
3155.18799 1.71270 0.01713 0.52958 0.00530
3154.22290 1.71570 0.01716 0.52664 0.00527
3153.25806 1.71870 0.01719 0.52370 0.00524
3152.29297 1.72190 0.01722 0.52075 0.00521
3151.32788 1.72530 0.01725 0.51775 0.00518
3150.36304 1.72880 0.01729 0.51466 0.00515
3149.39697 1.73240 0.01732 0.51137 0.00511
3148.43188 1.73600 0.01736 0.50780 0.00508
3147.46704 1.73970 0.01740 0.50403 0.00504
3146.50195 1.74330 0.01743 0.50010 0.00500
3145.53711 1.74670 0.01747 0.49600 0.00496
3144.57202 1.75010 0.01750 0.49172 0.00492
3143.60693 1.75330 0.01753 0.48740 0.00487
3142.64209 1.75660 0.01757 0.48315 0.00483
3141.67700 1.75980 0.01760 0.47885 0.00479
3140.71191 1.76310 0.01763 0.47448 0.00474
3139.74707 1.76640 0.01766 0.46984 0.00470
3138.78101 1.76960 0.01770 0.46480 0.00465
3137.81592 1.77260 0.01773 0.45960 0.00460
3136.85107 1.77540 0.01775 0.45435 0.00454
3135.88599 1.77790 0.01778 0.44907 0.00449
3134.92090 1.78030 0.01780 0.44382 0.00444
3133.95605 1.78250 0.01782 0.43862 0.00439
3132.99097 1.78470 0.01785 0.43351 0.00434
3132.02588 1.78680 0.01787 0.42844 0.00428
3131.06104 1.78910 0.01789 0.42339 0.00423
3130.09595 1.79130 0.01791 0.41820 0.00418
3129.13110 1.79350 0.01793 0.41278 0.00413
3128.16602 1.79570 0.01796 0.40719 0.00407
3127.19995 1.79770 0.01798 0.40141 0.00401
3126.23511 1.79950 0.01799 0.39550 0.00396
3125.27002 1.80120 0.01801 0.38951 0.00390
3124.30493 1.80260 0.01803 0.38339 0.00383
3123.34009 1.80370 0.01804 0.37712 0.00377
3122.37500 1.80450 0.01804 0.37089 0.00371
3121.40991 1.80500 0.01805 0.36484 0.00365
3120.44507 1.80540 0.01805 0.35889 0.00359
3119.47998 1.80550 0.01805 0.35305 0.00353
3118.51489 1.80550 0.01805 0.34738 0.00347
3117.55005 1.80560 0.01806 0.34192 0.00342
3116.58398 1.80560 0.01806 0.33660 0.00337
3115.61890 1.80570 0.01806 0.33137 0.00331
3114.65405 1.80590 0.01806 0.32602 0.00326
3113.68896 1.80600 0.01806 0.32036 0.00320
3112.72412 1.80590 0.01806 0.31457 0.00315
3111.75903 1.80550 0.01805 0.30870 0.00309
3110.79395 1.80490 0.01805 0.30293 0.00303
3109.82910 1.80400 0.01804 0.29742 0.00297
3108.86401 1.80290 0.01803 0.29207 0.00292
3107.89893 1.80190 0.01802 0.28689 0.00287
3106.93408 1.80070 0.01801 0.28183 0.00282
3105.96802 1.79950 0.01799 0.27686 0.00277
3105.00293 1.79830 0.01798 0.27196 0.00272
3104.03809 1.79710 0.01797 0.26715 0.00267
3103.07300 1.79590 0.01796 0.26238 0.00262
3102.10791 1.79460 0.01795 0.25765 0.00258
3101.14307 1.79330 0.01793 0.25293 0.00253
3100.17798 1.79190 0.01792 0.24822 0.00248
3099.21289 1.79040 0.01790 0.24347 0.00243
3098.24805 1.78870 0.01789 0.23866 0.00239
3097.28296 1.78690 0.01787 0.23394 0.00234
3096.31812 1.78480 0.01785 0.22940 0.00229
3095.35303 1.78270 0.01783 0.22508 0.00225
3094.38696 1.78050 0.01781 0.22104 0.00221
3093.42212 1.77830 0.01778 0.21712 0.00217
3092.45703 1.77620 0.01776 0.21327 0.00213
3091.49194 1.77400 0.01774 0.20954 0.00210
3090.52710 1.77190 0.01772 0.20594 0.00206
3089.56201 1.76980 0.01770 0.20245 0.00202
3088.59692 1.76780 0.01768 0.19905 0.00199
3087.63208 1.76580 0.01766 0.19564 0.00196
3086.66699 1.76390 0.01764 0.19215 0.00192
3085.70190 1.76190 0.01762 0.18864 0.00189
3084.73706 1.75970 0.01760 0.18511 0.00185
3083.77100 1.75750 0.01757 0.18163 0.00182
3082.80591 1.75510 0.01755 0.17824 0.00178
3081.84106 1.75270 0.01753 0.17499 0.00175
3080.87598 1.75010 0.01750 0.17193 0.00172
3079.91089 1.74760 0.01748 0.16903 0.00169
3078.94604 1.74500 0.01745 0.16628 0.00166
3077.98096 1.74250 0.01742 0.16369 0.00164
3077.01611 1.74000 0.01740 0.16125 0.00161
3076.05103 1.73770 0.01738 0.15895 0.00159
3075.08594 1.73540 0.01735 0.15679 0.00157
3074.12109 1.73330 0.01733 0.15462 0.00155
3073.15601 1.73130 0.01731 0.15236 0.00152
3072.18994 1.72930 0.01729 0.15007 0.00150
3071.22510 1.72730 0.01727 0.14772 0.00148
3070.26001 1.72520 0.01725 0.14539 0.00145
3069.29492 1.72300 0.01723 0.14313 0.00143
3068.33008 1.72090 0.01721 0.14099 0.00141
3067.36499 1.71870 0.01719 0.13899 0.00139
3066.39990 1.71670 0.01717 0.13705 0.00137
3065.43506 1.71470 0.01715 0.13513 0.00135
3064.46997 1.71270 0.01713 0.13320 0.00133
3063.50488 1.71070 0.01711 0.13123 0.00131
3062.54004 1.70880 0.01709 0.12931 0.00129
3061.57397 1.70690 0.01707 0.12749 0.00127
3060.60889 1.70500 0.01705 0.12561 0.00126
3059.64404 1.70310 0.01703 0.12362 0.00124
3058.67896 1.70110 0.01701 0.12163 0.00122
3057.71411 1.69900 0.01699 0.11964 0.00120
3056.74902 1.69680 0.01697 0.11780 0.00118
3055.78394 1.69460 0.01695 0.11620 0.00116
3054.81909 1.69240 0.01692 0.11473 0.00115
3053.85400 1.69030 0.01690 0.11338 0.00113
3052.88892 1.68830 0.01688 0.11209 0.00112
3051.92407 1.68640 0.01686 0.11081 0.00111
3050.95801 1.68450 0.01684 0.10955 0.00110
3049.99292 1.68270 0.01683 0.10829 0.00108
3049.02808 1.68100 0.01681 0.10709 0.00107
3048.06299 1.67930 0.01679 0.10596 0.00106
3047.09790 1.67770 0.01678 0.10485 0.00105
3046.13306 1.67630 0.01676 0.10374 0.00104
3045.16797 1.67490 0.01675 0.10247 0.00102
3044.20288 1.67360 0.01674 0.10097 0.00101
3043.23804 1.67210 0.01672 0.09941 0.00099
3042.27295 1.67050 0.01671 0.09785 0.00098
3041.30811 1.66890 0.01669 0.09635 0.00096
3040.34302 1.66720 0.01667 0.09497 0.00095
3039.37695 1.66550 0.01665 0.09361 0.00094
3038.41211 1.66380 0.01664 0.09222 0.00092
3037.44702 1.66210 0.01662 0.09086 0.00091
3036.48193 1.66020 0.01660 0.08954 0.00090
3035.51709 1.65840 0.01658 0.08832 0.00088
3034.55200 1.65650 0.01656 0.08725 0.00087
3033.58691 1.65470 0.01655 0.08634 0.00086
3032.62207 1.65300 0.01653 0.08560 0.00086
3031.65698 1.65150 0.01651 0.08483 0.00085
3030.69189 1.65010 0.01650 0.08396 0.00084
3029.72705 1.64870 0.01649 0.08303 0.00083
3028.76099 1.64740 0.01647 0.08200 0.00082
3027.79590 1.64610 0.01646 0.08094 0.00081
3026.83105 1.64480 0.01645 0.07992 0.00080
3025.86597 1.64350 0.01643 0.07878 0.00079
3024.90088 1.64210 0.01642 0.07750 0.00077
3023.93604 1.64060 0.01641 0.07620 0.00076
3022.97095 1.63900 0.01639 0.07490 0.00075
3022.00610 1.63730 0.01637 0.07367 0.00074
3021.04102 1.63540 0.01635 0.07257 0.00073
3020.07593 1.63350 0.01633 0.07162 0.00072
3019.11108 1.63160 0.01632 0.07086 0.00071
3018.14600 1.62980 0.01630 0.07025 0.00070
3017.17993 1.62800 0.01628 0.06979 0.00070
3016.21509 1.62640 0.01626 0.06939 0.00069
3015.25000 1.62480 0.01625 0.06900 0.00069
3014.28491 1.62340 0.01623 0.06870 0.00069
3013.32007 1.62210 0.01622 0.06853 0.00069
3012.35498 1.62100 0.01621 0.06830 0.00068
3011.38989 1.62010 0.01620 0.06797 0.00068
3010.42505 1.61920 0.01619 0.06749 0.00067
3009.45996 1.61840 0.01618 0.06682 0.00067
3008.49512 1.61760 0.01618 0.06603 0.00066
3007.53003 1.61670 0.01617 0.06516 0.00065
3006.56396 1.61570 0.01616 0.06424 0.00064
3005.59912 1.61460 0.01615 0.06334 0.00063
3004.63403 1.61350 0.01613 0.06243 0.00062
3003.66895 1.61240 0.01612 0.06153 0.00062
3002.70410 1.61120 0.01611 0.06063 0.00061
3001.73901 1.60990 0.01610 0.05972 0.00060
3000.77393 1.60860 0.01609 0.05887 0.00059
2999.80908 1.60730 0.01607 0.05810 0.00058
2998.84399 1.60600 0.01606 0.05737 0.00057
2997.87891 1.60470 0.01605 0.05669 0.00057
2996.91406 1.60340 0.01603 0.05602 0.00056
2995.94800 1.60210 0.01602 0.05534 0.00055
2994.98291 1.60070 0.01601 0.05474 0.00055
2994.01807 1.59940 0.01599 0.05425 0.00054
2993.05298 1.59820 0.01598 0.05378 0.00054
2992.08789 1.59700 0.01597 0.05336 0.00053
2991.12305 1.59580 0.01596 0.05293 0.00053
2990.15796 1.59470 0.01595 0.05245 0.00052
2989.19312 1.59360 0.01594 0.05197 0.00052
2988.22803 1.59250 0.01592 0.05148 0.00051
2987.26294 1.59140 0.01591 0.05103 0.00051
2986.29810 1.59020 0.01590 0.05061 0.00051
2985.33301 1.58920 0.01589 0.05025 0.00050
2984.36694 1.58820 0.01588 0.04995 0.00050
2983.40210 1.58720 0.01587 0.04962 0.00050
2982.43701 1.58630 0.01586 0.04922 0.00049
2981.47192 1.58540 0.01585 0.04880 0.00049
2980.50708 1.58450 0.01584 0.04837 0.00048
2979.54199 1.58360 0.01584 0.04797 0.00048
2978.57690 1.58280 0.01583 0.04764 0.00048
2977.61206 1.58210 0.01582 0.04722 0.00047
2976.64697 1.58140 0.01581 0.04667 0.00047
2975.68188 1.58070 0.01581 0.04608 0.00046
2974.71704 1.57990 0.01580 0.04543 0.00045
2973.75098 1.57910 0.01579 0.04474 0.00045
2972.78589 1.57830 0.01578 0.04403 0.00044
2971.82104 1.57730 0.01577 0.04329 0.00043
2970.85596 1.57630 0.01576 0.04252 0.00043
2969.89111 1.57530 0.01575 0.04182 0.00042
2968.92603 1.57420 0.01574 0.04124 0.00041
2967.96094 1.57310 0.01573 0.04068 0.00041
2966.99609 1.57200 0.01572 0.04014 0.00040
2966.03101 1.57090 0.01571 0.03969 0.00040
2965.06592 1.56980 0.01570 0.03930 0.00039
2964.10107 1.56880 0.01569 0.03893 0.00039
2963.13501 1.56780 0.01568 0.03859 0.00039
2962.16992 1.56680 0.01567 0.03821 0.00038
2961.20508 1.56580 0.01566 0.03778 0.00038
2960.23999 1.56480 0.01565 0.03746 0.00037
2959.27490 1.56390 0.01564 0.03731 0.00037
2958.31006 1.56310 0.01563 0.03713 0.00037
2957.34497 1.56230 0.01562 0.03693 0.00037
2956.37988 1.56170 0.01562 0.03668 0.00037
2955.41504 1.56120 0.01561 0.03633 0.00036
2954.44995 1.56060 0.01561 0.03582 0.00036
2953.48511 1.56000 0.01560 0.03513 0.00035
2952.52002 1.55920 0.01559 0.03439 0.00034
2951.55396 1.55830 0.01558 0.03363 0.00034
2950.58911 1.55730 0.01557 0.03300 0.00033
2949.62402 1.55630 0.01556 0.03262 0.00033
2948.65894 1.55520 0.01555 0.03223 0.00032
2947.69409 1.55430 0.01554 0.03183 0.00032
2946.72900 1.55340 0.01553 0.03145 0.00031
2945.76392 1.55240 0.01552 0.03104 0.00031
2944.79907 1.55150 0.01551 0.03069 0.00031
2943.83398 1.55060 0.01551 0.03044 0.00030
2942.86890 1.54980 0.01550 0.03021 0.00030
2941.90405 1.54910 0.01549 0.03000 0.00030
2940.93799 1.54850 0.01548 0.02971 0.00030
2939.97290 1.54790 0.01548 0.02926 0.00029
2939.00806 1.54730 0.01547 0.02863 0.00029
2938.04297 1.54650 0.01546 0.02775 0.00028
2937.07788 1.54540 0.01545 0.02695 0.00027
2936.11304 1.54420 0.01544 0.02634 0.00026
2935.14795 1.54290 0.01543 0.02595 0.00026
2934.18311 1.54170 0.01542 0.02594 0.00026
2933.21802 1.54060 0.01541 0.02593 0.00026
2932.25293 1.53970 0.01540 0.02584 0.00026
2931.28809 1.53890 0.01539 0.02577 0.00026
2930.32300 1.53810 0.01538 0.02560 0.00026
2929.35693 1.53730 0.01537 0.02544 0.00025
2928.39209 1.53650 0.01536 0.02532 0.00025
2927.42700 1.53580 0.01536 0.02516 0.00025
2926.46191 1.53500 0.01535 0.02493 0.00025
2925.49707 1.53430 0.01534 0.02474 0.00025
2924.53198 1.53350 0.01533 0.02455 0.00025
2923.56689 1.53280 0.01533 0.02437 0.00024
2922.60205 1.53200 0.01532 0.02420 0.00024
2921.63696 1.53130 0.01531 0.02408 0.00024
2920.67212 1.53060 0.01531 0.02402 0.00024
2919.70703 1.53000 0.01530 0.02397 0.00024
2918.74097 1.52950 0.01529 0.02393 0.00024
2917.77588 1.52910 0.01529 0.02373 0.00024
2916.81104 1.52870 0.01529 0.02331 0.00023
2915.84595 1.52820 0.01528 0.02282 0.00023
2914.88110 1.52750 0.01527 0.02225 0.00022
2913.91602 1.52670 0.01527 0.02172 0.00022
2912.95093 1.52580 0.01526 0.02133 0.00021
2911.98608 1.52490 0.01525 0.02102 0.00021
2911.02100 1.52400 0.01524 0.02084 0.00021
2910.05591 1.52320 0.01523 0.02075 0.00021
2909.09106 1.52250 0.01522 0.02075 0.00021
2908.12500 1.52180 0.01522 0.02070 0.00021
2907.15991 1.52120 0.01521 0.02054 0.00021
2906.19507 1.52070 0.01521 0.02036 0.00020
2905.22998 1.52010 0.01520 0.02012 0.00020
2904.26489 1.51950 0.01519 0.01987 0.00020
2903.30005 1.51890 0.01519 0.01965 0.00020
2902.33496 1.51840 0.01518 0.01938 0.00019
2901.37012 1.51780 0.01518 0.01906 0.00019
2900.40503 1.51710 0.01517 0.01871 0.00019
2899.43994 1.51640 0.01516 0.01829 0.00018
2898.47510 1.51560 0.01516 0.01796 0.00018
2897.51001 1.51470 0.01515 0.01773 0.00018
2896.54395 1.51390 0.01514 0.01763 0.00018
2895.57910 1.51320 0.01513 0.01770 0.00018
2894.61401 1.51260 0.01513 0.01770 0.00018
2893.64893 1.51210 0.01512 0.01756 0.00018
2892.68408 1.51160 0.01512 0.01741 0.00017
2891.71899 1.51110 0.01511 0.01718 0.00017
2890.75391 1.51050 0.01510 0.01691 0.00017
2889.78906 1.50990 0.01510 0.01663 0.00017
2888.82397 1.50920 0.01509 0.01638 0.00016
2887.85889 1.50850 0.01508 0.01618 0.00016
2886.89404 1.50780 0.01508 0.01605 0.00016
2885.92798 1.50710 0.01507 0.01601 0.00016
2884.96289 1.50660 0.01507 0.01597 0.00016
2883.99805 1.50600 0.01506 0.01589 0.00016
2883.03296 1.50550 0.01505 0.01579 0.00016
2882.06812 1.50510 0.01505 0.01564 0.00016
2881.10303 1.50460 0.01505 0.01547 0.00015
2880.13794 1.50420 0.01504 0.01528 0.00015
2879.17310 1.50370 0.01504 0.01502 0.00015
2878.20801 1.50320 0.01503 0.01470 0.00015
2877.24292 1.50270 0.01503 0.01439 0.00014
2876.27808 1.50210 0.01502 0.01411 0.00014
2875.31201 1.50150 0.01501 0.01382 0.00014
2874.34692 1.50090 0.01501 0.01357 0.00014
2873.38208 1.50030 0.01500 0.01330 0.00013
2872.41699 1.49960 0.01500 0.01302 0.00013
2871.45190 1.49900 0.01499 0.01281 0.00013
2870.48706 1.49830 0.01498 0.01269 0.00013
2869.52197 1.49770 0.01498 0.01255 0.00013
2868.55688 1.49710 0.01497 0.01242 0.00012
2867.59204 1.49650 0.01496 0.01231 0.00012
2866.62695 1.49590 0.01496 0.01220 0.00012
2865.66211 1.49540 0.01495 0.01205 0.00012
2864.69702 1.49490 0.01495 0.01187 0.00012
2863.73096 1.49440 0.01494 0.01170 0.00012
2862.76611 1.49380 0.01494 0.01151 0.00012
2861.80103 1.49330 0.01493 0.01131 0.00011
2860.83594 1.49270 0.01493 0.01109 0.00011
2859.87109 1.49220 0.01492 0.01089 0.00011
2858.90601 1.49160 0.01492 0.01071 0.00011
2857.94092 1.49100 0.01491 0.01053 0.00011
2856.97607 1.49050 0.01490 0.01035 0.00010
2856.01099 1.48990 0.01490 0.01016 0.00010
2855.04590 1.48940 0.01489 0.00994 0.00010
2854.08105 1.48880 0.01489 0.00971 0.00010
2853.11499 1.48810 0.01488 0.00947 0.00009
2852.14990 1.48750 0.01487 0.00926 0.00009
2851.18506 1.48680 0.01487 0.00912 0.00009
2850.21997 1.48610 0.01486 0.00901 0.00009
2849.25488 1.48550 0.01485 0.00898 0.00009
2848.29004 1.48480 0.01485 0.00896 0.00009
2847.32495 1.48430 0.01484 0.00894 0.00009
2846.36011 1.48380 0.01484 0.00893 0.00009
2845.39502 1.48330 0.01483 0.00889 0.00009
2844.42993 1.48280 0.01483 0.00879 0.00009
2843.46509 1.48230 0.01482 0.00861 0.00009
2842.50000 1.48180 0.01482 0.00847 0.00008
2841.53394 1.48120 0.01481 0.00835 0.00008
2840.56909 1.48060 0.01481 0.00822 0.00008
2839.60400 1.48000 0.01480 0.00810 0.00008
2838.63892 1.47940 0.01479 0.00800 0.00008
2837.67407 1.47890 0.01479 0.00791 0.00008
2836.70898 1.47820 0.01478 0.00785 0.00008
2835.74390 1.47760 0.01478 0.00781 0.00008
2834.77905 1.47700 0.01477 0.00786 0.00008
2833.81396 1.47650 0.01476 0.00799 0.00008
2832.84912 1.47600 0.01476 0.00807 0.00008
2831.88403 1.47560 0.01476 0.00808 0.00008
2830.91797 1.47530 0.01475 0.00805 0.00008
2829.95288 1.47490 0.01475 0.00792 0.00008
2828.98804 1.47440 0.01474 0.00778 0.00008
2828.02295 1.47390 0.01474 0.00766 0.00008
2827.05811 1.47340 0.01473 0.00754 0.00008
2826.09302 1.47280 0.01473 0.00748 0.00007
2825.12793 1.47220 0.01472 0.00746 0.00007
2824.16309 1.47170 0.01472 0.00750 0.00007
2823.19800 1.47120 0.01471 0.00757 0.00008
2822.23291 1.47070 0.01471 0.00765 0.00008
2821.26807 1.47030 0.01470 0.00776 0.00008
2820.30200 1.46990 0.01470 0.00787 0.00008
2819.33691 1.46960 0.01470 0.00796 0.00008
2818.37207 1.46940 0.01469 0.00801 0.00008
2817.40698 1.46910 0.01469 0.00796 0.00008
2816.44189 1.46890 0.01469 0.00779 0.00008
2815.47705 1.46860 0.01469 0.00757 0.00008
2814.51196 1.46830 0.01468 0.00727 0.00007
2813.54712 1.46780 0.01468 0.00701 0.00007
2812.58203 1.46720 0.01467 0.00682 0.00007
2811.61694 1.46670 0.01467 0.00669 0.00007
2810.65210 1.46610 0.01466 0.00666 0.00007
2809.68701 1.46560 0.01466 0.00669 0.00007
2808.72095 1.46510 0.01465 0.00676 0.00007
2807.75610 1.46460 0.01465 0.00686 0.00007
2806.79102 1.46430 0.01464 0.00696 0.00007
2805.82593 1.46400 0.01464 0.00705 0.00007
2804.86108 1.46380 0.01464 0.00712 0.00007
2803.89600 1.46360 0.01464 0.00709 0.00007
2802.93091 1.46350 0.01463 0.00694 0.00007
2801.96606 1.46330 0.01463 0.00667 0.00007
2801.00098 1.46300 0.01463 0.00623 0.00006
2800.03589 1.46250 0.01462 0.00580 0.00006
2799.07104 1.46190 0.01462 0.00541 0.00005
2798.10498 1.46120 0.01461 0.00528 0.00005
2797.13989 1.46060 0.01461 0.00539 0.00005
2796.17505 1.46000 0.01460 0.00557 0.00006
2795.20996 1.45960 0.01460 0.00567 0.00006
2794.24512 1.45930 0.01459 0.00570 0.00006
2793.28003 1.45910 0.01459 0.00567 0.00006
2792.31494 1.45880 0.01459 0.00556 0.00006
2791.35010 1.45850 0.01458 0.00537 0.00005
2790.38501 1.45820 0.01458 0.00514 0.00005
2789.41992 1.45780 0.01458 0.00489 0.00005
2788.45508 1.45730 0.01457 0.00466 0.00005
2787.48901 1.45680 0.01457 0.00448 0.00004
2786.52393 1.45620 0.01456 0.00438 0.00004
2785.55908 1.45570 0.01456 0.00433 0.00004
2784.59399 1.45520 0.01455 0.00430 0.00004
2783.62891 1.45470 0.01455 0.00423 0.00004
2782.66406 1.45420 0.01454 0.00415 0.00004
2781.69897 1.45370 0.01454 0.00408 0.00004
2780.73389 1.45320 0.01453 0.00408 0.00004
2779.76904 1.45260 0.01453 0.00415 0.00004
2778.80396 1.45220 0.01452 0.00425 0.00004
2777.83911 1.45170 0.01452 0.00434 0.00004
2776.87402 1.45140 0.01451 0.00444 0.00004
2775.90796 1.45100 0.01451 0.00453 0.00005
2774.94312 1.45070 0.01451 0.00461 0.00005
2773.97803 1.45040 0.01450 0.00465 0.00005
2773.01294 1.45010 0.01450 0.00465 0.00005
2772.04810 1.44980 0.01450 0.00462 0.00005
2771.08301 1.44950 0.01449 0.00463 0.00005
2770.11792 1.44930 0.01449 0.00464 0.00005
2769.15308 1.44900 0.01449 0.00459 0.00005
2768.18799 1.44880 0.01449 0.00443 0.00004
2767.22290 1.44850 0.01448 0.00420 0.00004
2766.25806 1.44810 0.01448 0.00396 0.00004
2765.29199 1.44770 0.01448 0.00377 0.00004
2764.32690 1.44720 0.01447 0.00365 0.00004
2763.36206 1.44670 0.01447 0.00356 0.00004
2762.39697 1.44620 0.01446 0.00348 0.00003
2761.43188 1.44580 0.01446 0.00340 0.00003
2760.46704 1.44530 0.01445 0.00333 0.00003
2759.50195 1.44470 0.01445 0.00329 0.00003
2758.53711 1.44420 0.01444 0.00329 0.00003
2757.57202 1.44360 0.01444 0.00340 0.00003
2756.60693 1.44320 0.01443 0.00360 0.00004
2755.64209 1.44280 0.01443 0.00384 0.00004
2754.67700 1.44250 0.01442 0.00403 0.00004
2753.71094 1.44230 0.01442 0.00411 0.00004
2752.74609 1.44200 0.01442 0.00410 0.00004
2751.78101 1.44180 0.01442 0.00406 0.00004
2750.81592 1.44150 0.01441 0.00402 0.00004
2749.85107 1.44110 0.01441 0.00401 0.00004
2748.88599 1.44080 0.01441 0.00400 0.00004
2747.92090 1.44050 0.01441 0.00397 0.00004
2746.95605 1.44010 0.01440 0.00391 0.00004
2745.99097 1.43970 0.01440 0.00387 0.00004
2745.02588 1.43930 0.01439 0.00388 0.00004
2744.06104 1.43890 0.01439 0.00395 0.00004
2743.09497 1.43850 0.01438 0.00410 0.00004
2742.12988 1.43820 0.01438 0.00426 0.00004
2741.16504 1.43800 0.01438 0.00438 0.00004
2740.19995 1.43780 0.01438 0.00444 0.00004
2739.23511 1.43760 0.01438 0.00443 0.00004
2738.27002 1.43740 0.01437 0.00439 0.00004
2737.30493 1.43720 0.01437 0.00433 0.00004
2736.34009 1.43700 0.01437 0.00425 0.00004
2735.37500 1.43680 0.01437 0.00412 0.00004
2734.40991 1.43650 0.01436 0.00395 0.00004
2733.44507 1.43610 0.01436 0.00378 0.00004
2732.47900 1.43570 0.01436 0.00363 0.00004
2731.51392 1.43530 0.01435 0.00354 0.00004
2730.54907 1.43480 0.01435 0.00351 0.00004
2729.58398 1.43430 0.01434 0.00355 0.00004
2728.61890 1.43390 0.01434 0.00368 0.00004
2727.65405 1.43350 0.01433 0.00387 0.00004
2726.68896 1.43320 0.01433 0.00406 0.00004
2725.72412 1.43300 0.01433 0.00418 0.00004
2724.75903 1.43290 0.01433 0.00422 0.00004
2723.79395 1.43270 0.01433 0.00418 0.00004
2722.82910 1.43250 0.01432 0.00411 0.00004
2721.86401 1.43230 0.01432 0.00403 0.00004
2720.89795 1.43200 0.01432 0.00393 0.00004
2719.93311 1.43170 0.01432 0.00380 0.00004
2718.96802 1.43140 0.01431 0.00365 0.00004
2718.00293 1.43100 0.01431 0.00353 0.00004
2717.03809 1.43060 0.01431 0.00351 0.00004
2716.07300 1.43020 0.01430 0.00357 0.00004
2715.10791 1.42990 0.01430 0.00362 0.00004
2714.14307 1.42960 0.01430 0.00359 0.00004
2713.17798 1.42920 0.01429 0.00353 0.00004
2712.21289 1.42880 0.01429 0.00350 0.00004
2711.24805 1.42850 0.01429 0.00355 0.00004
2710.28198 1.42810 0.01428 0.00369 0.00004
2709.31689 1.42780 0.01428 0.00380 0.00004
2708.35205 1.42760 0.01428 0.00384 0.00004
2707.38696 1.42730 0.01427 0.00384 0.00004
2706.42212 1.42700 0.01427 0.00383 0.00004
2705.45703 1.42680 0.01427 0.00386 0.00004
2704.49194 1.42650 0.01426 0.00393 0.00004
2703.52710 1.42620 0.01426 0.00398 0.00004
2702.56201 1.42600 0.01426 0.00400 0.00004
2701.59692 1.42580 0.01426 0.00400 0.00004
2700.63208 1.42560 0.01426 0.00399 0.00004
2699.66602 1.42540 0.01425 0.00394 0.00004
2698.70093 1.42520 0.01425 0.00383 0.00004
2697.73608 1.42490 0.01425 0.00368 0.00004
2696.77100 1.42460 0.01425 0.00350 0.00004
2695.80591 1.42420 0.01424 0.00337 0.00003
2694.84106 1.42370 0.01424 0.00333 0.00003
2693.87598 1.42330 0.01423 0.00334 0.00003
2692.91089 1.42290 0.01423 0.00339 0.00003
2691.94604 1.42250 0.01422 0.00346 0.00003
2690.98096 1.42210 0.01422 0.00354 0.00004
2690.01611 1.42170 0.01422 0.00364 0.00004
2689.05103 1.42140 0.01421 0.00377 0.00004
2688.08496 1.42100 0.01421 0.00391 0.00004
2687.12012 1.42070 0.01421 0.00404 0.00004
2686.15503 1.42040 0.01420 0.00417 0.00004
2685.18994 1.42020 0.01420 0.00433 0.00004
2684.22510 1.42000 0.01420 0.00451 0.00005
2683.26001 1.41980 0.01420 0.00469 0.00005
2682.29492 1.41970 0.01420 0.00480 0.00005
2681.33008 1.41960 0.01420 0.00483 0.00005
2680.36499 1.41950 0.01419 0.00481 0.00005
2679.39990 1.41930 0.01419 0.00477 0.00005
2678.43506 1.41910 0.01419 0.00474 0.00005
2677.46899 1.41890 0.01419 0.00473 0.00005
2676.50391 1.41870 0.01419 0.00469 0.00005
2675.53906 1.41850 0.01418 0.00462 0.00005
2674.57397 1.41830 0.01418 0.00453 0.00005
2673.60889 1.41800 0.01418 0.00444 0.00004
2672.64404 1.41770 0.01418 0.00436 0.00004
2671.67896 1.41730 0.01417 0.00432 0.00004
2670.71411 1.41700 0.01417 0.00433 0.00004
2669.74902 1.41660 0.01417 0.00438 0.00004
2668.78394 1.41630 0.01416 0.00446 0.00004
2667.81909 1.41600 0.01416 0.00454 0.00005
2666.85400 1.41580 0.01416 0.00462 0.00005
2665.88794 1.41550 0.01416 0.00470 0.00005
2664.92310 1.41530 0.01415 0.00478 0.00005
2663.95801 1.41500 0.01415 0.00487 0.00005
2662.99292 1.41480 0.01415 0.00495 0.00005
2662.02808 1.41460 0.01415 0.00501 0.00005
2661.06299 1.41440 0.01414 0.00507 0.00005
2660.09790 1.41420 0.01414 0.00513 0.00005
2659.13306 1.41410 0.01414 0.00517 0.00005
2658.16797 1.41390 0.01414 0.00519 0.00005
2657.20288 1.41380 0.01414 0.00516 0.00005
2656.23804 1.41360 0.01414 0.00511 0.00005
2655.27197 1.41340 0.01413 0.00505 0.00005
2654.30688 1.41310 0.01413 0.00502 0.00005
2653.34204 1.41290 0.01413 0.00501 0.00005
2652.37695 1.41260 0.01413 0.00500 0.00005
2651.41211 1.41240 0.01412 0.00500 0.00005
2650.44702 1.41220 0.01412 0.00499 0.00005
2649.48193 1.41190 0.01412 0.00495 0.00005
2648.51709 1.41170 0.01412 0.00488 0.00005
2647.55200 1.41140 0.01411 0.00484 0.00005
2646.58691 1.41100 0.01411 0.00485 0.00005
2645.62207 1.41070 0.01411 0.00492 0.00005
2644.65601 1.41040 0.01410 0.00503 0.00005
2643.69092 1.41020 0.01410 0.00512 0.00005
2642.72607 1.41000 0.01410 0.00518 0.00005
2641.76099 1.40980 0.01410 0.00521 0.00005
2640.79590 1.40960 0.01410 0.00523 0.00005
2639.83105 1.40930 0.01409 0.00527 0.00005
2638.86597 1.40910 0.01409 0.00535 0.00005
2637.90088 1.40890 0.01409 0.00543 0.00005
2636.93604 1.40880 0.01409 0.00549 0.00005
2635.97095 1.40860 0.01409 0.00549 0.00005
2635.00610 1.40850 0.01408 0.00543 0.00005
2634.04102 1.40830 0.01408 0.00534 0.00005
2633.07495 1.40800 0.01408 0.00524 0.00005
2632.11011 1.40770 0.01408 0.00518 0.00005
2631.14502 1.40740 0.01407 0.00517 0.00005
2630.17993 1.40700 0.01407 0.00522 0.00005
2629.21509 1.40670 0.01407 0.00530 0.00005
2628.25000 1.40640 0.01406 0.00536 0.00005
2627.28491 1.40620 0.01406 0.00540 0.00005
2626.32007 1.40590 0.01406 0.00547 0.00005
2625.35498 1.40560 0.01406 0.00561 0.00006
2624.38989 1.40540 0.01405 0.00579 0.00006
2623.42505 1.40520 0.01405 0.00596 0.00006
2622.45898 1.40500 0.01405 0.00608 0.00006
2621.49390 1.40490 0.01405 0.00612 0.00006
2620.52905 1.40470 0.01405 0.00616 0.00006
2619.56396 1.40460 0.01405 0.00622 0.00006
2618.59912 1.40440 0.01404 0.00630 0.00006
2617.63403 1.40430 0.01404 0.00638 0.00006
2616.66895 1.40420 0.01404 0.00644 0.00006
2615.70410 1.40410 0.01404 0.00644 0.00006
2614.73901 1.40400 0.01404 0.00639 0.00006
2613.77393 1.40390 0.01404 0.00628 0.00006
2612.80908 1.40370 0.01404 0.00614 0.00006
2611.84302 1.40340 0.01403 0.00601 0.00006
2610.87793 1.40310 0.01403 0.00594 0.00006
2609.91309 1.40280 0.01403 0.00593 0.00006
2608.94800 1.40250 0.01402 0.00592 0.00006
2607.98291 1.40220 0.01402 0.00589 0.00006
2607.01807 1.40190 0.01402 0.00587 0.00006
2606.05298 1.40150 0.01401 0.00590 0.00006
2605.08789 1.40110 0.01401 0.00603 0.00006
2604.12305 1.40080 0.01401 0.00624 0.00006
2603.15796 1.40060 0.01401 0.00647 0.00006
2602.19312 1.40040 0.01400 0.00667 0.00007
2601.22803 1.40030 0.01400 0.00685 0.00007
2600.26196 1.40020 0.01400 0.00698 0.00007
2599.29712 1.40010 0.01400 0.00704 0.00007
2598.33203 1.40000 0.01400 0.00703 0.00007
2597.36694 1.39990 0.01400 0.00699 0.00007
2596.40210 1.39970 0.01400 0.00696 0.00007
2595.43701 1.39950 0.01400 0.00694 0.00007
2594.47192 1.39930 0.01399 0.00693 0.00007
2593.50708 1.39910 0.01399 0.00692 0.00007
2592.54199 1.39880 0.01399 0.00692 0.00007
2591.57690 1.39850 0.01398 0.00695 0.00007
2590.61206 1.39820 0.01398 0.00704 0.00007
2589.64600 1.39790 0.01398 0.00719 0.00007
2588.68091 1.39770 0.01398 0.00739 0.00007
2587.71606 1.39750 0.01398 0.00761 0.00008
2586.75098 1.39740 0.01397 0.00780 0.00008
2585.78589 1.39740 0.01397 0.00795 0.00008
2584.82104 1.39740 0.01397 0.00803 0.00008
2583.85596 1.39740 0.01397 0.00805 0.00008
2582.89111 1.39730 0.01397 0.00800 0.00008
2581.92603 1.39720 0.01397 0.00790 0.00008
2580.96094 1.39710 0.01397 0.00776 0.00008
2579.99609 1.39690 0.01397 0.00764 0.00008
2579.03101 1.39660 0.01397 0.00755 0.00008
2578.06494 1.39630 0.01396 0.00750 0.00007
2577.10010 1.39600 0.01396 0.00750 0.00007
2576.13501 1.39570 0.01396 0.00757 0.00008
2575.16992 1.39540 0.01395 0.00770 0.00008
2574.20508 1.39520 0.01395 0.00785 0.00008
2573.23999 1.39500 0.01395 0.00799 0.00008
2572.27490 1.39480 0.01395 0.00809 0.00008
2571.31006 1.39470 0.01395 0.00815 0.00008
2570.34497 1.39450 0.01395 0.00820 0.00008
2569.37988 1.39430 0.01394 0.00827 0.00008
2568.41504 1.39410 0.01394 0.00836 0.00008
2567.44897 1.39400 0.01394 0.00846 0.00008
2566.48389 1.39380 0.01394 0.00854 0.00009
2565.51904 1.39360 0.01394 0.00861 0.00009
2564.55396 1.39350 0.01393 0.00868 0.00009
2563.58911 1.39330 0.01393 0.00877 0.00009
2562.62402 1.39320 0.01393 0.00891 0.00009
2561.65894 1.39310 0.01393 0.00905 0.00009
2560.69409 1.39300 0.01393 0.00914 0.00009
2559.72900 1.39300 0.01393 0.00917 0.00009
2558.76392 1.39290 0.01393 0.00912 0.00009
2557.79907 1.39280 0.01393 0.00904 0.00009
2556.83301 1.39270 0.01393 0.00899 0.00009
2555.86792 1.39250 0.01393 0.00896 0.00009
2554.90308 1.39230 0.01392 0.00893 0.00009
2553.93799 1.39210 0.01392 0.00889 0.00009
2552.97290 1.39190 0.01392 0.00885 0.00009
2552.00806 1.39170 0.01392 0.00884 0.00009
2551.04297 1.39140 0.01391 0.00887 0.00009
2550.07788 1.39110 0.01391 0.00893 0.00009
2549.11304 1.39090 0.01391 0.00901 0.00009
2548.14795 1.39070 0.01391 0.00909 0.00009
2547.18311 1.39050 0.01390 0.00920 0.00009
2546.21802 1.39030 0.01390 0.00930 0.00009
2545.25195 1.39010 0.01390 0.00935 0.00009
2544.28711 1.38990 0.01390 0.00937 0.00009
2543.32202 1.38970 0.01390 0.00942 0.00009
2542.35693 1.38950 0.01390 0.00954 0.00010
2541.39209 1.38930 0.01389 0.00973 0.00010
2540.42700 1.38910 0.01389 0.00994 0.00010
2539.46191 1.38900 0.01389 0.01009 0.00010
2538.49707 1.38900 0.01389 0.01016 0.00010
2537.53198 1.38890 0.01389 0.01020 0.00010
2536.56689 1.38880 0.01389 0.01025 0.00010
2535.60205 1.38860 0.01389 0.01033 0.00010
2534.63599 1.38850 0.01388 0.01042 0.00010
2533.67090 1.38840 0.01388 0.01048 0.00010
2532.70605 1.38830 0.01388 0.01051 0.00011
2531.74097 1.38820 0.01388 0.01051 0.00011
2530.77588 1.38810 0.01388 0.01052 0.00011
2529.81104 1.38790 0.01388 0.01054 0.00011
2528.84595 1.38780 0.01388 0.01058 0.00011
2527.88110 1.38760 0.01388 0.01064 0.00011
2526.91602 1.38740 0.01387 0.01070 0.00011
2525.95093 1.38730 0.01387 0.01074 0.00011
2524.98608 1.38710 0.01387 0.01079 0.00011
2524.02100 1.38690 0.01387 0.01087 0.00011
2523.05493 1.38680 0.01387 0.01097 0.00011
2522.09009 1.38670 0.01387 0.01107 0.00011
2521.12500 1.38650 0.01386 0.01115 0.00011
2520.15991 1.38640 0.01386 0.01122 0.00011
2519.19507 1.38630 0.01386 0.01129 0.00011
2518.22998 1.38630 0.01386 0.01137 0.00011
2517.26489 1.38620 0.01386 0.01144 0.00011
2516.30005 1.38610 0.01386 0.01144 0.00011
2515.33496 1.38600 0.01386 0.01141 0.00011
2514.37012 1.38580 0.01386 0.01142 0.00011
2513.40503 1.38570 0.01386 0.01148 0.00011
2512.43896 1.38560 0.01386 0.01154 0.00012
2511.47412 1.38550 0.01385 0.01156 0.00012
2510.50903 1.38530 0.01385 0.01152 0.00012
2509.54395 1.38520 0.01385 0.01148 0.00011
2508.57910 1.38490 0.01385 0.01149 0.00011
2507.61401 1.38470 0.01385 0.01157 0.00012
2506.64893 1.38450 0.01385 0.01170 0.00012
2505.68408 1.38430 0.01384 0.01184 0.00012
2504.71899 1.38420 0.01384 0.01198 0.00012
2503.75391 1.38410 0.01384 0.01212 0.00012
2502.78906 1.38410 0.01384 0.01225 0.00012
2501.82300 1.38410 0.01384 0.01236 0.00012
2500.85791 1.38400 0.01384 0.01240 0.00012
2499.89307 1.38400 0.01384 0.01240 0.00012
2498.92798 1.38400 0.01384 0.01239 0.00012
2497.96289 1.38400 0.01384 0.01238 0.00012
2496.99805 1.38390 0.01384 0.01232 0.00012
2496.03296 1.38380 0.01384 0.01219 0.00012
2495.06812 1.38370 0.01384 0.01203 0.00012
2494.10303 1.38340 0.01383 0.01190 0.00012
2493.13794 1.38320 0.01383 0.01185 0.00012
2492.17310 1.38290 0.01383 0.01189 0.00012
2491.20801 1.38260 0.01383 0.01198 0.00012
2490.24194 1.38230 0.01382 0.01210 0.00012
2489.27710 1.38220 0.01382 0.01223 0.00012
2488.31201 1.38200 0.01382 0.01238 0.00012
2487.34692 1.38190 0.01382 0.01251 0.00013
2486.38208 1.38180 0.01382 0.01264 0.00013
2485.41699 1.38170 0.01382 0.01274 0.00013
2484.45190 1.38160 0.01382 0.01281 0.00013
2483.48706 1.38160 0.01382 0.01284 0.00013
2482.52197 1.38150 0.01381 0.01285 0.00013
2481.55688 1.38140 0.01381 0.01284 0.00013
2480.59204 1.38130 0.01381 0.01282 0.00013
2479.62598 1.38120 0.01381 0.01277 0.00013
2478.66089 1.38100 0.01381 0.01273 0.00013
2477.69604 1.38080 0.01381 0.01273 0.00013
2476.73096 1.38060 0.01381 0.01276 0.00013
2475.76611 1.38040 0.01380 0.01282 0.00013
2474.80103 1.38020 0.01380 0.01289 0.00013
2473.83594 1.38000 0.01380 0.01296 0.00013
2472.87109 1.37980 0.01380 0.01303 0.00013
2471.90601 1.37960 0.01380 0.01315 0.00013
2470.94092 1.37940 0.01379 0.01328 0.00013
2469.97607 1.37920 0.01379 0.01338 0.00013
2469.01001 1.37910 0.01379 0.01346 0.00013
2468.04492 1.37890 0.01379 0.01359 0.00014
2467.08008 1.37870 0.01379 0.01376 0.00014
2466.11499 1.37860 0.01379 0.01398 0.00014
2465.14990 1.37850 0.01378 0.01419 0.00014
2464.18506 1.37850 0.01378 0.01433 0.00014
2463.21997 1.37850 0.01378 0.01442 0.00014
2462.25488 1.37850 0.01378 0.01452 0.00015
2461.29004 1.37840 0.01378 0.01463 0.00015
2460.32495 1.37840 0.01378 0.01473 0.00015
2459.36011 1.37850 0.01378 0.01477 0.00015
2458.39502 1.37850 0.01378 0.01477 0.00015
2457.42896 1.37840 0.01378 0.01474 0.00015
2456.46411 1.37840 0.01378 0.01470 0.00015
2455.49902 1.37830 0.01378 0.01466 0.00015
2454.53394 1.37820 0.01378 0.01461 0.00015
2453.56909 1.37810 0.01378 0.01454 0.00015
2452.60400 1.37790 0.01378 0.01450 0.00014
2451.63892 1.37770 0.01378 0.01448 0.00014
2450.67407 1.37760 0.01378 0.01449 0.00014
2449.70898 1.37740 0.01377 0.01454 0.00015
2448.74390 1.37720 0.01377 0.01460 0.00015
2447.77905 1.37700 0.01377 0.01467 0.00015
2446.81299 1.37690 0.01377 0.01476 0.00015
2445.84790 1.37670 0.01377 0.01486 0.00015
2444.88306 1.37660 0.01377 0.01495 0.00015
2443.91797 1.37650 0.01376 0.01501 0.00015
2442.95288 1.37640 0.01376 0.01505 0.00015
2441.98804 1.37620 0.01376 0.01507 0.00015
2441.02295 1.37610 0.01376 0.01513 0.00015
2440.05811 1.37590 0.01376 0.01522 0.00015
2439.09302 1.37570 0.01376 0.01538 0.00015
2438.12793 1.37560 0.01376 0.01555 0.00016
2437.16309 1.37560 0.01376 0.01567 0.00016
2436.19800 1.37550 0.01375 0.01574 0.00016
2435.23193 1.37540 0.01375 0.01579 0.00016
2434.26709 1.37530 0.01375 0.01586 0.00016
2433.30200 1.37520 0.01375 0.01597 0.00016
2432.33691 1.37510 0.01375 0.01610 0.00016
2431.37207 1.37510 0.01375 0.01621 0.00016
2430.40698 1.37500 0.01375 0.01629 0.00016
2429.44189 1.37500 0.01375 0.01635 0.00016
2428.47705 1.37490 0.01375 0.01639 0.00016
2427.51196 1.37480 0.01375 0.01642 0.00016
2426.54712 1.37480 0.01375 0.01647 0.00016
2425.58203 1.37470 0.01375 0.01655 0.00017
2424.61597 1.37460 0.01375 0.01664 0.00017
2423.65088 1.37460 0.01375 0.01673 0.00017
2422.68604 1.37460 0.01375 0.01677 0.00017
2421.72095 1.37460 0.01375 0.01677 0.00017
2420.75610 1.37450 0.01374 0.01674 0.00017
2419.79102 1.37450 0.01374 0.01672 0.00017
2418.82593 1.37440 0.01374 0.01672 0.00017
2417.86108 1.37440 0.01374 0.01674 0.00017
2416.89600 1.37430 0.01374 0.01674 0.00017
2415.93091 1.37430 0.01374 0.01667 0.00017
2414.96606 1.37420 0.01374 0.01655 0.00017
2414.00000 1.37410 0.01374 0.01642 0.00016
2413.03491 1.37390 0.01374 0.01631 0.00016
2412.07007 1.37360 0.01374 0.01625 0.00016
2411.10498 1.37340 0.01373 0.01623 0.00016
2410.13989 1.37310 0.01373 0.01625 0.00016
2409.17505 1.37290 0.01373 0.01632 0.00016
2408.20996 1.37260 0.01373 0.01641 0.00016
2407.24512 1.37240 0.01372 0.01653 0.00017
2406.28003 1.37220 0.01372 0.01663 0.00017
2405.31494 1.37200 0.01372 0.01674 0.00017
2404.35010 1.37180 0.01372 0.01691 0.00017
2403.38501 1.37170 0.01372 0.01712 0.00017
2402.41895 1.37160 0.01372 0.01734 0.00017
2401.45410 1.37150 0.01371 0.01753 0.00018
2400.48901 1.37140 0.01371 0.01765 0.00018
2399.52393 1.37140 0.01371 0.01774 0.00018
2398.55908 1.37140 0.01371 0.01785 0.00018
2397.59399 1.37140 0.01371 0.01796 0.00018
2396.62891 1.37130 0.01371 0.01801 0.00018
2395.66406 1.37130 0.01371 0.01802 0.00018
2394.69897 1.37120 0.01371 0.01802 0.00018
2393.73389 1.37120 0.01371 0.01802 0.00018
2392.76904 1.37110 0.01371 0.01806 0.00018
2391.80298 1.37100 0.01371 0.01808 0.00018
2390.83789 1.37090 0.01371 0.01805 0.00018
2389.87305 1.37070 0.01371 0.01800 0.00018
2388.90796 1.37050 0.01370 0.01801 0.00018
2387.94312 1.37030 0.01370 0.01807 0.00018
2386.97803 1.37010 0.01370 0.01816 0.00018
2386.01294 1.36990 0.01370 0.01827 0.00018
2385.04810 1.36970 0.01370 0.01839 0.00018
2384.08301 1.36950 0.01369 0.01855 0.00019
2383.11792 1.36940 0.01369 0.01879 0.00019
2382.15308 1.36930 0.01369 0.01902 0.00019
2381.18701 1.36930 0.01369 0.01917 0.00019
2380.22192 1.36930 0.01369 0.01924 0.00019
2379.25708 1.36930 0.01369 0.01927 0.00019
2378.29199 1.36920 0.01369 0.01929 0.00019
2377.32690 1.36910 0.01369 0.01935 0.00019
2376.36206 1.36900 0.01369 0.01943 0.00019
2375.39697 1.36880 0.01369 0.01951 0.00020
2374.43188 1.36870 0.01369 0.01960 0.00020
2373.46704 1.36860 0.01369 0.01973 0.00020
2372.50195 1.36840 0.01368 0.01988 0.00020
2371.53711 1.36830 0.01368 0.02001 0.00020
2370.57202 1.36820 0.01368 0.02014 0.00020
2369.60596 1.36810 0.01368 0.02027 0.00020
2368.64111 1.36810 0.01368 0.02043 0.00020
2367.67603 1.36800 0.01368 0.02061 0.00021
2366.71094 1.36790 0.01368 0.02078 0.00021
2365.74609 1.36790 0.01368 0.02093 0.00021
2364.78101 1.36790 0.01368 0.02105 0.00021
2363.81592 1.36790 0.01368 0.02117 0.00021
2362.85107 1.36790 0.01368 0.02127 0.00021
2361.88599 1.36790 0.01368 0.02137 0.00021
2360.92090 1.36790 0.01368 0.02146 0.00021
2359.95605 1.36790 0.01368 0.02157 0.00022
2358.98999 1.36790 0.01368 0.02168 0.00022
2358.02490 1.36790 0.01368 0.02176 0.00022
2357.06006 1.36800 0.01368 0.02179 0.00022
2356.09497 1.36800 0.01368 0.02174 0.00022
2355.12988 1.36790 0.01368 0.02168 0.00022
2354.16504 1.36790 0.01368 0.02164 0.00022
2353.19995 1.36770 0.01368 0.02163 0.00022
2352.23511 1.36760 0.01368 0.02165 0.00022
2351.27002 1.36740 0.01367 0.02171 0.00022
2350.30493 1.36730 0.01367 0.02182 0.00022
2349.34009 1.36720 0.01367 0.02194 0.00022
2348.37500 1.36710 0.01367 0.02203 0.00022
2347.40894 1.36700 0.01367 0.02212 0.00022
2346.44409 1.36690 0.01367 0.02224 0.00022
2345.47900 1.36680 0.01367 0.02240 0.00022
2344.51392 1.36680 0.01367 0.02258 0.00023
2343.54907 1.36680 0.01367 0.02273 0.00023
2342.58398 1.36690 0.01367 0.02277 0.00023
2341.61890 1.36690 0.01367 0.02274 0.00023
2340.65405 1.36690 0.01367 0.02268 0.00023
2339.68896 1.36680 0.01367 0.02264 0.00023
2338.72412 1.36660 0.01367 0.02268 0.00023
2337.75903 1.36650 0.01366 0.02277 0.00023
2336.79297 1.36640 0.01366 0.02288 0.00023
2335.82788 1.36630 0.01366 0.02297 0.00023
2334.86304 1.36620 0.01366 0.02305 0.00023
2333.89795 1.36610 0.01366 0.02312 0.00023
2332.93311 1.36600 0.01366 0.02314 0.00023
2331.96802 1.36590 0.01366 0.02319 0.00023
2331.00293 1.36570 0.01366 0.02332 0.00023
2330.03809 1.36560 0.01366 0.02350 0.00023
2329.07300 1.36550 0.01365 0.02368 0.00024
2328.10791 1.36550 0.01365 0.02383 0.00024
2327.14307 1.36540 0.01365 0.02390 0.00024
2326.17700 1.36540 0.01365 0.02395 0.00024
2325.21191 1.36530 0.01365 0.02403 0.00024
2324.24707 1.36520 0.01365 0.02413 0.00024
2323.28198 1.36510 0.01365 0.02426 0.00024
2322.31689 1.36500 0.01365 0.02442 0.00024
2321.35205 1.36490 0.01365 0.02459 0.00025
2320.38696 1.36480 0.01365 0.02477 0.00025
2319.42212 1.36480 0.01365 0.02495 0.00025
2318.45703 1.36480 0.01365 0.02512 0.00025
2317.49194 1.36480 0.01365 0.02526 0.00025
2316.52710 1.36480 0.01365 0.02538 0.00025
2315.56201 1.36480 0.01365 0.02550 0.00025
2314.59595 1.36480 0.01365 0.02561 0.00026
2313.63110 1.36480 0.01365 0.02570 0.00026
2312.66602 1.36480 0.01365 0.02576 0.00026
2311.70093 1.36480 0.01365 0.02579 0.00026
2310.73608 1.36470 0.01365 0.02583 0.00026
2309.77100 1.36460 0.01365 0.02588 0.00026
2308.80591 1.36450 0.01364 0.02596 0.00026
2307.84106 1.36430 0.01364 0.02606 0.00026
2306.87598 1.36420 0.01364 0.02621 0.00026
2305.91089 1.36400 0.01364 0.02644 0.00026
2304.94604 1.36390 0.01364 0.02671 0.00027
2303.97998 1.36390 0.01364 0.02700 0.00027
2303.01489 1.36390 0.01364 0.02728 0.00027
2302.05005 1.36400 0.01364 0.02753 0.00028
2301.08496 1.36410 0.01364 0.02774 0.00028
2300.12012 1.36420 0.01364 0.02790 0.00028
2299.15503 1.36440 0.01364 0.02802 0.00028
2298.18994 1.36450 0.01364 0.02807 0.00028
2297.22510 1.36450 0.01364 0.02809 0.00028
2296.26001 1.36460 0.01365 0.02813 0.00028
2295.29492 1.36460 0.01365 0.02817 0.00028
2294.33008 1.36460 0.01365 0.02823 0.00028
2293.36401 1.36450 0.01364 0.02829 0.00028
2292.39893 1.36450 0.01364 0.02837 0.00028
2291.43408 1.36440 0.01364 0.02849 0.00028
2290.46899 1.36440 0.01364 0.02865 0.00029
2289.50391 1.36440 0.01364 0.02881 0.00029
2288.53906 1.36440 0.01364 0.02894 0.00029
2287.57397 1.36440 0.01364 0.02907 0.00029
2286.60889 1.36450 0.01364 0.02922 0.00029
2285.64404 1.36450 0.01364 0.02937 0.00029
2284.67896 1.36460 0.01365 0.02951 0.00030
2283.71411 1.36460 0.01365 0.02962 0.00030
2282.74902 1.36470 0.01365 0.02971 0.00030
2281.78296 1.36480 0.01365 0.02979 0.00030
2280.81812 1.36480 0.01365 0.02987 0.00030
2279.85303 1.36490 0.01365 0.02994 0.00030
2278.88794 1.36490 0.01365 0.02997 0.00030
2277.92310 1.36480 0.01365 0.03002 0.00030
2276.95801 1.36480 0.01365 0.03014 0.00030
2275.99292 1.36480 0.01365 0.03029 0.00030
2275.02808 1.36490 0.01365 0.03044 0.00030
2274.06299 1.36490 0.01365 0.03056 0.00031
2273.09790 1.36490 0.01365 0.03061 0.00031
2272.13306 1.36490 0.01365 0.03068 0.00031
2271.16699 1.36490 0.01365 0.03083 0.00031
2270.20190 1.36490 0.01365 0.03102 0.00031
2269.23706 1.36500 0.01365 0.03120 0.00031
2268.27197 1.36510 0.01365 0.03138 0.00031
2267.30688 1.36520 0.01365 0.03153 0.00032
2266.34204 1.36530 0.01365 0.03164 0.00032
2265.37695 1.36540 0.01365 0.03170 0.00032
2264.41211 1.36550 0.01365 0.03173 0.00032
2263.44702 1.36560 0.01366 0.03177 0.00032
2262.48193 1.36560 0.01366 0.03184 0.00032
2261.51709 1.36560 0.01366 0.03199 0.00032
2260.55200 1.36560 0.01366 0.03216 0.00032
2259.58594 1.36570 0.01366 0.03230 0.00032
2258.62109 1.36580 0.01366 0.03243 0.00032
2257.65601 1.36590 0.01366 0.03256 0.00033
2256.69092 1.36600 0.01366 0.03270 0.00033
2255.72607 1.36620 0.01366 0.03286 0.00033
2254.76099 1.36630 0.01366 0.03300 0.00033
2253.79590 1.36650 0.01366 0.03308 0.00033
2252.83105 1.36670 0.01367 0.03312 0.00033
2251.86597 1.36690 0.01367 0.03314 0.00033
2250.90088 1.36710 0.01367 0.03314 0.00033
2249.93604 1.36720 0.01367 0.03313 0.00033
2248.96997 1.36730 0.01367 0.03311 0.00033
2248.00488 1.36740 0.01367 0.03309 0.00033
2247.04004 1.36750 0.01367 0.03309 0.00033
2246.07495 1.36750 0.01367 0.03311 0.00033
2245.11011 1.36760 0.01368 0.03316 0.00033
2244.14502 1.36760 0.01368 0.03321 0.00033
2243.17993 1.36770 0.01368 0.03326 0.00033
2242.21509 1.36770 0.01368 0.03334 0.00033
2241.25000 1.36780 0.01368 0.03342 0.00033
2240.28491 1.36790 0.01368 0.03351 0.00034
2239.32007 1.36800 0.01368 0.03360 0.00034
2238.35400 1.36810 0.01368 0.03368 0.00034
2237.38892 1.36830 0.01368 0.03377 0.00034
2236.42407 1.36840 0.01368 0.03387 0.00034
2235.45898 1.36860 0.01369 0.03397 0.00034
2234.49390 1.36880 0.01369 0.03404 0.00034
2233.52905 1.36900 0.01369 0.03407 0.00034
2232.56396 1.36920 0.01369 0.03403 0.00034
2231.59912 1.36940 0.01369 0.03397 0.00034
2230.63403 1.36960 0.01370 0.03393 0.00034
2229.66895 1.36970 0.01370 0.03388 0.00034
2228.70410 1.36980 0.01370 0.03382 0.00034
2227.73901 1.36990 0.01370 0.03376 0.00034
2226.77295 1.37000 0.01370 0.03370 0.00034
2225.80811 1.37010 0.01370 0.03367 0.00034
2224.84302 1.37010 0.01370 0.03369 0.00034
2223.87793 1.37020 0.01370 0.03374 0.00034
2222.91309 1.37030 0.01370 0.03378 0.00034
2221.94800 1.37040 0.01370 0.03384 0.00034
2220.98291 1.37060 0.01371 0.03394 0.00034
2220.01807 1.37080 0.01371 0.03402 0.00034
2219.05298 1.37100 0.01371 0.03404 0.00034
2218.08789 1.37130 0.01371 0.03401 0.00034
2217.12305 1.37150 0.01371 0.03390 0.00034
2216.15698 1.37170 0.01372 0.03378 0.00034
2215.19189 1.37180 0.01372 0.03372 0.00034
2214.22705 1.37200 0.01372 0.03365 0.00034
2213.26196 1.37220 0.01372 0.03354 0.00034
2212.29712 1.37230 0.01372 0.03341 0.00033
2211.33203 1.37250 0.01372 0.03327 0.00033
2210.36694 1.37260 0.01373 0.03313 0.00033
2209.40210 1.37270 0.01373 0.03302 0.00033
2208.43701 1.37270 0.01373 0.03292 0.00033
2207.47192 1.37280 0.01373 0.03283 0.00033
2206.50708 1.37290 0.01373 0.03277 0.00033
2205.54102 1.37300 0.01373 0.03274 0.00033
2204.57593 1.37310 0.01373 0.03270 0.00033
2203.61108 1.37330 0.01373 0.03262 0.00033
2202.64600 1.37340 0.01373 0.03251 0.00033
2201.68091 1.37360 0.01374 0.03236 0.00032
2200.71606 1.37370 0.01374 0.03223 0.00032
2199.75098 1.37380 0.01374 0.03217 0.00032
2198.78589 1.37390 0.01374 0.03210 0.00032
2197.82104 1.37410 0.01374 0.03198 0.00032
2196.85596 1.37420 0.01374 0.03182 0.00032
2195.89111 1.37430 0.01374 0.03161 0.00032
2194.92603 1.37440 0.01374 0.03141 0.00031
2193.95996 1.37450 0.01374 0.03127 0.00031
2192.99512 1.37450 0.01374 0.03116 0.00031
2192.03003 1.37460 0.01375 0.03106 0.00031
2191.06494 1.37470 0.01375 0.03093 0.00031
2190.10010 1.37480 0.01375 0.03073 0.00031
2189.13501 1.37490 0.01375 0.03051 0.00031
2188.16992 1.37490 0.01375 0.03032 0.00030
2187.20508 1.37490 0.01375 0.03016 0.00030
2186.23999 1.37490 0.01375 0.03007 0.00030
2185.27490 1.37490 0.01375 0.02999 0.00030
2184.31006 1.37500 0.01375 0.02991 0.00030
2183.34399 1.37500 0.01375 0.02982 0.00030
2182.37891 1.37510 0.01375 0.02972 0.00030
2181.41406 1.37520 0.01375 0.02960 0.00030
2180.44897 1.37530 0.01375 0.02948 0.00029
2179.48389 1.37540 0.01375 0.02935 0.00029
2178.51904 1.37550 0.01375 0.02925 0.00029
2177.55396 1.37560 0.01376 0.02912 0.00029
2176.58911 1.37580 0.01376 0.02894 0.00029
2175.62402 1.37590 0.01376 0.02870 0.00029
2174.65894 1.37600 0.01376 0.02839 0.00028
2173.69409 1.37600 0.01376 0.02807 0.00028
2172.72900 1.37600 0.01376 0.02780 0.00028
2171.76294 1.37600 0.01376 0.02756 0.00028
2170.79810 1.37590 0.01376 0.02734 0.00027
2169.83301 1.37590 0.01376 0.02713 0.00027
2168.86792 1.37580 0.01376 0.02691 0.00027
2167.90308 1.37570 0.01376 0.02673 0.00027
2166.93799 1.37560 0.01376 0.02660 0.00027
2165.97290 1.37550 0.01375 0.02650 0.00026
2165.00806 1.37540 0.01375 0.02641 0.00026
2164.04297 1.37530 0.01375 0.02634 0.00026
2163.07788 1.37530 0.01375 0.02629 0.00026
2162.11304 1.37530 0.01375 0.02625 0.00026
2161.14697 1.37530 0.01375 0.02621 0.00026
2160.18188 1.37530 0.01375 0.02618 0.00026
2159.21704 1.37540 0.01375 0.02614 0.00026
2158.25195 1.37550 0.01375 0.02608 0.00026
2157.28711 1.37570 0.01376 0.02595 0.00026
2156.32202 1.37580 0.01376 0.02576 0.00026
2155.35693 1.37590 0.01376 0.02550 0.00025
2154.39209 1.37600 0.01376 0.02521 0.00025
2153.42700 1.37600 0.01376 0.02493 0.00025
2152.46191 1.37600 0.01376 0.02464 0.00025
2151.49707 1.37600 0.01376 0.02434 0.00024
2150.53101 1.37590 0.01376 0.02406 0.00024
2149.56592 1.37580 0.01376 0.02382 0.00024
2148.60107 1.37570 0.01376 0.02362 0.00024
2147.63599 1.37560 0.01376 0.02348 0.00023
2146.67090 1.37550 0.01375 0.02334 0.00023
2145.70605 1.37540 0.01375 0.02318 0.00023
2144.74097 1.37540 0.01375 0.02303 0.00023
2143.77588 1.37530 0.01375 0.02288 0.00023
2142.81104 1.37530 0.01375 0.02273 0.00023
2141.84595 1.37530 0.01375 0.02257 0.00023
2140.88110 1.37520 0.01375 0.02237 0.00022
2139.91602 1.37520 0.01375 0.02210 0.00022
2138.94995 1.37520 0.01375 0.02182 0.00022
2137.98511 1.37500 0.01375 0.02154 0.00022
2137.02002 1.37480 0.01375 0.02127 0.00021
2136.05493 1.37460 0.01375 0.02103 0.00021
2135.09009 1.37440 0.01374 0.02085 0.00021
2134.12500 1.37420 0.01374 0.02075 0.00021
2133.15991 1.37400 0.01374 0.02068 0.00021
2132.19507 1.37380 0.01374 0.02062 0.00021
2131.22998 1.37360 0.01374 0.02054 0.00021
2130.26489 1.37350 0.01374 0.02044 0.00020
2129.30005 1.37330 0.01373 0.02037 0.00020
2128.33398 1.37320 0.01373 0.02041 0.00020
2127.36890 1.37310 0.01373 0.02047 0.00020
2126.40405 1.37310 0.01373 0.02054 0.00021
2125.43896 1.37310 0.01373 0.02054 0.00021
2124.47412 1.37330 0.01373 0.02041 0.00020
2123.50903 1.37340 0.01373 0.02021 0.00020
2122.54395 1.37340 0.01373 0.01993 0.00020
2121.57910 1.37340 0.01373 0.01962 0.00020
2120.61401 1.37320 0.01373 0.01929 0.00019
2119.64893 1.37310 0.01373 0.01899 0.00019
2118.68408 1.37290 0.01373 0.01873 0.00019
2117.71802 1.37260 0.01373 0.01851 0.00019
2116.75293 1.37230 0.01372 0.01832 0.00018
2115.78809 1.37190 0.01372 0.01819 0.00018
2114.82300 1.37160 0.01372 0.01816 0.00018
2113.85791 1.37130 0.01371 0.01821 0.00018
2112.89307 1.37110 0.01371 0.01835 0.00018
2111.92798 1.37090 0.01371 0.01850 0.00018
2110.96289 1.37080 0.01371 0.01862 0.00019
2109.99805 1.37090 0.01371 0.01870 0.00019
2109.03296 1.37090 0.01371 0.01874 0.00019
2108.06812 1.37100 0.01371 0.01871 0.00019
2107.10303 1.37100 0.01371 0.01861 0.00019
2106.13696 1.37110 0.01371 0.01846 0.00018
2105.17212 1.37110 0.01371 0.01827 0.00018
2104.20703 1.37100 0.01371 0.01805 0.00018
2103.24194 1.37090 0.01371 0.01782 0.00018
2102.27710 1.37080 0.01371 0.01762 0.00018
2101.31201 1.37060 0.01371 0.01745 0.00017
2100.34692 1.37040 0.01370 0.01732 0.00017
2099.38208 1.37020 0.01370 0.01725 0.00017
2098.41699 1.37000 0.01370 0.01720 0.00017
2097.45190 1.36980 0.01370 0.01714 0.00017
2096.48706 1.36960 0.01370 0.01710 0.00017
2095.52100 1.36950 0.01369 0.01707 0.00017
2094.55591 1.36930 0.01369 0.01706 0.00017
2093.59106 1.36920 0.01369 0.01707 0.00017
2092.62598 1.36910 0.01369 0.01709 0.00017
2091.66089 1.36900 0.01369 0.01710 0.00017
2090.69604 1.36900 0.01369 0.01710 0.00017
2089.73096 1.36900 0.01369 0.01709 0.00017
2088.76611 1.36900 0.01369 0.01704 0.00017
2087.80103 1.36890 0.01369 0.01693 0.00017
2086.83594 1.36890 0.01369 0.01681 0.00017
2085.87109 1.36880 0.01369 0.01673 0.00017
2084.90601 1.36880 0.01369 0.01664 0.00017
2083.93994 1.36870 0.01369 0.01654 0.00017
2082.97510 1.36870 0.01369 0.01643 0.00016
2082.01001 1.36870 0.01369 0.01630 0.00016
2081.04492 1.36860 0.01369 0.01615 0.00016
2080.08008 1.36850 0.01368 0.01598 0.00016
2079.11499 1.36840 0.01368 0.01578 0.00016
2078.14990 1.36830 0.01368 0.01556 0.00016
2077.18506 1.36810 0.01368 0.01538 0.00015
2076.21997 1.36790 0.01368 0.01527 0.00015
2075.25488 1.36770 0.01368 0.01518 0.00015
2074.29004 1.36750 0.01367 0.01509 0.00015
2073.32397 1.36730 0.01367 0.01501 0.00015
2072.35889 1.36710 0.01367 0.01492 0.00015
2071.39404 1.36690 0.01367 0.01489 0.00015
2070.42896 1.36670 0.01367 0.01497 0.00015
2069.46411 1.36660 0.01367 0.01502 0.00015
2068.49902 1.36660 0.01367 0.01502 0.00015
2067.53394 1.36650 0.01366 0.01498 0.00015
2066.56909 1.36650 0.01366 0.01487 0.00015
2065.60400 1.36640 0.01366 0.01473 0.00015
2064.63892 1.36630 0.01366 0.01460 0.00015
2063.67407 1.36620 0.01366 0.01444 0.00014
2062.70801 1.36600 0.01366 0.01429 0.00014
2061.74292 1.36590 0.01366 0.01417 0.00014
2060.77808 1.36570 0.01366 0.01411 0.00014
2059.81299 1.36550 0.01365 0.01405 0.00014
2058.84790 1.36530 0.01365 0.01398 0.00014
2057.88306 1.36510 0.01365 0.01394 0.00014
2056.91797 1.36490 0.01365 0.01394 0.00014
2055.95288 1.36470 0.01365 0.01397 0.00014
2054.98804 1.36460 0.01365 0.01407 0.00014
2054.02295 1.36460 0.01365 0.01412 0.00014
2053.05811 1.36460 0.01365 0.01407 0.00014
2052.09302 1.36460 0.01365 0.01397 0.00014
2051.12695 1.36450 0.01364 0.01383 0.00014
2050.16211 1.36440 0.01364 0.01368 0.00014
2049.19702 1.36430 0.01364 0.01356 0.00014
2048.23193 1.36420 0.01364 0.01342 0.00013
2047.26697 1.36400 0.01364 0.01327 0.00013
2046.30200 1.36390 0.01364 0.01314 0.00013
2045.33704 1.36370 0.01364 0.01303 0.00013
2044.37195 1.36350 0.01363 0.01293 0.00013
2043.40698 1.36330 0.01363 0.01282 0.00013
2042.44202 1.36310 0.01363 0.01273 0.00013
2041.47705 1.36290 0.01363 0.01264 0.00013
2040.51196 1.36270 0.01363 0.01259 0.00013
2039.54700 1.36240 0.01362 0.01258 0.00013
2038.58105 1.36220 0.01362 0.01258 0.00013
2037.61597 1.36200 0.01362 0.01257 0.00013
2036.65100 1.36190 0.01362 0.01256 0.00013
2035.68604 1.36170 0.01362 0.01255 0.00013
2034.72095 1.36150 0.01362 0.01255 0.00013
2033.75598 1.36140 0.01361 0.01256 0.00013
2032.79102 1.36120 0.01361 0.01258 0.00013
2031.82605 1.36110 0.01361 0.01260 0.00013
2030.86096 1.36090 0.01361 0.01261 0.00013
2029.89600 1.36080 0.01361 0.01261 0.00013
2028.93103 1.36070 0.01361 0.01258 0.00013
2027.96497 1.36060 0.01361 0.01253 0.00013
2027.00000 1.36050 0.01360 0.01249 0.00012
2026.03503 1.36030 0.01360 0.01248 0.00012
2025.06995 1.36020 0.01360 0.01248 0.00012
2024.10498 1.36000 0.01360 0.01248 0.00012
2023.14001 1.35990 0.01360 0.01247 0.00012
2022.17505 1.35980 0.01360 0.01242 0.00012
2021.20996 1.35970 0.01360 0.01237 0.00012
2020.24500 1.35950 0.01359 0.01233 0.00012
2019.28003 1.35940 0.01359 0.01231 0.00012
2018.31494 1.35930 0.01359 0.01232 0.00012
2017.34900 1.35910 0.01359 0.01232 0.00012
2016.38403 1.35900 0.01359 0.01231 0.00012
2015.41895 1.35890 0.01359 0.01229 0.00012
2014.45398 1.35880 0.01359 0.01225 0.00012
2013.48901 1.35870 0.01359 0.01223 0.00012
2012.52405 1.35860 0.01359 0.01223 0.00012
2011.55896 1.35850 0.01358 0.01223 0.00012
2010.59399 1.35840 0.01358 0.01221 0.00012
2009.62903 1.35840 0.01358 0.01214 0.00012
2008.66394 1.35830 0.01358 0.01197 0.00012
2007.69897 1.35820 0.01358 0.01181 0.00012
2006.73401 1.35800 0.01358 0.01166 0.00012
2005.76794 1.35780 0.01358 0.01153 0.00012
2004.80298 1.35750 0.01357 0.01145 0.00011
2003.83801 1.35720 0.01357 0.01142 0.00011
2002.87305 1.35700 0.01357 0.01145 0.00011
2001.90796 1.35680 0.01357 0.01148 0.00011
2000.94299 1.35660 0.01357 0.01150 0.00011
1999.97803 1.35640 0.01356 0.01154 0.00012
1999.01294 1.35630 0.01356 0.01158 0.00012
1998.04797 1.35610 0.01356 0.01164 0.00012
1997.08301 1.35600 0.01356 0.01173 0.00012
1996.11804 1.35600 0.01356 0.01178 0.00012
1995.15198 1.35600 0.01356 0.01175 0.00012
1994.18701 1.35590 0.01356 0.01167 0.00012
1993.22205 1.35590 0.01356 0.01154 0.00012
1992.25696 1.35570 0.01356 0.01139 0.00011
1991.29199 1.35560 0.01356 0.01126 0.00011
1990.32703 1.35540 0.01355 0.01112 0.00011
1989.36206 1.35510 0.01355 0.01100 0.00011
1988.39697 1.35490 0.01355 0.01093 0.00011
1987.43201 1.35460 0.01355 0.01093 0.00011
1986.46704 1.35430 0.01354 0.01095 0.00011
1985.50195 1.35410 0.01354 0.01100 0.00011
1984.53601 1.35390 0.01354 0.01105 0.00011
1983.57104 1.35370 0.01354 0.01108 0.00011
1982.60596 1.35360 0.01354 0.01111 0.00011
1981.64099 1.35340 0.01353 0.01115 0.00011
1980.67603 1.35330 0.01353 0.01119 0.00011
1979.71106 1.35320 0.01353 0.01123 0.00011
1978.74597 1.35300 0.01353 0.01123 0.00011
1977.78101 1.35290 0.01353 0.01118 0.00011
1976.81604 1.35280 0.01353 0.01113 0.00011
1975.85095 1.35260 0.01353 0.01108 0.00011
1974.88599 1.35240 0.01352 0.01105 0.00011
1973.92102 1.35230 0.01352 0.01105 0.00011
1972.95496 1.35210 0.01352 0.01104 0.00011
1971.98999 1.35190 0.01352 0.01100 0.00011
1971.02502 1.35170 0.01352 0.01096 0.00011
1970.06006 1.35150 0.01352 0.01092 0.00011
1969.09497 1.35120 0.01351 0.01092 0.00011
1968.13000 1.35100 0.01351 0.01097 0.00011
1967.16504 1.35070 0.01351 0.01104 0.00011
1966.19995 1.35050 0.01350 0.01113 0.00011
1965.23499 1.35040 0.01350 0.01123 0.00011
1964.27002 1.35020 0.01350 0.01132 0.00011
1963.30505 1.35010 0.01350 0.01140 0.00011
1962.33899 1.35000 0.01350 0.01146 0.00011
1961.37402 1.34990 0.01350 0.01152 0.00012
1960.40906 1.34980 0.01350 0.01159 0.00012
1959.44397 1.34970 0.01350 0.01162 0.00012
1958.47900 1.34960 0.01350 0.01160 0.00012
1957.51404 1.34960 0.01350 0.01153 0.00012
1956.54895 1.34940 0.01349 0.01140 0.00011
1955.58398 1.34920 0.01349 0.01129 0.00011
1954.61902 1.34900 0.01349 0.01125 0.00011
1953.65405 1.34870 0.01349 0.01125 0.00011
1952.68896 1.34850 0.01348 0.01132 0.00011
1951.72400 1.34830 0.01348 0.01140 0.00011
1950.75806 1.34810 0.01348 0.01145 0.00011
1949.79297 1.34800 0.01348 0.01149 0.00011
1948.82800 1.34780 0.01348 0.01149 0.00011
1947.86304 1.34760 0.01348 0.01149 0.00011
1946.89795 1.34750 0.01347 0.01151 0.00012
1945.93298 1.34730 0.01347 0.01152 0.00012
1944.96802 1.34710 0.01347 0.01153 0.00012
1944.00305 1.34690 0.01347 0.01153 0.00012
1943.03796 1.34660 0.01347 0.01152 0.00012
1942.07300 1.34640 0.01346 0.01157 0.00012
1941.10803 1.34610 0.01346 0.01171 0.00012
1940.14197 1.34590 0.01346 0.01186 0.00012
1939.17700 1.34570 0.01346 0.01204 0.00012
1938.21204 1.34560 0.01346 0.01219 0.00012
1937.24695 1.34550 0.01345 0.01227 0.00012
1936.28198 1.34550 0.01345 0.01234 0.00012
1935.31702 1.34540 0.01345 0.01239 0.00012
1934.35205 1.34530 0.01345 0.01240 0.00012
1933.38696 1.34510 0.01345 0.01237 0.00012
1932.42200 1.34500 0.01345 0.01236 0.00012
1931.45703 1.34480 0.01345 0.01240 0.00012
1930.49194 1.34460 0.01345 0.01243 0.00012
1929.52600 1.34440 0.01344 0.01248 0.00012
1928.56104 1.34420 0.01344 0.01254 0.00013
1927.59595 1.34400 0.01344 0.01259 0.00013
1926.63098 1.34390 0.01344 0.01267 0.00013
1925.66602 1.34370 0.01344 0.01279 0.00013
1924.70105 1.34360 0.01344 0.01288 0.00013
1923.73596 1.34340 0.01343 0.01294 0.00013
1922.77100 1.34330 0.01343 0.01300 0.00013
1921.80603 1.34310 0.01343 0.01307 0.00013
1920.84094 1.34300 0.01343 0.01313 0.00013
1919.87598 1.34280 0.01343 0.01320 0.00013
1918.91101 1.34260 0.01343 0.01328 0.00013
1917.94495 1.34240 0.01342 0.01339 0.00013
1916.97998 1.34230 0.01342 0.01357 0.00014
1916.01501 1.34220 0.01342 0.01382 0.00014
1915.05005 1.34220 0.01342 0.01399 0.00014
1914.08496 1.34230 0.01342 0.01406 0.00014
1913.12000 1.34230 0.01342 0.01409 0.00014
1912.15503 1.34230 0.01342 0.01402 0.00014
1911.18994 1.34230 0.01342 0.01392 0.00014
1910.22498 1.34230 0.01342 0.01379 0.00014
1909.26001 1.34210 0.01342 0.01365 0.00014
1908.29504 1.34190 0.01342 0.01351 0.00014
1907.32898 1.34170 0.01342 0.01343 0.00013
1906.36401 1.34140 0.01341 0.01341 0.00013
1905.39905 1.34110 0.01341 0.01342 0.00013
1904.43396 1.34080 0.01341 0.01346 0.00013
1903.46899 1.34050 0.01340 0.01357 0.00014
1902.50403 1.34030 0.01340 0.01373 0.00014
1901.53894 1.34010 0.01340 0.01389 0.00014
1900.57397 1.34000 0.01340 0.01404 0.00014
1899.60901 1.33990 0.01340 0.01413 0.00014
1898.64404 1.33980 0.01340 0.01413 0.00014
1897.67896 1.33970 0.01340 0.01414 0.00014
1896.71301 1.33950 0.01339 0.01416 0.00014
1895.74805 1.33940 0.01339 0.01418 0.00014
1894.78296 1.33920 0.01339 0.01423 0.00014
1893.81799 1.33900 0.01339 0.01427 0.00014
1892.85303 1.33880 0.01339 0.01431 0.00014
1891.88794 1.33860 0.01339 0.01435 0.00014
1890.92297 1.33840 0.01338 0.01438 0.00014
1889.95801 1.33820 0.01338 0.01445 0.00014
1888.99304 1.33790 0.01338 0.01458 0.00015
1888.02795 1.33770 0.01338 0.01473 0.00015
1887.06299 1.33760 0.01338 0.01492 0.00015
1886.09802 1.33740 0.01337 0.01506 0.00015
1885.13196 1.33730 0.01337 0.01511 0.00015
1884.16699 1.33720 0.01337 0.01518 0.00015
1883.20203 1.33700 0.01337 0.01526 0.00015
1882.23706 1.33680 0.01337 0.01538 0.00015
1881.27197 1.33660 0.01337 0.01558 0.00016
1880.30701 1.33650 0.01337 0.01576 0.00016
1879.34204 1.33640 0.01336 0.01593 0.00016
1878.37695 1.33640 0.01336 0.01605 0.00016
1877.41199 1.33630 0.01336 0.01608 0.00016
1876.44702 1.33630 0.01336 0.01610 0.00016
1875.48206 1.33620 0.01336 0.01611 0.00016
1874.51599 1.33600 0.01336 0.01613 0.00016
1873.55103 1.33590 0.01336 0.01620 0.00016
1872.58606 1.33570 0.01336 0.01626 0.00016
1871.62097 1.33560 0.01336 0.01632 0.00016
1870.65601 1.33550 0.01335 0.01635 0.00016
1869.69104 1.33530 0.01335 0.01635 0.00016
1868.72595 1.33510 0.01335 0.01637 0.00016
1867.76099 1.33490 0.01335 0.01642 0.00016
1866.79602 1.33470 0.01335 0.01650 0.00016
1865.83105 1.33450 0.01334 0.01660 0.00017
1864.86597 1.33430 0.01334 0.01672 0.00017
1863.90100 1.33420 0.01334 0.01686 0.00017
1862.93506 1.33400 0.01334 0.01700 0.00017
1861.96997 1.33390 0.01334 0.01710 0.00017
1861.00500 1.33370 0.01334 0.01720 0.00017
1860.04004 1.33360 0.01334 0.01730 0.00017
1859.07495 1.33350 0.01333 0.01741 0.00017
1858.10999 1.33330 0.01333 0.01753 0.00018
1857.14502 1.33320 0.01333 0.01765 0.00018
1856.18005 1.33310 0.01333 0.01774 0.00018
1855.21497 1.33300 0.01333 0.01782 0.00018
1854.25000 1.33290 0.01333 0.01786 0.00018
1853.28503 1.33280 0.01333 0.01789 0.00018
1852.31897 1.33260 0.01333 0.01790 0.00018
1851.35400 1.33240 0.01332 0.01792 0.00018
1850.38904 1.33220 0.01332 0.01798 0.00018
1849.42395 1.33200 0.01332 0.01809 0.00018
1848.45898 1.33180 0.01332 0.01827 0.00018
1847.49402 1.33170 0.01332 0.01846 0.00018
1846.52905 1.33150 0.01332 0.01861 0.00019
1845.56396 1.33150 0.01332 0.01872 0.00019
1844.59900 1.33140 0.01331 0.01878 0.00019
1843.63403 1.33120 0.01331 0.01883 0.00019
1842.66895 1.33110 0.01331 0.01890 0.00019
1841.70300 1.33100 0.01331 0.01897 0.00019
1840.73804 1.33080 0.01331 0.01903 0.00019
1839.77295 1.33070 0.01331 0.01910 0.00019
1838.80798 1.33050 0.01331 0.01917 0.00019
1837.84302 1.33030 0.01330 0.01925 0.00019
1836.87805 1.33010 0.01330 0.01933 0.00019
1835.91296 1.32990 0.01330 0.01941 0.00019
1834.94800 1.32970 0.01330 0.01951 0.00020
1833.98303 1.32960 0.01330 0.01963 0.00020
1833.01794 1.32940 0.01329 0.01979 0.00020
1832.05298 1.32930 0.01329 0.01996 0.00020
1831.08801 1.32910 0.01329 0.02009 0.00020
1830.12195 1.32900 0.01329 0.02018 0.00020
1829.15698 1.32890 0.01329 0.02022 0.00020
1828.19202 1.32870 0.01329 0.02026 0.00020
1827.22705 1.32860 0.01329 0.02034 0.00020
1826.26196 1.32840 0.01328 0.02044 0.00020
1825.29700 1.32810 0.01328 0.02054 0.00021
1824.33203 1.32800 0.01328 0.02067 0.00021
1823.36694 1.32780 0.01328 0.02082 0.00021
1822.40198 1.32760 0.01328 0.02098 0.00021
1821.43701 1.32750 0.01327 0.02111 0.00021
1820.47205 1.32730 0.01327 0.02122 0.00021
1819.50598 1.32720 0.01327 0.02131 0.00021
1818.54102 1.32700 0.01327 0.02142 0.00021
1817.57605 1.32680 0.01327 0.02157 0.00022
1816.61096 1.32660 0.01327 0.02171 0.00022
1815.64600 1.32650 0.01327 0.02183 0.00022
1814.68103 1.32630 0.01326 0.02195 0.00022
1813.71594 1.32610 0.01326 0.02209 0.00022
1812.75098 1.32590 0.01326 0.02225 0.00022
1811.78601 1.32580 0.01326 0.02244 0.00022
1810.82104 1.32560 0.01326 0.02262 0.00023
1809.85596 1.32550 0.01326 0.02280 0.00023
1808.89001 1.32540 0.01325 0.02297 0.00023
1807.92505 1.32530 0.01325 0.02313 0.00023
1806.95996 1.32520 0.01325 0.02326 0.00023
1805.99500 1.32510 0.01325 0.02336 0.00023
1805.03003 1.32510 0.01325 0.02342 0.00023
1804.06494 1.32490 0.01325 0.02346 0.00023
1803.09998 1.32480 0.01325 0.02348 0.00023
1802.13501 1.32460 0.01325 0.02350 0.00023
1801.17004 1.32440 0.01324 0.02354 0.00024
1800.20496 1.32410 0.01324 0.02360 0.00024
1799.23999 1.32380 0.01324 0.02372 0.00024
1798.27502 1.32350 0.01323 0.02389 0.00024
1797.30896 1.32330 0.01323 0.02410 0.00024
1796.34399 1.32310 0.01323 0.02431 0.00024
1795.37903 1.32290 0.01323 0.02453 0.00025
1794.41394 1.32270 0.01323 0.02473 0.00025
1793.44897 1.32260 0.01323 0.02491 0.00025
1792.48401 1.32250 0.01322 0.02506 0.00025
1791.51904 1.32230 0.01322 0.02519 0.00025
1790.55396 1.32220 0.01322 0.02529 0.00025
1789.58899 1.32200 0.01322 0.02537 0.00025
1788.62402 1.32170 0.01322 0.02544 0.00025
1787.65906 1.32140 0.01321 0.02552 0.00026
1786.69299 1.32110 0.01321 0.02565 0.00026
1785.72803 1.32080 0.01321 0.02583 0.00026
1784.76294 1.32040 0.01320 0.02608 0.00026
1783.79797 1.32000 0.01320 0.02640 0.00026
1782.83301 1.31970 0.01320 0.02678 0.00027
1781.86804 1.31950 0.01319 0.02721 0.00027
1780.90295 1.31930 0.01319 0.02766 0.00028
1779.93799 1.31930 0.01319 0.02809 0.00028
1778.97302 1.31920 0.01319 0.02845 0.00028
1778.00806 1.31920 0.01319 0.02875 0.00029
1777.04297 1.31920 0.01319 0.02899 0.00029
1776.07800 1.31920 0.01319 0.02921 0.00029
1775.11206 1.31910 0.01319 0.02942 0.00029
1774.14697 1.31910 0.01319 0.02962 0.00030
1773.18201 1.31900 0.01319 0.02982 0.00030
1772.21704 1.31890 0.01319 0.03001 0.00030
1771.25195 1.31880 0.01319 0.03017 0.00030
1770.28699 1.31860 0.01319 0.03036 0.00030
1769.32202 1.31850 0.01319 0.03060 0.00031
1768.35706 1.31840 0.01318 0.03086 0.00031
1767.39197 1.31830 0.01318 0.03110 0.00031
1766.42700 1.31820 0.01318 0.03132 0.00031
1765.46204 1.31810 0.01318 0.03151 0.00032
1764.49597 1.31810 0.01318 0.03171 0.00032
1763.53101 1.31800 0.01318 0.03193 0.00032
1762.56604 1.31790 0.01318 0.03210 0.00032
1761.60095 1.31780 0.01318 0.03221 0.00032
1760.63599 1.31760 0.01318 0.03231 0.00032
1759.67102 1.31740 0.01317 0.03246 0.00032
1758.70605 1.31720 0.01317 0.03267 0.00033
1757.74097 1.31700 0.01317 0.03295 0.00033
1756.77600 1.31680 0.01317 0.03325 0.00033
1755.81104 1.31670 0.01317 0.03351 0.00034
1754.84595 1.31660 0.01317 0.03378 0.00034
1753.88000 1.31650 0.01316 0.03404 0.00034
1752.91504 1.31640 0.01316 0.03430 0.00034
1751.94995 1.31620 0.01316 0.03454 0.00035
1750.98499 1.31610 0.01316 0.03477 0.00035
1750.02002 1.31600 0.01316 0.03502 0.00035
1749.05505 1.31590 0.01316 0.03531 0.00035
1748.08997 1.31580 0.01316 0.03562 0.00036
1747.12500 1.31570 0.01316 0.03586 0.00036
1746.16003 1.31560 0.01316 0.03599 0.00036
1745.19495 1.31550 0.01316 0.03609 0.00036
1744.22998 1.31530 0.01315 0.03627 0.00036
1743.26501 1.31500 0.01315 0.03655 0.00037
1742.29895 1.31480 0.01315 0.03693 0.00037
1741.33398 1.31460 0.01315 0.03732 0.00037
1740.36902 1.31450 0.01314 0.03767 0.00038
1739.40405 1.31440 0.01314 0.03799 0.00038
1738.43896 1.31430 0.01314 0.03829 0.00038
1737.47400 1.31420 0.01314 0.03860 0.00039
1736.50903 1.31410 0.01314 0.03892 0.00039
1735.54395 1.31400 0.01314 0.03924 0.00039
1734.57898 1.31390 0.01314 0.03956 0.00040
1733.61401 1.31380 0.01314 0.03988 0.00040
1732.64905 1.31370 0.01314 0.04020 0.00040
1731.68298 1.31370 0.01314 0.04048 0.00040
1730.71802 1.31350 0.01314 0.04070 0.00041
1729.75305 1.31340 0.01313 0.04092 0.00041
1728.78796 1.31310 0.01313 0.04119 0.00041
1727.82300 1.31280 0.01313 0.04156 0.00042
1726.85803 1.31260 0.01313 0.04204 0.00042
1725.89294 1.31240 0.01312 0.04258 0.00043
1724.92798 1.31220 0.01312 0.04314 0.00043
1723.96301 1.31220 0.01312 0.04374 0.00044
1722.99805 1.31220 0.01312 0.04434 0.00044
1722.03296 1.31230 0.01312 0.04492 0.00045
1721.06702 1.31240 0.01312 0.04542 0.00045
1720.10205 1.31250 0.01312 0.04588 0.00046
1719.13696 1.31270 0.01313 0.04632 0.00046
1718.17200 1.31290 0.01313 0.04675 0.00047
1717.20703 1.31310 0.01313 0.04716 0.00047
1716.24194 1.31330 0.01313 0.04750 0.00047
1715.27698 1.31360 0.01314 0.04776 0.00048
1714.31201 1.31380 0.01314 0.04794 0.00048
1713.34705 1.31390 0.01314 0.04807 0.00048
1712.38196 1.31400 0.01314 0.04818 0.00048
1711.41699 1.31400 0.01314 0.04832 0.00048
1710.45203 1.31400 0.01314 0.04847 0.00048
1709.48596 1.31390 0.01314 0.04865 0.00049
1708.52100 1.31380 0.01314 0.04887 0.00049
1707.55603 1.31370 0.01314 0.04914 0.00049
1706.59094 1.31360 0.01314 0.04946 0.00049
1705.62598 1.31350 0.01314 0.04982 0.00050
1704.66101 1.31340 0.01313 0.05022 0.00050
1703.69604 1.31330 0.01313 0.05068 0.00051
1702.73096 1.31330 0.01313 0.05117 0.00051
1701.76599 1.31340 0.01313 0.05166 0.00052
1700.80103 1.31350 0.01314 0.05210 0.00052
1699.83606 1.31360 0.01314 0.05245 0.00052
1698.87000 1.31370 0.01314 0.05278 0.00053
1697.90503 1.31370 0.01314 0.05312 0.00053
1696.93994 1.31380 0.01314 0.05348 0.00053
1695.97498 1.31390 0.01314 0.05386 0.00054
1695.01001 1.31390 0.01314 0.05423 0.00054
1694.04504 1.31390 0.01314 0.05457 0.00055
1693.07996 1.31400 0.01314 0.05494 0.00055
1692.11499 1.31400 0.01314 0.05537 0.00055
1691.15002 1.31400 0.01314 0.05587 0.00056
1690.18506 1.31410 0.01314 0.05641 0.00056
1689.21997 1.31430 0.01314 0.05695 0.00057
1688.25500 1.31450 0.01314 0.05743 0.00057
1687.28894 1.31480 0.01315 0.05788 0.00058
1686.32397 1.31500 0.01315 0.05829 0.00058
1685.35901 1.31530 0.01315 0.05866 0.00059
1684.39404 1.31560 0.01316 0.05899 0.00059
1683.42896 1.31590 0.01316 0.05930 0.00059
1682.46399 1.31610 0.01316 0.05962 0.00060
1681.49902 1.31630 0.01316 0.05993 0.00060
1680.53406 1.31660 0.01317 0.06023 0.00060
1679.56897 1.31680 0.01317 0.06050 0.00061
1678.60400 1.31700 0.01317 0.06075 0.00061
1677.63904 1.31720 0.01317 0.06101 0.00061
1676.67297 1.31730 0.01317 0.06132 0.00061
1675.70801 1.31750 0.01317 0.06170 0.00062
1674.74304 1.31770 0.01318 0.06211 0.00062
1673.77795 1.31800 0.01318 0.06248 0.00062
1672.81299 1.31830 0.01318 0.06276 0.00063
1671.84802 1.31860 0.01319 0.06299 0.00063
1670.88306 1.31880 0.01319 0.06324 0.00063
1669.91797 1.31900 0.01319 0.06354 0.00064
1668.95300 1.31930 0.01319 0.06393 0.00064
1667.98804 1.31960 0.01320 0.06430 0.00064
1667.02295 1.31990 0.01320 0.06461 0.00065
1666.05701 1.32030 0.01320 0.06486 0.00065
1665.09204 1.32070 0.01321 0.06507 0.00065
1664.12695 1.32100 0.01321 0.06526 0.00065
1663.16199 1.32140 0.01321 0.06542 0.00065
1662.19702 1.32170 0.01322 0.06555 0.00066
1661.23206 1.32190 0.01322 0.06564 0.00066
1660.26697 1.32210 0.01322 0.06575 0.00066
1659.30200 1.32230 0.01322 0.06592 0.00066
1658.33704 1.32250 0.01322 0.06611 0.00066
1657.37195 1.32270 0.01323 0.06629 0.00066
1656.40698 1.32290 0.01323 0.06648 0.00066
1655.44202 1.32300 0.01323 0.06670 0.00067
1654.47595 1.32320 0.01323 0.06699 0.00067
1653.51099 1.32340 0.01323 0.06735 0.00067
1652.54602 1.32360 0.01324 0.06774 0.00068
1651.58105 1.32390 0.01324 0.06810 0.00068
1650.61597 1.32430 0.01324 0.06846 0.00068
1649.65100 1.32470 0.01325 0.06882 0.00069
1648.68604 1.32520 0.01325 0.06913 0.00069
1647.72095 1.32570 0.01326 0.06936 0.00069
1646.75598 1.32620 0.01326 0.06949 0.00069
1645.79102 1.32670 0.01327 0.06953 0.00070
1644.82605 1.32720 0.01327 0.06951 0.00070
1643.85999 1.32750 0.01327 0.06949 0.00069
1642.89502 1.32790 0.01328 0.06948 0.00069
1641.93005 1.32820 0.01328 0.06952 0.00070
1640.96497 1.32850 0.01328 0.06959 0.00070
1640.00000 1.32880 0.01329 0.06969 0.00070
1639.03503 1.32910 0.01329 0.06972 0.00070
1638.06995 1.32940 0.01329 0.06965 0.00070
1637.10498 1.32970 0.01330 0.06957 0.00070
1636.14001 1.32980 0.01330 0.06953 0.00070
1635.17505 1.32990 0.01330 0.06959 0.00070
1634.20996 1.33010 0.01330 0.06973 0.00070
1633.24500 1.33020 0.01330 0.06992 0.00070
1632.27905 1.33050 0.01331 0.07011 0.00070
1631.31396 1.33070 0.01331 0.07029 0.00070
1630.34900 1.33100 0.01331 0.07047 0.00070
1629.38403 1.33130 0.01331 0.07065 0.00071
1628.41895 1.33170 0.01332 0.07080 0.00071
1627.45398 1.33200 0.01332 0.07093 0.00071
1626.48901 1.33240 0.01332 0.07105 0.00071
1625.52405 1.33280 0.01333 0.07117 0.00071
1624.55896 1.33320 0.01333 0.07129 0.00071
1623.59399 1.33360 0.01334 0.07135 0.00071
1622.62903 1.33400 0.01334 0.07135 0.00071
1621.66296 1.33440 0.01334 0.07131 0.00071
1620.69800 1.33470 0.01335 0.07127 0.00071
1619.73303 1.33510 0.01335 0.07126 0.00071
1618.76794 1.33540 0.01335 0.07126 0.00071
1617.80298 1.33580 0.01336 0.07123 0.00071
1616.83801 1.33610 0.01336 0.07115 0.00071
1615.87305 1.33640 0.01336 0.07107 0.00071
1614.90796 1.33680 0.01337 0.07101 0.00071
1613.94299 1.33710 0.01337 0.07097 0.00071
1612.97803 1.33750 0.01337 0.07093 0.00071
1612.01294 1.33790 0.01338 0.07080 0.00071
1611.04700 1.33830 0.01338 0.07054 0.00071
1610.08203 1.33860 0.01339 0.07023 0.00070
1609.11694 1.33870 0.01339 0.06994 0.00070
1608.15198 1.33890 0.01339 0.06971 0.00070
1607.18701 1.33900 0.01339 0.06956 0.00070
1606.22205 1.33910 0.01339 0.06943 0.00069
1605.25696 1.33920 0.01339 0.06930 0.00069
1604.29199 1.33940 0.01339 0.06915 0.00069
1603.32703 1.33940 0.01339 0.06898 0.00069
1602.36206 1.33950 0.01339 0.06884 0.00069
1601.39697 1.33950 0.01339 0.06877 0.00069
1600.43201 1.33950 0.01339 0.06877 0.00069
1599.46594 1.33960 0.01340 0.06881 0.00069
1598.50098 1.33970 0.01340 0.06883 0.00069
1597.53601 1.33990 0.01340 0.06879 0.00069
1596.57104 1.34000 0.01340 0.06873 0.00069
1595.60596 1.34020 0.01340 0.06868 0.00069
1594.64099 1.34030 0.01340 0.06862 0.00069
1593.67603 1.34040 0.01340 0.06854 0.00069
1592.71106 1.34050 0.01340 0.06847 0.00068
1591.74597 1.34050 0.01340 0.06842 0.00068
1590.78101 1.34050 0.01340 0.06842 0.00068
1589.81604 1.34060 0.01341 0.06848 0.00068
1588.84998 1.34070 0.01341 0.06853 0.00069
1587.88501 1.34080 0.01341 0.06856 0.00069
1586.92004 1.34090 0.01341 0.06857 0.00069
1585.95496 1.34100 0.01341 0.06859 0.00069
1584.98999 1.34110 0.01341 0.06861 0.00069
1584.02502 1.34120 0.01341 0.06862 0.00069
1583.06006 1.34130 0.01341 0.06863 0.00069
1582.09497 1.34130 0.01341 0.06866 0.00069
1581.13000 1.34130 0.01341 0.06878 0.00069
1580.16504 1.34140 0.01341 0.06900 0.00069
1579.19995 1.34160 0.01342 0.06923 0.00069
1578.23401 1.34180 0.01342 0.06942 0.00069
1577.26904 1.34210 0.01342 0.06961 0.00070
1576.30396 1.34240 0.01342 0.06979 0.00070
1575.33899 1.34280 0.01343 0.06993 0.00070
1574.37402 1.34330 0.01343 0.06997 0.00070
1573.40906 1.34380 0.01344 0.06987 0.00070
1572.44397 1.34420 0.01344 0.06964 0.00070
1571.47900 1.34460 0.01345 0.06934 0.00069
1570.51404 1.34480 0.01345 0.06901 0.00069
1569.54895 1.34500 0.01345 0.06868 0.00069
1568.58398 1.34500 0.01345 0.06837 0.00068
1567.61902 1.34500 0.01345 0.06811 0.00068
1566.65295 1.34490 0.01345 0.06794 0.00068
1565.68799 1.34480 0.01345 0.06788 0.00068
1564.72302 1.34470 0.01345 0.06792 0.00068
1563.75806 1.34470 0.01345 0.06800 0.00068
1562.79297 1.34470 0.01345 0.06809 0.00068
1561.82800 1.34480 0.01345 0.06818 0.00068
1560.86304 1.34500 0.01345 0.06830 0.00068
1559.89795 1.34510 0.01345 0.06841 0.00068
1558.93298 1.34530 0.01345 0.06850 0.00068
1557.96802 1.34550 0.01345 0.06857 0.00069
1557.00305 1.34580 0.01346 0.06861 0.00069
1556.03699 1.34610 0.01346 0.06864 0.00069
1555.07202 1.34640 0.01346 0.06864 0.00069
1554.10706 1.34680 0.01347 0.06854 0.00069
1553.14197 1.34710 0.01347 0.06830 0.00068
1552.17700 1.34730 0.01347 0.06799 0.00068
1551.21204 1.34740 0.01347 0.06768 0.00068
1550.24695 1.34750 0.01347 0.06742 0.00067
1549.28198 1.34750 0.01347 0.06722 0.00067
1548.31702 1.34740 0.01347 0.06703 0.00067
1547.35205 1.34730 0.01347 0.06684 0.00067
1546.38696 1.34710 0.01347 0.06672 0.00067
1545.42200 1.34690 0.01347 0.06673 0.00067
1544.45605 1.34670 0.01347 0.06691 0.00067
1543.49097 1.34670 0.01347 0.06723 0.00067
1542.52600 1.34670 0.01347 0.06760 0.00068
1541.56104 1.34690 0.01347 0.06793 0.00068
1540.59595 1.34730 0.01347 0.06819 0.00068
1539.63098 1.34770 0.01348 0.06832 0.00068
1538.66602 1.34820 0.01348 0.06829 0.00068
1537.70105 1.34850 0.01348 0.06812 0.00068
1536.73596 1.34880 0.01349 0.06790 0.00068
1535.77100 1.34900 0.01349 0.06771 0.00068
1534.80603 1.34920 0.01349 0.06756 0.00068
1533.83997 1.34940 0.01349 0.06745 0.00067
1532.87500 1.34950 0.01349 0.06730 0.00067
1531.91003 1.34960 0.01350 0.06710 0.00067
1530.94495 1.34970 0.01350 0.06691 0.00067
1529.97998 1.34970 0.01350 0.06679 0.00067
1529.01501 1.34970 0.01350 0.06676 0.00067
1528.05005 1.34970 0.01350 0.06681 0.00067
1527.08496 1.34980 0.01350 0.06685 0.00067
1526.12000 1.35000 0.01350 0.06685 0.00067
1525.15503 1.35010 0.01350 0.06682 0.00067
1524.18994 1.35030 0.01350 0.06677 0.00067
1523.22400 1.35050 0.01350 0.06671 0.00067
1522.25903 1.35060 0.01351 0.06664 0.00067
1521.29395 1.35070 0.01351 0.06658 0.00067
1520.32898 1.35090 0.01351 0.06654 0.00067
1519.36401 1.35110 0.01351 0.06649 0.00066
1518.39905 1.35130 0.01351 0.06638 0.00066
1517.43396 1.35150 0.01352 0.06618 0.00066
1516.46899 1.35170 0.01352 0.06590 0.00066
1515.50403 1.35170 0.01352 0.06560 0.00066
1514.53894 1.35160 0.01352 0.06536 0.00065
1513.57397 1.35150 0.01352 0.06526 0.00065
1512.60901 1.35130 0.01351 0.06529 0.00065
1511.64294 1.35130 0.01351 0.06541 0.00065
1510.67798 1.35130 0.01351 0.06554 0.00066
1509.71301 1.35140 0.01351 0.06566 0.00066
1508.74805 1.35150 0.01352 0.06575 0.00066
1507.78296 1.35160 0.01352 0.06584 0.00066
1506.81799 1.35180 0.01352 0.06594 0.00066
1505.85303 1.35210 0.01352 0.06601 0.00066
1504.88794 1.35230 0.01352 0.06603 0.00066
1503.92297 1.35260 0.01353 0.06599 0.00066
1502.95801 1.35290 0.01353 0.06590 0.00066
1501.99304 1.35320 0.01353 0.06576 0.00066
1501.02698 1.35340 0.01353 0.06557 0.00066
1500.06201 1.35360 0.01354 0.06535 0.00065
1499.09705 1.35370 0.01354 0.06513 0.00065
1498.13196 1.35370 0.01354 0.06499 0.00065
1497.16699 1.35380 0.01354 0.06492 0.00065
1496.20203 1.35400 0.01354 0.06488 0.00065
1495.23706 1.35410 0.01354 0.06481 0.00065
1494.27197 1.35430 0.01354 0.06464 0.00065
1493.30701 1.35440 0.01354 0.06438 0.00064
1492.34204 1.35450 0.01354 0.06415 0.00064
1491.37695 1.35450 0.01354 0.06400 0.00064
1490.41101 1.35460 0.01355 0.06389 0.00064
1489.44604 1.35460 0.01355 0.06382 0.00064
1488.48096 1.35470 0.01355 0.06373 0.00064
1487.51599 1.35480 0.01355 0.06363 0.00064
1486.55103 1.35480 0.01355 0.06349 0.00063
1485.58606 1.35490 0.01355 0.06332 0.00063
1484.62097 1.35490 0.01355 0.06317 0.00063
1483.65601 1.35490 0.01355 0.06306 0.00063
1482.69104 1.35490 0.01355 0.06300 0.00063
1481.72595 1.35480 0.01355 0.06298 0.00063
1480.76099 1.35490 0.01355 0.06301 0.00063
1479.79602 1.35490 0.01355 0.06306 0.00063
1478.82996 1.35500 0.01355 0.06312 0.00063
1477.86499 1.35520 0.01355 0.06316 0.00063
1476.90002 1.35540 0.01355 0.06315 0.00063
1475.93506 1.35560 0.01356 0.06310 0.00063
1474.96997 1.35580 0.01356 0.06303 0.00063
1474.00500 1.35600 0.01356 0.06293 0.00063
1473.04004 1.35620 0.01356 0.06278 0.00063
1472.07495 1.35640 0.01356 0.06257 0.00063
1471.10999 1.35660 0.01357 0.06235 0.00062
1470.14502 1.35670 0.01357 0.06214 0.00062
1469.18005 1.35680 0.01357 0.06192 0.00062
1468.21399 1.35680 0.01357 0.06170 0.00062
1467.24902 1.35680 0.01357 0.06148 0.00061
1466.28406 1.35670 0.01357 0.06131 0.00061
1465.31897 1.35670 0.01357 0.06124 0.00061
1464.35400 1.35670 0.01357 0.06127 0.00061
1463.38904 1.35680 0.01357 0.06131 0.00061
1462.42395 1.35690 0.01357 0.06131 0.00061
1461.45898 1.35710 0.01357 0.06124 0.00061
1460.49402 1.35730 0.01357 0.06111 0.00061
1459.52905 1.35740 0.01357 0.06096 0.00061
1458.56396 1.35760 0.01358 0.06081 0.00061
1457.59900 1.35770 0.01358 0.06063 0.00061
1456.63306 1.35780 0.01358 0.06044 0.00060
1455.66797 1.35790 0.01358 0.06027 0.00060
1454.70300 1.35810 0.01358 0.06010 0.00060
1453.73804 1.35820 0.01358 0.05989 0.00060
1452.77295 1.35820 0.01358 0.05962 0.00060
1451.80798 1.35830 0.01358 0.05937 0.00059
1450.84302 1.35830 0.01358 0.05917 0.00059
1449.87805 1.35830 0.01358 0.05904 0.00059
1448.91296 1.35840 0.01358 0.05894 0.00059
1447.94800 1.35850 0.01358 0.05878 0.00059
1446.98303 1.35860 0.01359 0.05853 0.00059
1446.01697 1.35870 0.01359 0.05817 0.00058
1445.05200 1.35880 0.01359 0.05777 0.00058
1444.08704 1.35870 0.01359 0.05738 0.00057
1443.12195 1.35850 0.01358 0.05705 0.00057
1442.15698 1.35830 0.01358 0.05678 0.00057
1441.19202 1.35800 0.01358 0.05657 0.00057
1440.22705 1.35780 0.01358 0.05647 0.00056
1439.26196 1.35760 0.01358 0.05645 0.00056
1438.29700 1.35740 0.01357 0.05647 0.00056
1437.33203 1.35730 0.01357 0.05652 0.00057
1436.36694 1.35720 0.01357 0.05656 0.00057
1435.40100 1.35720 0.01357 0.05659 0.00057
1434.43604 1.35720 0.01357 0.05661 0.00057
1433.47095 1.35720 0.01357 0.05662 0.00057
1432.50598 1.35720 0.01357 0.05660 0.00057
1431.54102 1.35720 0.01357 0.05657 0.00057
1430.57605 1.35730 0.01357 0.05654 0.00057
1429.61096 1.35730 0.01357 0.05651 0.00057
1428.64600 1.35730 0.01357 0.05646 0.00056
1427.68103 1.35740 0.01357 0.05639 0.00056
1426.71594 1.35740 0.01357 0.05632 0.00056
1425.75098 1.35740 0.01357 0.05626 0.00056
1424.78601 1.35750 0.01357 0.05625 0.00056
1423.81995 1.35760 0.01358 0.05625 0.00056
1422.85498 1.35770 0.01358 0.05621 0.00056
1421.89001 1.35790 0.01358 0.05610 0.00056
1420.92505 1.35800 0.01358 0.05591 0.00056
1419.95996 1.35810 0.01358 0.05566 0.00056
1418.99500 1.35810 0.01358 0.05540 0.00055
1418.03003 1.35810 0.01358 0.05519 0.00055
1417.06494 1.35800 0.01358 0.05505 0.00055
1416.09998 1.35790 0.01358 0.05500 0.00055
1415.13501 1.35790 0.01358 0.05497 0.00055
1414.17004 1.35790 0.01358 0.05492 0.00055
1413.20398 1.35800 0.01358 0.05482 0.00055
1412.23901 1.35800 0.01358 0.05468 0.00055
1411.27405 1.35800 0.01358 0.05456 0.00055
1410.30896 1.35810 0.01358 0.05447 0.00054
1409.34399 1.35810 0.01358 0.05439 0.00054
1408.37903 1.35810 0.01358 0.05429 0.00054
1407.41394 1.35820 0.01358 0.05418 0.00054
1406.44897 1.35830 0.01358 0.05405 0.00054
1405.48401 1.35840 0.01358 0.05387 0.00054
1404.51904 1.35840 0.01358 0.05366 0.00054
1403.55396 1.35840 0.01358 0.05341 0.00053
1402.58801 1.35840 0.01358 0.05318 0.00053
1401.62305 1.35830 0.01358 0.05301 0.00053
1400.65796 1.35820 0.01358 0.05288 0.00053
1399.69299 1.35820 0.01358 0.05274 0.00053
1398.72803 1.35810 0.01358 0.05260 0.00053
1397.76294 1.35800 0.01358 0.05250 0.00052
1396.79797 1.35790 0.01358 0.05244 0.00052
1395.83301 1.35790 0.01358 0.05241 0.00052
1394.86804 1.35790 0.01358 0.05239 0.00052
1393.90295 1.35790 0.01358 0.05234 0.00052
1392.93799 1.35800 0.01358 0.05227 0.00052
1391.97302 1.35800 0.01358 0.05219 0.00052
1391.00696 1.35810 0.01358 0.05210 0.00052
1390.04199 1.35820 0.01358 0.05197 0.00052
1389.07703 1.35820 0.01358 0.05182 0.00052
1388.11206 1.35830 0.01358 0.05165 0.00052
1387.14697 1.35830 0.01358 0.05149 0.00051
1386.18201 1.35840 0.01358 0.05132 0.00051
1385.21704 1.35840 0.01358 0.05113 0.00051
1384.25195 1.35850 0.01358 0.05093 0.00051
1383.28699 1.35850 0.01358 0.05072 0.00051
1382.32202 1.35850 0.01358 0.05051 0.00051
1381.35706 1.35860 0.01359 0.05029 0.00050
1380.39099 1.35860 0.01359 0.05000 0.00050
1379.42603 1.35860 0.01359 0.04965 0.00050
1378.46106 1.35850 0.01358 0.04928 0.00049
1377.49597 1.35830 0.01358 0.04894 0.00049
1376.53101 1.35810 0.01358 0.04869 0.00049
1375.56604 1.35790 0.01358 0.04854 0.00049
1374.60095 1.35760 0.01358 0.04843 0.00048
1373.63599 1.35740 0.01357 0.04836 0.00048
1372.67102 1.35730 0.01357 0.04833 0.00048
1371.70605 1.35720 0.01357 0.04831 0.00048
1370.74097 1.35720 0.01357 0.04828 0.00048
1369.77600 1.35720 0.01357 0.04822 0.00048
1368.81006 1.35730 0.01357 0.04808 0.00048
1367.84497 1.35730 0.01357 0.04787 0.00048
1366.88000 1.35730 0.01357 0.04763 0.00048
1365.91504 1.35730 0.01357 0.04737 0.00047
1364.94995 1.35720 0.01357 0.04709 0.00047
1363.98499 1.35710 0.01357 0.04678 0.00047
1363.02002 1.35690 0.01357 0.04645 0.00046
1362.05505 1.35670 0.01357 0.04614 0.00046
1361.08997 1.35640 0.01356 0.04588 0.00046
1360.12500 1.35610 0.01356 0.04571 0.00046
1359.16003 1.35570 0.01356 0.04560 0.00046
1358.19397 1.35540 0.01355 0.04556 0.00046
1357.22900 1.35510 0.01355 0.04558 0.00046
1356.26404 1.35490 0.01355 0.04562 0.00046
1355.29895 1.35470 0.01355 0.04567 0.00046
1354.33398 1.35450 0.01354 0.04570 0.00046
1353.36902 1.35440 0.01354 0.04572 0.00046
1352.40405 1.35430 0.01354 0.04576 0.00046
1351.43896 1.35410 0.01354 0.04581 0.00046
1350.47400 1.35410 0.01354 0.04588 0.00046
1349.50903 1.35400 0.01354 0.04597 0.00046
1348.54395 1.35410 0.01354 0.04604 0.00046
1347.57800 1.35410 0.01354 0.04605 0.00046
1346.61304 1.35420 0.01354 0.04597 0.00046
1345.64795 1.35430 0.01354 0.04578 0.00046
1344.68298 1.35430 0.01354 0.04552 0.00046
1343.71802 1.35420 0.01354 0.04528 0.00045
1342.75305 1.35400 0.01354 0.04509 0.00045
1341.78796 1.35390 0.01354 0.04496 0.00045
1340.82300 1.35370 0.01354 0.04488 0.00045
1339.85803 1.35350 0.01353 0.04482 0.00045
1338.89294 1.35330 0.01353 0.04479 0.00045
1337.92798 1.35320 0.01353 0.04481 0.00045
1336.96301 1.35310 0.01353 0.04486 0.00045
1335.99695 1.35300 0.01353 0.04489 0.00045
1335.03198 1.35300 0.01353 0.04488 0.00045
1334.06702 1.35310 0.01353 0.04483 0.00045
1333.10205 1.35310 0.01353 0.04475 0.00045
1332.13696 1.35310 0.01353 0.04466 0.00045
1331.17200 1.35320 0.01353 0.04452 0.00045
1330.20703 1.35320 0.01353 0.04429 0.00044
1329.24194 1.35310 0.01353 0.04401 0.00044
1328.27698 1.35300 0.01353 0.04377 0.00044
1327.31201 1.35280 0.01353 0.04361 0.00044
1326.34705 1.35260 0.01353 0.04350 0.00043
1325.38098 1.35250 0.01352 0.04339 0.00043
1324.41602 1.35230 0.01352 0.04326 0.00043
1323.45105 1.35220 0.01352 0.04311 0.00043
1322.48596 1.35210 0.01352 0.04299 0.00043
1321.52100 1.35190 0.01352 0.04289 0.00043
1320.55603 1.35180 0.01352 0.04276 0.00043
1319.59094 1.35160 0.01352 0.04261 0.00043
1318.62598 1.35130 0.01351 0.04247 0.00042
1317.66101 1.35110 0.01351 0.04238 0.00042
1316.69604 1.35090 0.01351 0.04239 0.00042
1315.73096 1.35070 0.01351 0.04245 0.00042
1314.76501 1.35050 0.01350 0.04250 0.00043
1313.80005 1.35040 0.01350 0.04252 0.00043
1312.83496 1.35040 0.01350 0.04254 0.00043
1311.87000 1.35030 0.01350 0.04254 0.00043
1310.90503 1.35030 0.01350 0.04253 0.00043
1309.93994 1.35030 0.01350 0.04248 0.00042
1308.97498 1.35030 0.01350 0.04240 0.00042
1308.01001 1.35030 0.01350 0.04229 0.00042
1307.04504 1.35020 0.01350 0.04214 0.00042
1306.07996 1.35020 0.01350 0.04196 0.00042
1305.11499 1.35010 0.01350 0.04173 0.00042
1304.15002 1.34990 0.01350 0.04152 0.00042
1303.18396 1.34980 0.01350 0.04138 0.00041
1302.21899 1.34960 0.01350 0.04131 0.00041
1301.25403 1.34950 0.01349 0.04123 0.00041
1300.28894 1.34940 0.01349 0.04111 0.00041
1299.32397 1.34930 0.01349 0.04090 0.00041
1298.35901 1.34920 0.01349 0.04065 0.00041
1297.39404 1.34890 0.01349 0.04039 0.00040
1296.42896 1.34860 0.01349 0.04019 0.00040
1295.46399 1.34830 0.01348 0.04009 0.00040
1294.49902 1.34800 0.01348 0.04006 0.00040
1293.53406 1.34780 0.01348 0.04006 0.00040
1292.56799 1.34750 0.01347 0.04005 0.00040
1291.60303 1.34730 0.01347 0.04002 0.00040
1290.63794 1.34710 0.01347 0.04001 0.00040
1289.67297 1.34690 0.01347 0.04006 0.00040
1288.70801 1.34680 0.01347 0.04014 0.00040
1287.74304 1.34670 0.01347 0.04019 0.00040
1286.77795 1.34670 0.01347 0.04016 0.00040
1285.81299 1.34670 0.01347 0.04004 0.00040
1284.84802 1.34660 0.01347 0.03988 0.00040
1283.88306 1.34650 0.01347 0.03971 0.00040
1282.91797 1.34640 0.01346 0.03952 0.00040
1281.95300 1.34620 0.01346 0.03928 0.00039
1280.98706 1.34600 0.01346 0.03901 0.00039
1280.02197 1.34560 0.01346 0.03874 0.00039
1279.05701 1.34520 0.01345 0.03854 0.00039
1278.09204 1.34480 0.01345 0.03846 0.00038
1277.12695 1.34430 0.01344 0.03848 0.00038
1276.16199 1.34390 0.01344 0.03856 0.00039
1275.19702 1.34350 0.01343 0.03871 0.00039
1274.23206 1.34320 0.01343 0.03895 0.00039
1273.26697 1.34290 0.01343 0.03923 0.00039
1272.30200 1.34280 0.01343 0.03946 0.00039
1271.33704 1.34270 0.01343 0.03966 0.00040
1270.37097 1.34260 0.01343 0.03985 0.00040
1269.40601 1.34260 0.01343 0.04004 0.00040
1268.44104 1.34270 0.01343 0.04020 0.00040
1267.47595 1.34290 0.01343 0.04027 0.00040
1266.51099 1.34300 0.01343 0.04013 0.00040
1265.54602 1.34310 0.01343 0.03985 0.00040
1264.58105 1.34300 0.01343 0.03957 0.00040
1263.61597 1.34280 0.01343 0.03935 0.00039
1262.65100 1.34270 0.01343 0.03923 0.00039
1261.68604 1.34240 0.01342 0.03914 0.00039
1260.72095 1.34220 0.01342 0.03900 0.00039
1259.75500 1.34200 0.01342 0.03884 0.00039
1258.79004 1.34180 0.01342 0.03873 0.00039
1257.82495 1.34150 0.01342 0.03869 0.00039
1256.85999 1.34120 0.01341 0.03867 0.00039
1255.89502 1.34090 0.01341 0.03867 0.00039
1254.93005 1.34070 0.01341 0.03871 0.00039
1253.96497 1.34050 0.01340 0.03877 0.00039
1253.00000 1.34040 0.01340 0.03885 0.00039
1252.03503 1.34030 0.01340 0.03888 0.00039
1251.06995 1.34010 0.01340 0.03879 0.00039
1250.10498 1.33990 0.01340 0.03867 0.00039
1249.14001 1.33970 0.01340 0.03862 0.00039
1248.17395 1.33950 0.01339 0.03864 0.00039
1247.20898 1.33930 0.01339 0.03871 0.00039
1246.24402 1.33920 0.01339 0.03874 0.00039
1245.27905 1.33900 0.01339 0.03866 0.00039
1244.31396 1.33890 0.01339 0.03853 0.00039
1243.34900 1.33860 0.01339 0.03846 0.00038
1242.38403 1.33830 0.01338 0.03846 0.00038
1241.41895 1.33810 0.01338 0.03853 0.00039
1240.45398 1.33790 0.01338 0.03861 0.00039
1239.48901 1.33770 0.01338 0.03867 0.00039
1238.52405 1.33760 0.01338 0.03869 0.00039
1237.55798 1.33740 0.01337 0.03868 0.00039
1236.59302 1.33730 0.01337 0.03865 0.00039
1235.62805 1.33710 0.01337 0.03863 0.00039
1234.66296 1.33690 0.01337 0.03862 0.00039
1233.69800 1.33670 0.01337 0.03862 0.00039
1232.73303 1.33640 0.01336 0.03865 0.00039
1231.76794 1.33620 0.01336 0.03869 0.00039
1230.80298 1.33600 0.01336 0.03876 0.00039
1229.83801 1.33590 0.01336 0.03886 0.00039
1228.87305 1.33580 0.01336 0.03895 0.00039
1227.90796 1.33560 0.01336 0.03897 0.00039
1226.94202 1.33550 0.01335 0.03896 0.00039
1225.97705 1.33530 0.01335 0.03896 0.00039
1225.01196 1.33520 0.01335 0.03904 0.00039
1224.04700 1.33510 0.01335 0.03921 0.00039
1223.08203 1.33510 0.01335 0.03937 0.00039
1222.11694 1.33510 0.01335 0.03935 0.00039
1221.15198 1.33510 0.01335 0.03921 0.00039
1220.18701 1.33510 0.01335 0.03905 0.00039
1219.22205 1.33510 0.01335 0.03888 0.00039
1218.25696 1.33500 0.01335 0.03867 0.00039
1217.29199 1.33480 0.01335 0.03842 0.00038
1216.32703 1.33450 0.01334 0.03815 0.00038
1215.36096 1.33420 0.01334 0.03794 0.00038
1214.39600 1.33390 0.01334 0.03786 0.00038
1213.43103 1.33350 0.01333 0.03784 0.00038
1212.46594 1.33320 0.01333 0.03775 0.00038
1211.50098 1.33280 0.01333 0.03764 0.00038
1210.53601 1.33240 0.01332 0.03763 0.00038
1209.57104 1.33200 0.01332 0.03775 0.00038
1208.60596 1.33170 0.01332 0.03800 0.00038
1207.64099 1.33140 0.01331 0.03826 0.00038
1206.67603 1.33130 0.01331 0.03840 0.00038
1205.71106 1.33110 0.01331 0.03847 0.00038
1204.74500 1.33100 0.01331 0.03858 0.00039
1203.78003 1.33080 0.01331 0.03873 0.00039
1202.81494 1.33080 0.01331 0.03888 0.00039
1201.84998 1.33070 0.01331 0.03898 0.00039
1200.88501 1.33070 0.01331 0.03900 0.00039
1199.92004 1.33070 0.01331 0.03899 0.00039
1198.95496 1.33070 0.01331 0.03901 0.00039
1197.98999 1.33070 0.01331 0.03900 0.00039
1197.02502 1.33080 0.01331 0.03885 0.00039
1196.06006 1.33080 0.01331 0.03857 0.00039
1195.09497 1.33070 0.01331 0.03817 0.00038
1194.13000 1.33050 0.01331 0.03774 0.00038
1193.16394 1.33010 0.01330 0.03741 0.00037
1192.19897 1.32970 0.01330 0.03715 0.00037
1191.23401 1.32920 0.01329 0.03695 0.00037
1190.26904 1.32860 0.01329 0.03681 0.00037
1189.30396 1.32810 0.01328 0.03673 0.00037
1188.33899 1.32750 0.01327 0.03676 0.00037
1187.37402 1.32700 0.01327 0.03696 0.00037
1186.40906 1.32650 0.01327 0.03724 0.00037
1185.44397 1.32610 0.01326 0.03751 0.00038
1184.47900 1.32580 0.01326 0.03779 0.00038
1183.51404 1.32560 0.01326 0.03810 0.00038
1182.54797 1.32550 0.01326 0.03839 0.00038
1181.58301 1.32550 0.01326 0.03861 0.00039
1180.61804 1.32550 0.01326 0.03871 0.00039
1179.65295 1.32540 0.01325 0.03867 0.00039
1178.68799 1.32530 0.01325 0.03861 0.00039
1177.72302 1.32520 0.01325 0.03864 0.00039
1176.75806 1.32510 0.01325 0.03868 0.00039
1175.79297 1.32500 0.01325 0.03860 0.00039
1174.82800 1.32490 0.01325 0.03840 0.00038
1173.86304 1.32460 0.01325 0.03813 0.00038
1172.89795 1.32430 0.01324 0.03794 0.00038
1171.93201 1.32390 0.01324 0.03793 0.00038
1170.96704 1.32350 0.01323 0.03800 0.00038
1170.00195 1.32320 0.01323 0.03805 0.00038
1169.03699 1.32290 0.01323 0.03805 0.00038
1168.07202 1.32260 0.01323 0.03805 0.00038
1167.10706 1.32230 0.01322 0.03803 0.00038
1166.14197 1.32200 0.01322 0.03801 0.00038
1165.17700 1.32160 0.01322 0.03803 0.00038
1164.21204 1.32120 0.01321 0.03813 0.00038
1163.24695 1.32080 0.01321 0.03830 0.00038
1162.28198 1.32040 0.01320 0.03851 0.00039
1161.31702 1.32010 0.01320 0.03873 0.00039
1160.35095 1.31990 0.01320 0.03894 0.00039
1159.38599 1.31960 0.01320 0.03915 0.00039
1158.42102 1.31940 0.01319 0.03939 0.00039
1157.45605 1.31930 0.01319 0.03963 0.00040
1156.49097 1.31920 0.01319 0.03986 0.00040
1155.52600 1.31920 0.01319 0.04003 0.00040
1154.56104 1.31930 0.01319 0.04012 0.00040
1153.59595 1.31930 0.01319 0.04010 0.00040
1152.63098 1.31930 0.01319 0.03992 0.00040
1151.66602 1.31920 0.01319 0.03969 0.00040
1150.70105 1.31890 0.01319 0.03948 0.00039
1149.73499 1.31860 0.01319 0.03936 0.00039
1148.77002 1.31830 0.01318 0.03938 0.00039
1147.80505 1.31800 0.01318 0.03941 0.00039
1146.83997 1.31770 0.01318 0.03929 0.00039
1145.87500 1.31740 0.01317 0.03916 0.00039
1144.91003 1.31700 0.01317 0.03918 0.00039
1143.94495 1.31660 0.01317 0.03930 0.00039
1142.97998 1.31630 0.01316 0.03949 0.00039
1142.01501 1.31610 0.01316 0.03962 0.00040
1141.05005 1.31590 0.01316 0.03962 0.00040
1140.08496 1.31560 0.01316 0.03959 0.00040
1139.12000 1.31540 0.01315 0.03965 0.00040
1138.15405 1.31510 0.01315 0.03973 0.00040
1137.18896 1.31490 0.01315 0.03975 0.00040
1136.22400 1.31460 0.01315 0.03973 0.00040
1135.25903 1.31430 0.01314 0.03970 0.00040
1134.29395 1.31400 0.01314 0.03970 0.00040
1133.32898 1.31360 0.01314 0.03972 0.00040
1132.36401 1.31320 0.01313 0.03978 0.00040
1131.39905 1.31280 0.01313 0.03986 0.00040
1130.43396 1.31240 0.01312 0.04002 0.00040
1129.46899 1.31210 0.01312 0.04028 0.00040
1128.50403 1.31180 0.01312 0.04057 0.00041
1127.53796 1.31160 0.01312 0.04081 0.00041
1126.57300 1.31140 0.01311 0.04098 0.00041
1125.60803 1.31120 0.01311 0.04106 0.00041
1124.64294 1.31100 0.01311 0.04115 0.00041
1123.67798 1.31080 0.01311 0.04138 0.00041
1122.71301 1.31070 0.01311 0.04164 0.00042
1121.74805 1.31060 0.01311 0.04187 0.00042
1120.78296 1.31060 0.01311 0.04200 0.00042
1119.81799 1.31060 0.01311 0.04199 0.00042
1118.85303 1.31060 0.01311 0.04191 0.00042
1117.88794 1.31040 0.01310 0.04180 0.00042
1116.92200 1.31020 0.01310 0.04173 0.00042
1115.95703 1.31000 0.01310 0.04174 0.00042
1114.99194 1.30990 0.01310 0.04181 0.00042
1114.02698 1.30980 0.01310 0.04189 0.00042
1113.06201 1.30970 0.01310 0.04191 0.00042
1112.09705 1.30970 0.01310 0.04178 0.00042
1111.13196 1.30960 0.01310 0.04154 0.00042
1110.16699 1.30930 0.01309 0.04124 0.00041
1109.20203 1.30900 0.01309 0.04099 0.00041
1108.23706 1.30860 0.01309 0.04091 0.00041
1107.27197 1.30830 0.01308 0.04093 0.00041
1106.30701 1.30800 0.01308 0.04096 0.00041
1105.34094 1.30770 0.01308 0.04095 0.00041
1104.37598 1.30740 0.01307 0.04087 0.00041
1103.41101 1.30710 0.01307 0.04081 0.00041
1102.44604 1.30680 0.01307 0.04087 0.00041
1101.48096 1.30650 0.01306 0.04098 0.00041
1100.51599 1.30630 0.01306 0.04108 0.00041
1099.55103 1.30620 0.01306 0.04115 0.00041
1098.58606 1.30620 0.01306 0.04117 0.00041
1097.62097 1.30620 0.01306 0.04109 0.00041
1096.65601 1.30620 0.01306 0.04088 0.00041
1095.69104 1.30610 0.01306 0.04055 0.00041
1094.72498 1.30590 0.01306 0.04010 0.00040
1093.76001 1.30560 0.01306 0.03966 0.00040
1092.79504 1.30520 0.01305 0.03936 0.00039
1091.82996 1.30470 0.01305 0.03912 0.00039
1090.86499 1.30430 0.01304 0.03888 0.00039
1089.90002 1.30380 0.01304 0.03864 0.00039
1088.93506 1.30320 0.01303 0.03842 0.00038
1087.96997 1.30260 0.01303 0.03830 0.00038
1087.00500 1.30210 0.01302 0.03838 0.00038
1086.04004 1.30160 0.01302 0.03853 0.00039
1085.07495 1.30130 0.01301 0.03864 0.00039
1084.10901 1.30110 0.01301 0.03869 0.00039
1083.14404 1.30090 0.01301 0.03864 0.00039
1082.17896 1.30070 0.01301 0.03854 0.00039
1081.21399 1.30050 0.01300 0.03843 0.00038
1080.24902 1.30030 0.01300 0.03828 0.00038
1079.28406 1.30010 0.01300 0.03806 0.00038
1078.31897 1.29990 0.01300 0.03778 0.00038
1077.35400 1.29970 0.01300 0.03744 0.00037
1076.38904 1.29950 0.01299 0.03705 0.00037
1075.42395 1.29920 0.01299 0.03660 0.00037
1074.45898 1.29880 0.01299 0.03611 0.00036
1073.49402 1.29840 0.01298 0.03562 0.00036
1072.52795 1.29800 0.01298 0.03511 0.00035
1071.56299 1.29750 0.01297 0.03461 0.00035
1070.59802 1.29690 0.01297 0.03410 0.00034
1069.63306 1.29630 0.01296 0.03356 0.00034
1068.66797 1.29560 0.01296 0.03302 0.00033
1067.70300 1.29480 0.01295 0.03248 0.00032
1066.73804 1.29400 0.01294 0.03198 0.00032
1065.77295 1.29310 0.01293 0.03158 0.00032
1064.80798 1.29220 0.01292 0.03128 0.00031
1063.84302 1.29130 0.01291 0.03108 0.00031
1062.87805 1.29050 0.01290 0.03090 0.00031
1061.91199 1.28970 0.01290 0.03067 0.00031
1060.94702 1.28890 0.01289 0.03040 0.00030
1059.98206 1.28810 0.01288 0.03010 0.00030
1059.01697 1.28730 0.01287 0.02979 0.00030
1058.05200 1.28650 0.01286 0.02951 0.00030
1057.08704 1.28570 0.01286 0.02923 0.00029
1056.12195 1.28490 0.01285 0.02894 0.00029
1055.15698 1.28400 0.01284 0.02858 0.00029
1054.19202 1.28310 0.01283 0.02808 0.00028
1053.22705 1.28210 0.01282 0.02755 0.00028
1052.26196 1.28100 0.01281 0.02706 0.00027
1051.29700 1.27970 0.01280 0.02662 0.00027
1050.33105 1.27840 0.01278 0.02626 0.00026
1049.36597 1.27690 0.01277 0.02599 0.00026
1048.40100 1.27550 0.01276 0.02585 0.00026
1047.43604 1.27400 0.01274 0.02587 0.00026
1046.47095 1.27260 0.01273 0.02608 0.00026
1045.50598 1.27140 0.01271 0.02632 0.00026
1044.54102 1.27020 0.01270 0.02645 0.00026
1043.57605 1.26900 0.01269 0.02656 0.00027
1042.61096 1.26780 0.01268 0.02669 0.00027
1041.64600 1.26670 0.01267 0.02684 0.00027
1040.68103 1.26560 0.01266 0.02702 0.00027
1039.71497 1.26450 0.01264 0.02714 0.00027
1038.75000 1.26340 0.01263 0.02713 0.00027
1037.78503 1.26230 0.01262 0.02711 0.00027
1036.81995 1.26110 0.01261 0.02712 0.00027
1035.85498 1.25990 0.01260 0.02711 0.00027
1034.89001 1.25860 0.01259 0.02706 0.00027
1033.92505 1.25720 0.01257 0.02699 0.00027
1032.95996 1.25580 0.01256 0.02692 0.00027
1031.99500 1.25420 0.01254 0.02696 0.00027
1031.03003 1.25270 0.01253 0.02720 0.00027
1030.06494 1.25110 0.01251 0.02750 0.00027
1029.09900 1.24960 0.01250 0.02779 0.00028
1028.13403 1.24810 0.01248 0.02808 0.00028
1027.16895 1.24660 0.01247 0.02839 0.00028
1026.20398 1.24500 0.01245 0.02875 0.00029
1025.23901 1.24340 0.01243 0.02919 0.00029
1024.27405 1.24190 0.01242 0.02970 0.00030
1023.30902 1.24040 0.01240 0.03031 0.00030
1022.34399 1.23890 0.01239 0.03096 0.00031
1021.37903 1.23760 0.01238 0.03164 0.00032
1020.41302 1.23630 0.01236 0.03225 0.00032
1019.44800 1.23510 0.01235 0.03273 0.00033
1018.48297 1.23380 0.01234 0.03312 0.00033
1017.51801 1.23250 0.01232 0.03343 0.00033
1016.55298 1.23100 0.01231 0.03377 0.00034
1015.58801 1.22950 0.01230 0.03424 0.00034
1014.62299 1.22800 0.01228 0.03476 0.00035
1013.65698 1.22650 0.01227 0.03531 0.00035
1012.69202 1.22500 0.01225 0.03584 0.00036
1011.72699 1.22350 0.01223 0.03632 0.00036
1010.76202 1.22190 0.01222 0.03679 0.00037
1009.79700 1.22030 0.01220 0.03728 0.00037
1008.83197 1.21860 0.01219 0.03781 0.00038
1007.86700 1.21690 0.01217 0.03837 0.00038
1006.90100 1.21520 0.01215 0.03898 0.00039
1005.93597 1.21340 0.01213 0.03966 0.00040
1004.97101 1.21170 0.01212 0.04036 0.00040
1004.00598 1.20990 0.01210 0.04105 0.00041
1003.04102 1.20800 0.01208 0.04179 0.00042
1002.07599 1.20610 0.01206 0.04262 0.00043
1001.10999 1.20420 0.01204 0.04350 0.00043
1000.14502 1.20230 0.01202 0.04446 0.00044
 999.17999 1.20040 0.01200 0.04548 0.00045
 998.21503 1.19850 0.01199 0.04656 0.00047
 997.25000 1.19660 0.01197 0.04770 0.00048
 996.28497 1.19470 0.01195 0.04890 0.00049
 995.32001 1.19280 0.01193 0.05013 0.00050
 994.35400 1.19100 0.01191 0.05136 0.00051
 993.38898 1.18920 0.01189 0.05263 0.00053
 992.42401 1.18740 0.01187 0.05397 0.00054
 991.45898 1.18560 0.01186 0.05532 0.00055
 990.49402 1.18380 0.01184 0.05667 0.00057
 989.52899 1.18210 0.01182 0.05805 0.00058
 988.56403 1.18030 0.01180 0.05946 0.00059
 987.59802 1.17860 0.01179 0.06089 0.00061
 986.63300 1.17700 0.01177 0.06232 0.00062
 985.66803 1.17530 0.01175 0.06368 0.00064
 984.70300 1.17360 0.01174 0.06491 0.00065
 983.73798 1.17180 0.01172 0.06611 0.00066
 982.77301 1.16990 0.01170 0.06731 0.00067
 981.80701 1.16780 0.01168 0.06856 0.00069
 980.84198 1.16570 0.01166 0.06994 0.00070
 979.87701 1.16340 0.01163 0.07143 0.00071
 978.91199 1.16120 0.01161 0.07308 0.00073
 977.94702 1.15890 0.01159 0.07481 0.00075
 976.98199 1.15670 0.01157 0.07660 0.00077
 976.01703 1.15440 0.01154 0.07845 0.00078
 975.05103 1.15210 0.01152 0.08038 0.00080
 974.08600 1.14970 0.01150 0.08244 0.00082
 973.12097 1.14730 0.01147 0.08468 0.00085
 972.15601 1.14500 0.01145 0.08704 0.00087
 971.19098 1.14280 0.01143 0.08952 0.00090
 970.22601 1.14060 0.01141 0.09205 0.00092
 969.26099 1.13850 0.01138 0.09461 0.00095
 968.29498 1.13630 0.01136 0.09721 0.00097
 967.33002 1.13420 0.01134 0.09988 0.00100
 966.36499 1.13210 0.01132 0.10262 0.00103
 965.40002 1.13010 0.01130 0.10545 0.00105
 964.43500 1.12800 0.01128 0.10833 0.00108
 963.46997 1.12600 0.01126 0.11125 0.00111
 962.50500 1.12400 0.01124 0.11421 0.00114
 961.53900 1.12190 0.01122 0.11720 0.00117
 960.57397 1.11970 0.01120 0.12033 0.00120
 959.60901 1.11760 0.01118 0.12367 0.00124
 958.64398 1.11540 0.01115 0.12722 0.00127
 957.67902 1.11340 0.01113 0.13100 0.00131
 956.71399 1.11150 0.01111 0.13493 0.00135
 955.74799 1.10980 0.01110 0.13894 0.00139
 954.78302 1.10830 0.01108 0.14300 0.00143
 953.81799 1.10690 0.01107 0.14704 0.00147
 952.85303 1.10550 0.01105 0.15113 0.00151
 951.88800 1.10430 0.01104 0.15529 0.00155
 950.92297 1.10320 0.01103 0.15944 0.00159
 949.95801 1.10210 0.01102 0.16355 0.00164
 948.99200 1.10100 0.01101 0.16770 0.00168
 948.02698 1.09990 0.01100 0.17190 0.00172
 947.06201 1.09880 0.01099 0.17622 0.00176
 946.09698 1.09780 0.01098 0.18073 0.00181
 945.13202 1.09690 0.01097 0.18536 0.00185
 944.16699 1.09610 0.01096 0.19007 0.00190
 943.20203 1.09540 0.01095 0.19494 0.00195
 942.23602 1.09500 0.01095 0.19996 0.00200
 941.27100 1.09470 0.01095 0.20499 0.00205
 940.30603 1.09460 0.01095 0.20996 0.00210
 939.34100 1.09470 0.01095 0.21494 0.00215
 938.37598 1.09480 0.01095 0.21994 0.00220
 937.41101 1.09510 0.01095 0.22498 0.00225
 936.44501 1.09550 0.01095 0.23011 0.00230
 935.47998 1.09620 0.01096 0.23525 0.00235
 934.51501 1.09700 0.01097 0.24036 0.00240
 933.54999 1.09800 0.01098 0.24543 0.00245
 932.58502 1.09910 0.01099 0.25042 0.00250
 931.62000 1.10030 0.01100 0.25533 0.00255
 930.65503 1.10170 0.01102 0.26015 0.00260
 929.68903 1.10310 0.01103 0.26495 0.00265
 928.72400 1.10460 0.01105 0.26974 0.00270
 927.75897 1.10630 0.01106 0.27446 0.00274
 926.79401 1.10800 0.01108 0.27906 0.00279
 925.82898 1.10980 0.01110 0.28361 0.00284
 924.86401 1.11160 0.01112 0.28810 0.00288
 923.89899 1.11340 0.01113 0.29261 0.00293
 922.93298 1.11520 0.01115 0.29717 0.00297
 921.96802 1.11720 0.01117 0.30180 0.00302
 921.00299 1.11930 0.01119 0.30651 0.00307
 920.03802 1.12160 0.01122 0.31125 0.00311
 919.07300 1.12420 0.01124 0.31597 0.00316
 918.10797 1.12700 0.01127 0.32051 0.00321
 917.14301 1.12990 0.01130 0.32474 0.00325
 916.17700 1.13280 0.01133 0.32883 0.00329
 915.21198 1.13560 0.01136 0.33283 0.00333
 914.24701 1.13850 0.01138 0.33682 0.00337
 913.28198 1.14150 0.01142 0.34092 0.00341
 912.31702 1.14450 0.01144 0.34496 0.00345
 911.35199 1.14770 0.01148 0.34889 0.00349
 910.38599 1.15090 0.01151 0.35278 0.00353
 909.42102 1.15420 0.01154 0.35664 0.00357
 908.45599 1.15770 0.01158 0.36046 0.00360
 907.49103 1.16130 0.01161 0.36424 0.00364
 906.52600 1.16500 0.01165 0.36792 0.00368
 905.56097 1.16890 0.01169 0.37145 0.00371
 904.59601 1.17290 0.01173 0.37482 0.00375
 903.63000 1.17710 0.01177 0.37799 0.00378
 902.66498 1.18130 0.01181 0.38094 0.00381
 901.70001 1.18550 0.01185 0.38366 0.00384
 900.73499 1.18960 0.01190 0.38618 0.00386
 899.77002 1.19370 0.01194 0.38851 0.00389
 898.80499 1.19770 0.01198 0.39073 0.00391
 897.84003 1.20150 0.01201 0.39289 0.00393
 896.87402 1.20540 0.01205 0.39499 0.00395
 895.90900 1.20910 0.01209 0.39706 0.00397
 894.94397 1.21290 0.01213 0.39911 0.00399
 893.97900 1.21660 0.01217 0.40117 0.00401
 893.01398 1.22040 0.01220 0.40315 0.00403
 892.04901 1.22420 0.01224 0.40503 0.00405
 891.08301 1.22790 0.01228 0.40682 0.00407
 890.11798 1.23160 0.01232 0.40851 0.00409
 889.15302 1.23520 0.01235 0.41018 0.00410
 888.18799 1.23870 0.01239 0.41187 0.00412
 887.22302 1.24220 0.01242 0.41354 0.00414
 886.25800 1.24560 0.01246 0.41522 0.00415
 885.29303 1.24910 0.01249 0.41700 0.00417
 884.32703 1.25260 0.01253 0.41892 0.00419
 883.36200 1.25610 0.01256 0.42086 0.00421
 882.39697 1.25980 0.01260 0.42278 0.00423
 881.43201 1.26360 0.01264 0.42467 0.00425
 880.46698 1.26750 0.01268 0.42648 0.00426
 879.50201 1.27160 0.01272 0.42824 0.00428
 878.53699 1.27570 0.01276 0.42994 0.00430
 877.57098 1.28000 0.01280 0.43144 0.00431
 876.60602 1.28430 0.01284 0.43267 0.00433
 875.64099 1.28850 0.01288 0.43375 0.00434
 874.67603 1.29270 0.01293 0.43469 0.00435
 873.71100 1.29690 0.01297 0.43552 0.00436
 872.74597 1.30100 0.01301 0.43628 0.00436
 871.78101 1.30500 0.01305 0.43685 0.00437
 870.81500 1.30880 0.01309 0.43719 0.00437
 869.84998 1.31250 0.01312 0.43752 0.00438
 868.88501 1.31590 0.01316 0.43792 0.00438
 867.91998 1.31920 0.01319 0.43844 0.00438
 866.95502 1.32250 0.01322 0.43919 0.00439
 865.98999 1.32580 0.01326 0.44002 0.00440
 865.02399 1.32910 0.01329 0.44091 0.00441
 864.05902 1.33260 0.01333 0.44183 0.00442
 863.09399 1.33610 0.01336 0.44275 0.00443
 862.12903 1.33960 0.01340 0.44366 0.00444
 861.16400 1.34330 0.01343 0.44455 0.00445
 860.19897 1.34690 0.01347 0.44541 0.00445
 859.23401 1.35060 0.01351 0.44622 0.00446
 858.26801 1.35440 0.01354 0.44704 0.00447
 857.30298 1.35830 0.01358 0.44786 0.00448
 856.33801 1.36220 0.01362 0.44857 0.00449
 855.37299 1.36620 0.01366 0.44910 0.00449
 854.40802 1.37010 0.01370 0.44954 0.00450
 853.44299 1.37390 0.01374 0.44988 0.00450
 852.47803 1.37770 0.01378 0.45028 0.00450
 851.51202 1.38150 0.01381 0.45082 0.00451
 850.54700 1.38530 0.01385 0.45133 0.00451
 849.58197 1.38930 0.01389 0.45181 0.00452
 848.61700 1.39330 0.01393 0.45218 0.00452
 847.65198 1.39730 0.01397 0.45237 0.00452
 846.68701 1.40130 0.01401 0.45252 0.00453
 845.72101 1.40530 0.01405 0.45269 0.00453
 844.75598 1.40920 0.01409 0.45284 0.00453
 843.79102 1.41320 0.01413 0.45301 0.00453
 842.82599 1.41720 0.01417 0.45316 0.00453
 841.86102 1.42130 0.01421 0.45328 0.00453
 840.89600 1.42540 0.01425 0.45334 0.00453
 839.93103 1.42960 0.01430 0.45332 0.00453
 838.96503 1.43380 0.01434 0.45324 0.00453
 838.00000 1.43810 0.01438 0.45312 0.00453
 837.03497 1.44250 0.01442 0.45292 0.00453
 836.07001 1.44690 0.01447 0.45262 0.00453
 835.10498 1.45140 0.01451 0.45215 0.00452
 834.14001 1.45590 0.01456 0.45145 0.00451
 833.17499 1.46030 0.01460 0.45059 0.00451
 832.20898 1.46460 0.01465 0.44955 0.00450
 831.24402 1.46870 0.01469 0.44843 0.00448
 830.27899 1.47270 0.01473 0.44728 0.00447
 829.31403 1.47660 0.01477 0.44616 0.00446
 828.34900 1.48040 0.01480 0.44513 0.00445
 827.38397 1.48420 0.01484 0.44411 0.00444
 826.41901 1.48800 0.01488 0.44307 0.00443
 825.45300 1.49180 0.01492 0.44205 0.00442
 824.48798 1.49550 0.01495 0.44101 0.00441
 823.52301 1.49930 0.01499 0.44007 0.00440
 822.55798 1.50320 0.01503 0.43929 0.00439
 821.59302 1.50720 0.01507 0.43843 0.00438
 820.62799 1.51140 0.01511 0.43745 0.00437
 819.66199 1.51560 0.01516 0.43637 0.00436
 818.69702 1.52000 0.01520 0.43509 0.00435
 817.73199 1.52430 0.01524 0.43368 0.00434
 816.76703 1.52870 0.01529 0.43216 0.00432
 815.80200 1.53300 0.01533 0.43042 0.00430
 814.83698 1.53730 0.01537 0.42845 0.00428
 813.87201 1.54150 0.01541 0.42639 0.00426
 812.90601 1.54550 0.01546 0.42427 0.00424
 811.94098 1.54950 0.01549 0.42201 0.00422
 810.97601 1.55330 0.01553 0.41963 0.00420
 810.01099 1.55700 0.01557 0.41725 0.00417
 809.04602 1.56060 0.01561 0.41487 0.00415
 808.08099 1.56420 0.01564 0.41255 0.00413
 807.11603 1.56780 0.01568 0.41036 0.00410
 806.15002 1.57140 0.01571 0.40801 0.00408
 805.18500 1.57500 0.01575 0.40544 0.00405
 804.21997 1.57840 0.01578 0.40283 0.00403
 803.25500 1.58170 0.01582 0.40014 0.00400
 802.28998 1.58500 0.01585 0.39753 0.00398
 801.32501 1.58830 0.01588 0.39513 0.00395
 800.35901 1.59150 0.01592 0.39275 0.00393
