#FORMAT = WAVN N dn K dK
#DESCRIPTION = Refractive indices of water ice at 200 K from 800 to 4004 cm<SUP>-1</SUP>
#SUBSTANCE= Water Ice
#SAMPLEFORM= Aerosol
#TEMPERATURE= 200 K
#CONCENTRATION= 100 %
#DOI=10.1021/j100017a010
#REFERENCE= Clapp, M. L., R. E. Miller, and D. R. Worsnop, Frequency-
## Dependent Optical Constants of Water Ice Obtained Directly from Aerosol
## Extinction Spectra, J. Phys. Chem., volume 99, pgs. 6317-6326, 1995.
#CONTACT= R. E. Miller (remiller@unc.edu)
#COMMENT= downloaded from ftp://frenchie.chem.unc.edu/ri/Water/
4003.73901 1.23242 0.01232 0.00601 0.00006
4002.53491 1.23225 0.01232 0.00626 0.00006
4001.57007 1.23213 0.01232 0.00645 0.00006
4000.60498 1.23204 0.01232 0.00663 0.00007
3999.63989 1.23198 0.01232 0.00679 0.00007
3998.67505 1.23197 0.01232 0.00693 0.00007
3997.70898 1.23198 0.01232 0.00705 0.00007
3996.74390 1.23202 0.01232 0.00717 0.00007
3995.77905 1.23207 0.01232 0.00729 0.00007
3994.81396 1.23214 0.01232 0.00740 0.00007
3993.84912 1.23224 0.01232 0.00747 0.00007
3992.88403 1.23236 0.01232 0.00751 0.00008
3991.91895 1.23248 0.01232 0.00749 0.00007
3990.95410 1.23260 0.01233 0.00744 0.00007
3989.98901 1.23271 0.01233 0.00735 0.00007
3989.02393 1.23279 0.01233 0.00723 0.00007
3988.05908 1.23285 0.01233 0.00707 0.00007
3987.09302 1.23289 0.01233 0.00688 0.00007
3986.12793 1.23289 0.01233 0.00667 0.00007
3985.16309 1.23285 0.01233 0.00645 0.00006
3984.19800 1.23276 0.01233 0.00622 0.00006
3983.23291 1.23263 0.01233 0.00598 0.00006
3982.26807 1.23243 0.01232 0.00574 0.00006
3981.30298 1.23218 0.01232 0.00552 0.00006
3980.33789 1.23188 0.01232 0.00534 0.00005
3979.37305 1.23153 0.01232 0.00522 0.00005
3978.40796 1.23116 0.01231 0.00518 0.00005
3977.44312 1.23079 0.01231 0.00522 0.00005
3976.47803 1.23044 0.01230 0.00534 0.00005
3975.51196 1.23015 0.01230 0.00554 0.00006
3974.54712 1.22993 0.01230 0.00578 0.00006
3973.58203 1.22980 0.01230 0.00604 0.00006
3972.61694 1.22976 0.01230 0.00629 0.00006
3971.65210 1.22978 0.01230 0.00650 0.00007
3970.68701 1.22987 0.01230 0.00663 0.00007
3969.72192 1.22997 0.01230 0.00668 0.00007
3968.75708 1.23008 0.01230 0.00666 0.00007
3967.79199 1.23016 0.01230 0.00659 0.00007
3966.82690 1.23021 0.01230 0.00647 0.00006
3965.86206 1.23022 0.01230 0.00631 0.00006
3964.89600 1.23018 0.01230 0.00611 0.00006
3963.93091 1.23008 0.01230 0.00590 0.00006
3962.96606 1.22993 0.01230 0.00571 0.00006
3962.00098 1.22974 0.01230 0.00553 0.00006
3961.03589 1.22951 0.01230 0.00538 0.00005
3960.07104 1.22923 0.01229 0.00523 0.00005
3959.10596 1.22892 0.01229 0.00511 0.00005
3958.14111 1.22856 0.01229 0.00505 0.00005
3957.17603 1.22820 0.01228 0.00506 0.00005
3956.21094 1.22783 0.01228 0.00515 0.00005
3955.24609 1.22750 0.01227 0.00531 0.00005
3954.28101 1.22721 0.01227 0.00551 0.00006
3953.31494 1.22697 0.01227 0.00574 0.00006
3952.35010 1.22680 0.01227 0.00600 0.00006
3951.38501 1.22670 0.01227 0.00627 0.00006
3950.41992 1.22668 0.01227 0.00653 0.00007
3949.45508 1.22672 0.01227 0.00673 0.00007
3948.48999 1.22681 0.01227 0.00685 0.00007
3947.52490 1.22691 0.01227 0.00689 0.00007
3946.56006 1.22698 0.01227 0.00685 0.00007
3945.59497 1.22701 0.01227 0.00674 0.00007
3944.62988 1.22697 0.01227 0.00660 0.00007
3943.66504 1.22686 0.01227 0.00645 0.00006
3942.69897 1.22666 0.01227 0.00631 0.00006
3941.73389 1.22641 0.01226 0.00623 0.00006
3940.76904 1.22614 0.01226 0.00622 0.00006
3939.80396 1.22587 0.01226 0.00629 0.00006
3938.83911 1.22564 0.01226 0.00641 0.00006
3937.87402 1.22545 0.01225 0.00657 0.00007
3936.90894 1.22531 0.01225 0.00673 0.00007
3935.94409 1.22521 0.01225 0.00688 0.00007
3934.97900 1.22513 0.01225 0.00701 0.00007
3934.01392 1.22506 0.01225 0.00711 0.00007
3933.04907 1.22499 0.01225 0.00720 0.00007
3932.08301 1.22492 0.01225 0.00730 0.00007
3931.11792 1.22484 0.01225 0.00741 0.00007
3930.15308 1.22478 0.01225 0.00753 0.00008
3929.18799 1.22475 0.01225 0.00766 0.00008
3928.22290 1.22476 0.01225 0.00779 0.00008
3927.25806 1.22480 0.01225 0.00791 0.00008
3926.29297 1.22489 0.01225 0.00799 0.00008
3925.32788 1.22499 0.01225 0.00801 0.00008
3924.36304 1.22509 0.01225 0.00797 0.00008
3923.39795 1.22514 0.01225 0.00788 0.00008
3922.43311 1.22516 0.01225 0.00776 0.00008
3921.46802 1.22515 0.01225 0.00765 0.00008
3920.50195 1.22511 0.01225 0.00755 0.00008
3919.53711 1.22505 0.01225 0.00745 0.00007
3918.57202 1.22498 0.01225 0.00738 0.00007
3917.60693 1.22492 0.01225 0.00732 0.00007
3916.64209 1.22488 0.01225 0.00728 0.00007
3915.67700 1.22486 0.01225 0.00722 0.00007
3914.71191 1.22486 0.01225 0.00712 0.00007
3913.74707 1.22486 0.01225 0.00698 0.00007
3912.78198 1.22484 0.01225 0.00677 0.00007
3911.81689 1.22476 0.01225 0.00651 0.00007
3910.85205 1.22462 0.01225 0.00623 0.00006
3909.88599 1.22441 0.01224 0.00598 0.00006
3908.92090 1.22415 0.01224 0.00575 0.00006
3907.95605 1.22384 0.01224 0.00556 0.00006
3906.99097 1.22349 0.01223 0.00540 0.00005
3906.02588 1.22312 0.01223 0.00530 0.00005
3905.06104 1.22273 0.01223 0.00525 0.00005
3904.09595 1.22234 0.01222 0.00527 0.00005
3903.13110 1.22197 0.01222 0.00535 0.00005
3902.16602 1.22162 0.01222 0.00548 0.00005
3901.20093 1.22131 0.01221 0.00563 0.00006
3900.23608 1.22104 0.01221 0.00581 0.00006
3899.27100 1.22081 0.01221 0.00603 0.00006
3898.30493 1.22063 0.01221 0.00627 0.00006
3897.34009 1.22051 0.01221 0.00652 0.00007
3896.37500 1.22044 0.01220 0.00675 0.00007
3895.40991 1.22043 0.01220 0.00695 0.00007
3894.44507 1.22046 0.01220 0.00711 0.00007
3893.47998 1.22053 0.01221 0.00724 0.00007
3892.51489 1.22062 0.01221 0.00734 0.00007
3891.55005 1.22073 0.01221 0.00738 0.00007
3890.58496 1.22085 0.01221 0.00735 0.00007
3889.62012 1.22097 0.01221 0.00725 0.00007
3888.65503 1.22106 0.01221 0.00709 0.00007
3887.68896 1.22113 0.01221 0.00688 0.00007
3886.72412 1.22114 0.01221 0.00664 0.00007
3885.75903 1.22109 0.01221 0.00635 0.00006
3884.79395 1.22096 0.01221 0.00602 0.00006
3883.82910 1.22076 0.01221 0.00570 0.00006
3882.86401 1.22048 0.01220 0.00541 0.00005
3881.89893 1.22013 0.01220 0.00518 0.00005
3880.93408 1.21975 0.01220 0.00501 0.00005
3879.96899 1.21935 0.01219 0.00491 0.00005
3879.00391 1.21895 0.01219 0.00485 0.00005
3878.03906 1.21857 0.01219 0.00484 0.00005
3877.07300 1.21820 0.01218 0.00489 0.00005
3876.10791 1.21787 0.01218 0.00497 0.00005
3875.14307 1.21757 0.01218 0.00508 0.00005
3874.17798 1.21730 0.01217 0.00519 0.00005
3873.21289 1.21704 0.01217 0.00529 0.00005
3872.24805 1.21681 0.01217 0.00539 0.00005
3871.28296 1.21659 0.01217 0.00550 0.00005
3870.31812 1.21639 0.01216 0.00561 0.00006
3869.35303 1.21622 0.01216 0.00572 0.00006
3868.38794 1.21606 0.01216 0.00581 0.00006
3867.42310 1.21590 0.01216 0.00587 0.00006
3866.45801 1.21574 0.01216 0.00592 0.00006
3865.49194 1.21557 0.01216 0.00596 0.00006
3864.52710 1.21538 0.01215 0.00601 0.00006
3863.56201 1.21518 0.01215 0.00608 0.00006
3862.59692 1.21498 0.01215 0.00616 0.00006
3861.63208 1.21478 0.01215 0.00626 0.00006
3860.66699 1.21460 0.01215 0.00639 0.00006
3859.70190 1.21444 0.01214 0.00653 0.00007
3858.73706 1.21431 0.01214 0.00669 0.00007
3857.77197 1.21421 0.01214 0.00684 0.00007
3856.80688 1.21414 0.01214 0.00698 0.00007
3855.84204 1.21411 0.01214 0.00711 0.00007
3854.87598 1.21412 0.01214 0.00721 0.00007
3853.91089 1.21414 0.01214 0.00727 0.00007
3852.94604 1.21417 0.01214 0.00728 0.00007
3851.98096 1.21418 0.01214 0.00723 0.00007
3851.01611 1.21416 0.01214 0.00714 0.00007
3850.05103 1.21411 0.01214 0.00704 0.00007
3849.08594 1.21404 0.01214 0.00693 0.00007
3848.12109 1.21393 0.01214 0.00683 0.00007
3847.15601 1.21380 0.01214 0.00673 0.00007
3846.19092 1.21365 0.01214 0.00662 0.00007
3845.22607 1.21347 0.01213 0.00652 0.00007
3844.26001 1.21326 0.01213 0.00645 0.00006
3843.29492 1.21305 0.01213 0.00640 0.00006
3842.33008 1.21283 0.01213 0.00638 0.00006
3841.36499 1.21262 0.01213 0.00639 0.00006
3840.39990 1.21243 0.01212 0.00641 0.00006
3839.43506 1.21226 0.01212 0.00646 0.00006
3838.46997 1.21212 0.01212 0.00651 0.00007
3837.50488 1.21201 0.01212 0.00656 0.00007
3836.54004 1.21193 0.01212 0.00658 0.00007
3835.57495 1.21187 0.01212 0.00659 0.00007
3834.61011 1.21182 0.01212 0.00656 0.00007
3833.64502 1.21178 0.01212 0.00649 0.00006
3832.67896 1.21174 0.01212 0.00636 0.00006
3831.71411 1.21165 0.01212 0.00620 0.00006
3830.74902 1.21152 0.01212 0.00602 0.00006
3829.78394 1.21135 0.01211 0.00583 0.00006
3828.81909 1.21113 0.01211 0.00565 0.00006
3827.85400 1.21089 0.01211 0.00550 0.00005
3826.88892 1.21062 0.01211 0.00537 0.00005
3825.92407 1.21034 0.01210 0.00527 0.00005
3824.95898 1.21006 0.01210 0.00521 0.00005
3823.99390 1.20980 0.01210 0.00517 0.00005
3823.02905 1.20956 0.01210 0.00514 0.00005
3822.06299 1.20933 0.01209 0.00510 0.00005
3821.09790 1.20912 0.01209 0.00501 0.00005
3820.13306 1.20889 0.01209 0.00491 0.00005
3819.16797 1.20863 0.01209 0.00480 0.00005
3818.20288 1.20834 0.01208 0.00469 0.00005
3817.23804 1.20802 0.01208 0.00459 0.00005
3816.27295 1.20766 0.01208 0.00451 0.00005
3815.30811 1.20728 0.01207 0.00445 0.00004
3814.34302 1.20689 0.01207 0.00443 0.00004
3813.37793 1.20649 0.01206 0.00447 0.00004
3812.41309 1.20611 0.01206 0.00455 0.00005
3811.44800 1.20574 0.01206 0.00466 0.00005
3810.48193 1.20540 0.01205 0.00479 0.00005
3809.51709 1.20507 0.01205 0.00493 0.00005
3808.55200 1.20477 0.01205 0.00511 0.00005
3807.58691 1.20449 0.01204 0.00532 0.00005
3806.62207 1.20426 0.01204 0.00556 0.00006
3805.65698 1.20410 0.01204 0.00582 0.00006
3804.69189 1.20399 0.01204 0.00605 0.00006
3803.72705 1.20395 0.01204 0.00625 0.00006
3802.76196 1.20395 0.01204 0.00641 0.00006
3801.79712 1.20398 0.01204 0.00654 0.00007
3800.83203 1.20405 0.01204 0.00659 0.00007
3799.86597 1.20412 0.01204 0.00657 0.00007
3798.90088 1.20418 0.01204 0.00646 0.00006
3797.93604 1.20419 0.01204 0.00628 0.00006
3796.97095 1.20414 0.01204 0.00607 0.00006
3796.00610 1.20404 0.01204 0.00584 0.00006
3795.04102 1.20387 0.01204 0.00560 0.00006
3794.07593 1.20365 0.01204 0.00537 0.00005
3793.11108 1.20338 0.01203 0.00515 0.00005
3792.14600 1.20307 0.01203 0.00496 0.00005
3791.18091 1.20272 0.01203 0.00482 0.00005
3790.21606 1.20236 0.01202 0.00473 0.00005
3789.25000 1.20200 0.01202 0.00467 0.00005
3788.28491 1.20165 0.01202 0.00464 0.00005
3787.32007 1.20132 0.01201 0.00464 0.00005
3786.35498 1.20100 0.01201 0.00467 0.00005
3785.38989 1.20071 0.01201 0.00473 0.00005
3784.42505 1.20046 0.01200 0.00480 0.00005
3783.45996 1.20024 0.01200 0.00485 0.00005
3782.49512 1.20005 0.01200 0.00487 0.00005
3781.53003 1.19987 0.01200 0.00485 0.00005
3780.56494 1.19970 0.01200 0.00479 0.00005
3779.60010 1.19950 0.01199 0.00471 0.00005
3778.63501 1.19927 0.01199 0.00462 0.00005
3777.66895 1.19902 0.01199 0.00451 0.00005
3776.70410 1.19874 0.01199 0.00440 0.00004
3775.73901 1.19843 0.01198 0.00430 0.00004
3774.77393 1.19810 0.01198 0.00423 0.00004
3773.80908 1.19776 0.01198 0.00419 0.00004
3772.84399 1.19741 0.01197 0.00418 0.00004
3771.87891 1.19709 0.01197 0.00418 0.00004
3770.91406 1.19679 0.01197 0.00419 0.00004
3769.94897 1.19650 0.01196 0.00419 0.00004
3768.98389 1.19622 0.01196 0.00418 0.00004
3768.01904 1.19593 0.01196 0.00416 0.00004
3767.05298 1.19565 0.01196 0.00413 0.00004
3766.08789 1.19534 0.01195 0.00407 0.00004
3765.12305 1.19501 0.01195 0.00401 0.00004
3764.15796 1.19464 0.01195 0.00396 0.00004
3763.19312 1.19425 0.01194 0.00394 0.00004
3762.22803 1.19385 0.01194 0.00397 0.00004
3761.26294 1.19345 0.01193 0.00405 0.00004
3760.29810 1.19309 0.01193 0.00415 0.00004
3759.33301 1.19274 0.01193 0.00426 0.00004
3758.36792 1.19243 0.01192 0.00437 0.00004
3757.40308 1.19212 0.01192 0.00446 0.00004
3756.43701 1.19182 0.01192 0.00457 0.00005
3755.47192 1.19153 0.01192 0.00470 0.00005
3754.50708 1.19125 0.01191 0.00484 0.00005
3753.54199 1.19100 0.01191 0.00499 0.00005
3752.57690 1.19077 0.01191 0.00514 0.00005
3751.61206 1.19058 0.01191 0.00530 0.00005
3750.64697 1.19044 0.01190 0.00545 0.00005
3749.68188 1.19034 0.01190 0.00559 0.00006
3748.71704 1.19028 0.01190 0.00569 0.00006
3747.75195 1.19026 0.01190 0.00573 0.00006
3746.78711 1.19024 0.01190 0.00569 0.00006
3745.82202 1.19021 0.01190 0.00556 0.00006
3744.85596 1.19014 0.01190 0.00538 0.00005
3743.89111 1.19001 0.01190 0.00518 0.00005
3742.92603 1.18983 0.01190 0.00495 0.00005
3741.96094 1.18960 0.01190 0.00471 0.00005
3740.99609 1.18931 0.01189 0.00447 0.00004
3740.03101 1.18898 0.01189 0.00426 0.00004
3739.06592 1.18862 0.01189 0.00408 0.00004
3738.10107 1.18825 0.01188 0.00394 0.00004
3737.13599 1.18788 0.01188 0.00381 0.00004
3736.17090 1.18750 0.01187 0.00370 0.00004
3735.20605 1.18712 0.01187 0.00357 0.00004
3734.23999 1.18672 0.01187 0.00343 0.00003
3733.27490 1.18629 0.01186 0.00332 0.00003
3732.31006 1.18586 0.01186 0.00324 0.00003
3731.34497 1.18542 0.01185 0.00319 0.00003
3730.37988 1.18500 0.01185 0.00317 0.00003
3729.41504 1.18460 0.01185 0.00315 0.00003
3728.44995 1.18421 0.01184 0.00311 0.00003
3727.48511 1.18383 0.01184 0.00307 0.00003
3726.52002 1.18344 0.01183 0.00300 0.00003
3725.55493 1.18303 0.01183 0.00292 0.00003
3724.59009 1.18260 0.01183 0.00282 0.00003
3723.62500 1.18211 0.01182 0.00271 0.00003
3722.65894 1.18156 0.01182 0.00262 0.00003
3721.69409 1.18097 0.01181 0.00260 0.00003
3720.72900 1.18038 0.01180 0.00267 0.00003
3719.76392 1.17981 0.01180 0.00283 0.00003
3718.79907 1.17929 0.01179 0.00304 0.00003
3717.83398 1.17884 0.01179 0.00327 0.00003
3716.86890 1.17845 0.01178 0.00350 0.00004
3715.90405 1.17811 0.01178 0.00372 0.00004
3714.93896 1.17783 0.01178 0.00393 0.00004
3713.97412 1.17759 0.01178 0.00410 0.00004
3713.00903 1.17737 0.01177 0.00422 0.00004
3712.04297 1.17715 0.01177 0.00427 0.00004
3711.07788 1.17692 0.01177 0.00427 0.00004
3710.11304 1.17667 0.01177 0.00427 0.00004
3709.14795 1.17641 0.01176 0.00427 0.00004
3708.18311 1.17615 0.01176 0.00426 0.00004
3707.21802 1.17590 0.01176 0.00422 0.00004
3706.25293 1.17565 0.01176 0.00413 0.00004
3705.28809 1.17538 0.01175 0.00400 0.00004
3704.32300 1.17507 0.01175 0.00385 0.00004
3703.35791 1.17472 0.01175 0.00366 0.00004
3702.39307 1.17430 0.01174 0.00345 0.00003
3701.42700 1.17382 0.01174 0.00321 0.00003
3700.46191 1.17325 0.01173 0.00299 0.00003
3699.49707 1.17259 0.01173 0.00283 0.00003
3698.53198 1.17189 0.01172 0.00276 0.00003
3697.56689 1.17118 0.01171 0.00281 0.00003
3696.60205 1.17049 0.01170 0.00295 0.00003
3695.63696 1.16985 0.01170 0.00316 0.00003
3694.67212 1.16928 0.01169 0.00341 0.00003
3693.70703 1.16877 0.01169 0.00367 0.00004
3692.74194 1.16833 0.01168 0.00394 0.00004
3691.77710 1.16793 0.01168 0.00419 0.00004
3690.81201 1.16758 0.01168 0.00440 0.00004
3689.84595 1.16725 0.01167 0.00457 0.00005
3688.88110 1.16693 0.01167 0.00471 0.00005
3687.91602 1.16661 0.01167 0.00483 0.00005
3686.95093 1.16630 0.01166 0.00493 0.00005
3685.98608 1.16598 0.01166 0.00503 0.00005
3685.02100 1.16566 0.01166 0.00509 0.00005
3684.05591 1.16534 0.01165 0.00512 0.00005
3683.09106 1.16499 0.01165 0.00514 0.00005
3682.12598 1.16463 0.01165 0.00516 0.00005
3681.16089 1.16426 0.01164 0.00518 0.00005
3680.19604 1.16390 0.01164 0.00520 0.00005
3679.22998 1.16352 0.01164 0.00521 0.00005
3678.26489 1.16313 0.01163 0.00520 0.00005
3677.30005 1.16273 0.01163 0.00518 0.00005
3676.33496 1.16231 0.01162 0.00517 0.00005
3675.37012 1.16188 0.01162 0.00517 0.00005
3674.40503 1.16144 0.01161 0.00516 0.00005
3673.43994 1.16097 0.01161 0.00514 0.00005
3672.47510 1.16050 0.01161 0.00514 0.00005
3671.51001 1.16002 0.01160 0.00517 0.00005
3670.54492 1.15954 0.01160 0.00523 0.00005
3669.58008 1.15908 0.01159 0.00530 0.00005
3668.61401 1.15863 0.01159 0.00536 0.00005
3667.64893 1.15820 0.01158 0.00540 0.00005
3666.68408 1.15778 0.01158 0.00541 0.00005
3665.71899 1.15735 0.01157 0.00541 0.00005
3664.75391 1.15690 0.01157 0.00539 0.00005
3663.78906 1.15643 0.01156 0.00535 0.00005
3662.82397 1.15593 0.01156 0.00529 0.00005
3661.85889 1.15539 0.01155 0.00525 0.00005
3660.89404 1.15481 0.01155 0.00522 0.00005
3659.92896 1.15422 0.01154 0.00523 0.00005
3658.96411 1.15362 0.01154 0.00529 0.00005
3657.99902 1.15302 0.01153 0.00538 0.00005
3657.03296 1.15244 0.01152 0.00549 0.00005
3656.06812 1.15188 0.01152 0.00562 0.00006
3655.10303 1.15134 0.01151 0.00574 0.00006
3654.13794 1.15082 0.01151 0.00585 0.00006
3653.17310 1.15030 0.01150 0.00596 0.00006
3652.20801 1.14978 0.01150 0.00606 0.00006
3651.24292 1.14926 0.01149 0.00616 0.00006
3650.27808 1.14873 0.01149 0.00627 0.00006
3649.31299 1.14820 0.01148 0.00638 0.00006
3648.34790 1.14768 0.01148 0.00649 0.00006
3647.38306 1.14717 0.01147 0.00660 0.00007
3646.41699 1.14666 0.01147 0.00671 0.00007
3645.45190 1.14615 0.01146 0.00682 0.00007
3644.48706 1.14564 0.01146 0.00691 0.00007
3643.52197 1.14513 0.01145 0.00699 0.00007
3642.55688 1.14461 0.01145 0.00706 0.00007
3641.59204 1.14408 0.01144 0.00714 0.00007
3640.62695 1.14354 0.01144 0.00721 0.00007
3639.66211 1.14300 0.01143 0.00729 0.00007
3638.69702 1.14245 0.01142 0.00737 0.00007
3637.73193 1.14189 0.01142 0.00746 0.00007
3636.76709 1.14132 0.01141 0.00753 0.00008
3635.80200 1.14073 0.01141 0.00761 0.00008
3634.83594 1.14013 0.01140 0.00770 0.00008
3633.87109 1.13951 0.01140 0.00781 0.00008
3632.90601 1.13890 0.01139 0.00795 0.00008
3631.94092 1.13829 0.01138 0.00812 0.00008
3630.97607 1.13770 0.01138 0.00831 0.00008
3630.01099 1.13713 0.01137 0.00850 0.00008
3629.04590 1.13659 0.01137 0.00870 0.00009
3628.08105 1.13609 0.01136 0.00889 0.00009
3627.11597 1.13559 0.01136 0.00907 0.00009
3626.15088 1.13511 0.01135 0.00922 0.00009
3625.18604 1.13463 0.01135 0.00934 0.00009
3624.21997 1.13416 0.01134 0.00944 0.00009
3623.25488 1.13367 0.01134 0.00951 0.00010
3622.29004 1.13317 0.01133 0.00958 0.00010
3621.32495 1.13266 0.01133 0.00963 0.00010
3620.36011 1.13213 0.01132 0.00967 0.00010
3619.39502 1.13158 0.01132 0.00969 0.00010
3618.42993 1.13102 0.01131 0.00971 0.00010
3617.46509 1.13044 0.01130 0.00972 0.00010
3616.50000 1.12984 0.01130 0.00972 0.00010
3615.53491 1.12921 0.01129 0.00974 0.00010
3614.57007 1.12856 0.01129 0.00975 0.00010
3613.60400 1.12790 0.01128 0.00977 0.00010
3612.63892 1.12722 0.01127 0.00979 0.00010
3611.67407 1.12652 0.01127 0.00984 0.00010
3610.70898 1.12581 0.01126 0.00992 0.00010
3609.74390 1.12512 0.01125 0.01002 0.00010
3608.77905 1.12443 0.01124 0.01012 0.00010
3607.81396 1.12375 0.01124 0.01022 0.00010
3606.84912 1.12306 0.01123 0.01030 0.00010
3605.88403 1.12236 0.01122 0.01036 0.00010
3604.91895 1.12167 0.01122 0.01044 0.00010
3603.95410 1.12100 0.01121 0.01056 0.00011
3602.98901 1.12033 0.01120 0.01066 0.00011
3602.02295 1.11961 0.01120 0.01062 0.00011
3601.05811 1.11883 0.01119 0.01052 0.00011
3600.09302 1.11799 0.01118 0.01049 0.00010
3599.12793 1.11709 0.01117 0.01059 0.00011
3598.16309 1.11618 0.01116 0.01073 0.00011
3597.19800 1.11527 0.01115 0.01088 0.00011
3596.23291 1.11438 0.01114 0.01105 0.00011
3595.26807 1.11350 0.01113 0.01127 0.00011
3594.30298 1.11262 0.01113 0.01151 0.00012
3593.33789 1.11175 0.01112 0.01176 0.00012
3592.37305 1.11090 0.01111 0.01202 0.00012
3591.40698 1.11007 0.01110 0.01230 0.00012
3590.44189 1.10927 0.01109 0.01258 0.00013
3589.47705 1.10848 0.01108 0.01286 0.00013
3588.51196 1.10770 0.01108 0.01313 0.00013
3587.54712 1.10692 0.01107 0.01337 0.00013
3586.58203 1.10613 0.01106 0.01359 0.00014
3585.61694 1.10533 0.01105 0.01381 0.00014
3584.65210 1.10452 0.01105 0.01403 0.00014
3583.68701 1.10370 0.01104 0.01427 0.00014
3582.72192 1.10285 0.01103 0.01449 0.00014
3581.75708 1.10199 0.01102 0.01471 0.00015
3580.79102 1.10111 0.01101 0.01495 0.00015
3579.82593 1.10024 0.01100 0.01522 0.00015
3578.86108 1.09937 0.01099 0.01552 0.00016
3577.89600 1.09850 0.01099 0.01582 0.00016
3576.93091 1.09764 0.01098 0.01611 0.00016
3575.96606 1.09677 0.01097 0.01638 0.00016
3575.00098 1.09588 0.01096 0.01665 0.00017
3574.03589 1.09497 0.01095 0.01693 0.00017
3573.07104 1.09404 0.01094 0.01725 0.00017
3572.10596 1.09312 0.01093 0.01760 0.00018
3571.14111 1.09219 0.01092 0.01796 0.00018
3570.17603 1.09127 0.01091 0.01833 0.00018
3569.20996 1.09036 0.01090 0.01873 0.00019
3568.24512 1.08948 0.01089 0.01915 0.00019
3567.28003 1.08863 0.01089 0.01956 0.00020
3566.31494 1.08779 0.01088 0.01996 0.00020
3565.35010 1.08695 0.01087 0.02033 0.00020
3564.38501 1.08610 0.01086 0.02067 0.00021
3563.41992 1.08522 0.01085 0.02100 0.00021
3562.45508 1.08432 0.01084 0.02135 0.00021
3561.48999 1.08340 0.01083 0.02172 0.00022
3560.52490 1.08247 0.01082 0.02211 0.00022
3559.56006 1.08154 0.01082 0.02251 0.00023
3558.59399 1.08061 0.01081 0.02294 0.00023
3557.62891 1.07972 0.01080 0.02341 0.00023
3556.66406 1.07887 0.01079 0.02390 0.00024
3555.69897 1.07806 0.01078 0.02435 0.00024
3554.73389 1.07726 0.01077 0.02473 0.00025
3553.76904 1.07644 0.01076 0.02503 0.00025
3552.80396 1.07556 0.01076 0.02529 0.00025
3551.83911 1.07460 0.01075 0.02554 0.00026
3550.87402 1.07357 0.01074 0.02583 0.00026
3549.90894 1.07249 0.01072 0.02620 0.00026
3548.94409 1.07141 0.01071 0.02666 0.00027
3547.97900 1.07037 0.01070 0.02718 0.00027
3547.01294 1.06938 0.01069 0.02774 0.00028
3546.04810 1.06846 0.01068 0.02830 0.00028
3545.08301 1.06758 0.01068 0.02883 0.00029
3544.11792 1.06674 0.01067 0.02931 0.00029
3543.15308 1.06592 0.01066 0.02972 0.00030
3542.18799 1.06507 0.01065 0.03007 0.00030
3541.22290 1.06418 0.01064 0.03036 0.00030
3540.25806 1.06324 0.01063 0.03063 0.00031
3539.29297 1.06225 0.01062 0.03087 0.00031
3538.32788 1.06118 0.01061 0.03111 0.00031
3537.36304 1.06003 0.01060 0.03134 0.00031
3536.39697 1.05881 0.01059 0.03159 0.00032
3535.43188 1.05751 0.01058 0.03188 0.00032
3534.46704 1.05614 0.01056 0.03224 0.00032
3533.50195 1.05471 0.01055 0.03269 0.00033
3532.53711 1.05324 0.01053 0.03323 0.00033
3531.57202 1.05175 0.01052 0.03387 0.00034
3530.60693 1.05026 0.01050 0.03465 0.00035
3529.64209 1.04883 0.01049 0.03557 0.00036
3528.67700 1.04752 0.01048 0.03663 0.00037
3527.71191 1.04636 0.01046 0.03777 0.00038
3526.74707 1.04539 0.01045 0.03892 0.00039
3525.78101 1.04458 0.01045 0.04000 0.00040
3524.81592 1.04391 0.01044 0.04093 0.00041
3523.85107 1.04330 0.01043 0.04168 0.00042
3522.88599 1.04269 0.01043 0.04227 0.00042
3521.92090 1.04201 0.01042 0.04270 0.00043
3520.95605 1.04122 0.01041 0.04302 0.00043
3519.99097 1.04032 0.01040 0.04327 0.00043
3519.02588 1.03929 0.01039 0.04350 0.00043
3518.06104 1.03814 0.01038 0.04375 0.00044
3517.09595 1.03689 0.01037 0.04403 0.00044
3516.13110 1.03556 0.01036 0.04435 0.00044
3515.16602 1.03414 0.01034 0.04468 0.00045
3514.19995 1.03263 0.01033 0.04505 0.00045
3513.23511 1.03102 0.01031 0.04549 0.00045
3512.27002 1.02932 0.01029 0.04603 0.00046
3511.30493 1.02755 0.01028 0.04672 0.00047
3510.34009 1.02575 0.01026 0.04756 0.00048
3509.37500 1.02399 0.01024 0.04859 0.00049
3508.40991 1.02231 0.01022 0.04980 0.00050
3507.44507 1.02078 0.01021 0.05113 0.00051
3506.47998 1.01943 0.01019 0.05253 0.00053
3505.51489 1.01826 0.01018 0.05389 0.00054
3504.55005 1.01725 0.01017 0.05516 0.00055
3503.58398 1.01632 0.01016 0.05627 0.00056
3502.61890 1.01542 0.01015 0.05723 0.00057
3501.65405 1.01447 0.01014 0.05803 0.00058
3500.68896 1.01342 0.01013 0.05870 0.00059
3499.72412 1.01224 0.01012 0.05932 0.00059
3498.75903 1.01092 0.01011 0.05995 0.00060
3497.79395 1.00947 0.01009 0.06062 0.00061
3496.82910 1.00791 0.01008 0.06137 0.00061
3495.86401 1.00628 0.01006 0.06222 0.00062
3494.89893 1.00460 0.01005 0.06318 0.00063
3493.93408 1.00293 0.01003 0.06426 0.00064
3492.96802 1.00128 0.01001 0.06546 0.00065
3492.00293 0.99967 0.01000 0.06673 0.00067
3491.03809 0.99811 0.00998 0.06806 0.00068
3490.07300 0.99662 0.00997 0.06943 0.00069
3489.10791 0.99518 0.00995 0.07083 0.00071
3488.14307 0.99380 0.00994 0.07226 0.00072
3487.17798 0.99250 0.00992 0.07369 0.00074
3486.21289 0.99126 0.00991 0.07512 0.00075
3485.24805 0.99008 0.00990 0.07651 0.00077
3484.28296 0.98895 0.00989 0.07783 0.00078
3483.31812 0.98785 0.00988 0.07905 0.00079
3482.35303 0.98672 0.00987 0.08018 0.00080
3481.38696 0.98555 0.00986 0.08122 0.00081
3480.42212 0.98429 0.00984 0.08219 0.00082
3479.45703 0.98291 0.00983 0.08309 0.00083
3478.49194 0.98137 0.00981 0.08396 0.00084
3477.52710 0.97966 0.00980 0.08486 0.00085
3476.56201 0.97779 0.00978 0.08587 0.00086
3475.59692 0.97580 0.00976 0.08703 0.00087
3474.63208 0.97374 0.00974 0.08838 0.00088
3473.66699 0.97165 0.00972 0.08991 0.00090
3472.70190 0.96959 0.00970 0.09163 0.00092
3471.73706 0.96761 0.00968 0.09351 0.00094
3470.77100 0.96573 0.00966 0.09551 0.00096
3469.80591 0.96397 0.00964 0.09759 0.00098
3468.84106 0.96233 0.00962 0.09970 0.00100
3467.87598 0.96079 0.00961 0.10181 0.00102
3466.91089 0.95932 0.00959 0.10390 0.00104
3465.94604 0.95790 0.00958 0.10595 0.00106
3464.98096 0.95651 0.00957 0.10800 0.00108
3464.01611 0.95516 0.00955 0.11004 0.00110
3463.05103 0.95383 0.00954 0.11206 0.00112
3462.08594 0.95251 0.00953 0.11405 0.00114
3461.12109 0.95119 0.00951 0.11600 0.00116
3460.15601 0.94983 0.00950 0.11791 0.00118
3459.18994 0.94841 0.00948 0.11981 0.00120
3458.22510 0.94693 0.00947 0.12171 0.00122
3457.26001 0.94535 0.00945 0.12364 0.00124
3456.29492 0.94370 0.00944 0.12565 0.00126
3455.33008 0.94199 0.00942 0.12778 0.00128
3454.36499 0.94027 0.00940 0.13006 0.00130
3453.39990 0.93857 0.00939 0.13246 0.00132
3452.43506 0.93691 0.00937 0.13498 0.00135
3451.46997 0.93533 0.00935 0.13758 0.00138
3450.50488 0.93383 0.00934 0.14025 0.00140
3449.54004 0.93239 0.00932 0.14295 0.00143
3448.57397 0.93100 0.00931 0.14566 0.00146
3447.60889 0.92963 0.00930 0.14838 0.00148
3446.64404 0.92826 0.00928 0.15115 0.00151
3445.67896 0.92692 0.00927 0.15401 0.00154
3444.71411 0.92562 0.00926 0.15698 0.00157
3443.74902 0.92439 0.00924 0.16003 0.00160
3442.78394 0.92327 0.00923 0.16314 0.00163
3441.81909 0.92226 0.00922 0.16628 0.00166
3440.85400 0.92136 0.00921 0.16943 0.00169
3439.88892 0.92055 0.00921 0.17257 0.00173
3438.92407 0.91982 0.00920 0.17566 0.00176
3437.95801 0.91912 0.00919 0.17868 0.00179
3436.99292 0.91841 0.00918 0.18164 0.00182
3436.02808 0.91765 0.00918 0.18457 0.00185
3435.06299 0.91684 0.00917 0.18755 0.00188
3434.09790 0.91600 0.00916 0.19065 0.00191
3433.13306 0.91520 0.00915 0.19388 0.00194
3432.16797 0.91448 0.00914 0.19725 0.00197
3431.20288 0.91386 0.00914 0.20069 0.00201
3430.23804 0.91337 0.00913 0.20413 0.00204
3429.27295 0.91299 0.00913 0.20757 0.00208
3428.30811 0.91270 0.00913 0.21101 0.00211
3427.34302 0.91248 0.00912 0.21445 0.00214
3426.37695 0.91233 0.00912 0.21788 0.00218
3425.41211 0.91224 0.00912 0.22131 0.00221
3424.44702 0.91221 0.00912 0.22472 0.00225
3423.48193 0.91224 0.00912 0.22815 0.00228
3422.51709 0.91236 0.00912 0.23160 0.00232
3421.55200 0.91258 0.00913 0.23506 0.00235
3420.58691 0.91290 0.00913 0.23847 0.00238
3419.62207 0.91329 0.00913 0.24181 0.00242
3418.65698 0.91372 0.00914 0.24507 0.00245
3417.69189 0.91416 0.00914 0.24826 0.00248
3416.72705 0.91460 0.00915 0.25146 0.00251
3415.76099 0.91505 0.00915 0.25466 0.00255
3414.79590 0.91551 0.00916 0.25786 0.00258
3413.83105 0.91600 0.00916 0.26108 0.00261
3412.86597 0.91652 0.00917 0.26433 0.00264
3411.90088 0.91709 0.00917 0.26763 0.00268
3410.93604 0.91775 0.00918 0.27099 0.00271
3409.97095 0.91852 0.00919 0.27438 0.00274
3409.00610 0.91943 0.00919 0.27776 0.00278
3408.04102 0.92048 0.00920 0.28112 0.00281
3407.07593 0.92166 0.00922 0.28442 0.00284
3406.11108 0.92297 0.00923 0.28763 0.00288
3405.14600 0.92439 0.00924 0.29073 0.00291
3404.17993 0.92591 0.00926 0.29370 0.00294
3403.21509 0.92750 0.00927 0.29654 0.00297
3402.25000 0.92915 0.00929 0.29922 0.00299
3401.28491 0.93081 0.00931 0.30171 0.00302
3400.32007 0.93244 0.00932 0.30401 0.00304
3399.35498 0.93399 0.00934 0.30614 0.00306
3398.38989 0.93542 0.00935 0.30812 0.00308
3397.42505 0.93667 0.00937 0.31000 0.00310
3396.45996 0.93774 0.00938 0.31186 0.00312
3395.49512 0.93865 0.00939 0.31377 0.00314
3394.53003 0.93943 0.00939 0.31579 0.00316
3393.56396 0.94014 0.00940 0.31796 0.00318
3392.59912 0.94086 0.00941 0.32030 0.00320
3391.63403 0.94165 0.00942 0.32277 0.00323
3390.66895 0.94258 0.00943 0.32533 0.00325
3389.70410 0.94366 0.00944 0.32794 0.00328
3388.73901 0.94489 0.00945 0.33051 0.00331
3387.77393 0.94624 0.00946 0.33294 0.00333
3386.80908 0.94767 0.00948 0.33522 0.00335
3385.84399 0.94909 0.00949 0.33736 0.00337
3384.87891 0.95047 0.00950 0.33940 0.00339
3383.91406 0.95179 0.00952 0.34137 0.00341
3382.94800 0.95305 0.00953 0.34332 0.00343
3381.98291 0.95427 0.00954 0.34526 0.00345
3381.01807 0.95549 0.00955 0.34721 0.00347
3380.05298 0.95671 0.00957 0.34915 0.00349
3379.08789 0.95796 0.00958 0.35106 0.00351
3378.12305 0.95922 0.00959 0.35288 0.00353
3377.15796 0.96046 0.00960 0.35461 0.00355
3376.19312 0.96161 0.00962 0.35622 0.00356
3375.22803 0.96265 0.00963 0.35778 0.00358
3374.26294 0.96353 0.00964 0.35932 0.00359
3373.29810 0.96428 0.00964 0.36092 0.00361
3372.33301 0.96491 0.00965 0.36266 0.00363
3371.36694 0.96551 0.00966 0.36457 0.00365
3370.40210 0.96614 0.00966 0.36668 0.00367
3369.43701 0.96688 0.00967 0.36893 0.00369
3368.47192 0.96780 0.00968 0.37128 0.00371
3367.50708 0.96892 0.00969 0.37363 0.00374
3366.54199 0.97023 0.00970 0.37588 0.00376
3365.57690 0.97167 0.00972 0.37796 0.00378
3364.61206 0.97314 0.00973 0.37980 0.00380
3363.64697 0.97458 0.00975 0.38144 0.00381
3362.68188 0.97591 0.00976 0.38294 0.00383
3361.71704 0.97711 0.00977 0.38436 0.00384
3360.75098 0.97817 0.00978 0.38576 0.00386
3359.78589 0.97912 0.00979 0.38717 0.00387
3358.82104 0.98001 0.00980 0.38864 0.00389
3357.85596 0.98085 0.00981 0.39014 0.00390
3356.89111 0.98166 0.00982 0.39162 0.00392
3355.92603 0.98242 0.00982 0.39309 0.00393
3354.96094 0.98310 0.00983 0.39452 0.00395
3353.99609 0.98368 0.00984 0.39595 0.00396
3353.03101 0.98414 0.00984 0.39744 0.00397
3352.06592 0.98451 0.00985 0.39902 0.00399
3351.10107 0.98481 0.00985 0.40073 0.00401
3350.13501 0.98510 0.00985 0.40258 0.00403
3349.16992 0.98541 0.00985 0.40459 0.00405
3348.20508 0.98582 0.00986 0.40671 0.00407
3347.23999 0.98635 0.00986 0.40890 0.00409
3346.27490 0.98700 0.00987 0.41109 0.00411
3345.31006 0.98776 0.00988 0.41321 0.00413
3344.34497 0.98857 0.00989 0.41523 0.00415
3343.37988 0.98936 0.00989 0.41714 0.00417
3342.41504 0.99010 0.00990 0.41897 0.00419
3341.44995 0.99077 0.00991 0.42077 0.00421
3340.48511 0.99136 0.00991 0.42258 0.00423
3339.52002 0.99186 0.00992 0.42441 0.00424
3338.55396 0.99230 0.00992 0.42628 0.00426
3337.58911 0.99270 0.00993 0.42822 0.00428
3336.62402 0.99308 0.00993 0.43023 0.00430
3335.65894 0.99347 0.00993 0.43231 0.00432
3334.69409 0.99386 0.00994 0.43443 0.00434
3333.72900 0.99426 0.00994 0.43656 0.00437
3332.76392 0.99466 0.00995 0.43868 0.00439
3331.79907 0.99504 0.00995 0.44081 0.00441
3330.83398 0.99537 0.00995 0.44297 0.00443
3329.86890 0.99566 0.00996 0.44517 0.00445
3328.90405 0.99591 0.00996 0.44743 0.00447
3327.93799 0.99614 0.00996 0.44975 0.00450
3326.97290 0.99635 0.00996 0.45214 0.00452
3326.00806 0.99654 0.00997 0.45460 0.00455
3325.04297 0.99672 0.00997 0.45714 0.00457
3324.07788 0.99691 0.00997 0.45977 0.00460
3323.11304 0.99712 0.00997 0.46247 0.00462
3322.14795 0.99737 0.00997 0.46525 0.00465
3321.18311 0.99764 0.00998 0.46810 0.00468
3320.21802 0.99797 0.00998 0.47101 0.00471
3319.25293 0.99834 0.00998 0.47398 0.00474
3318.28809 0.99877 0.00999 0.47697 0.00477
3317.32300 0.99924 0.00999 0.47998 0.00480
3316.35693 0.99972 0.01000 0.48299 0.00483
3315.39209 1.00021 0.01000 0.48600 0.00486
3314.42700 1.00068 0.01001 0.48907 0.00489
3313.46191 1.00114 0.01001 0.49219 0.00492
3312.49707 1.00161 0.01002 0.49538 0.00495
3311.53198 1.00209 0.01002 0.49863 0.00499
3310.56689 1.00260 0.01003 0.50195 0.00502
3309.60205 1.00315 0.01003 0.50534 0.00505
3308.63696 1.00377 0.01004 0.50881 0.00509
3307.67212 1.00445 0.01004 0.51230 0.00512
3306.70703 1.00516 0.01005 0.51577 0.00516
3305.74097 1.00586 0.01006 0.51920 0.00519
3304.77588 1.00651 0.01007 0.52263 0.00523
3303.81104 1.00708 0.01007 0.52611 0.00526
3302.84595 1.00756 0.01008 0.52970 0.00530
3301.88110 1.00798 0.01008 0.53346 0.00533
3300.91602 1.00837 0.01008 0.53742 0.00537
3299.95093 1.00880 0.01009 0.54159 0.00542
3298.98608 1.00931 0.01009 0.54599 0.00546
3298.02100 1.00996 0.01010 0.55059 0.00551
3297.05591 1.01081 0.01011 0.55537 0.00555
3296.09106 1.01186 0.01012 0.56025 0.00560
3295.12500 1.01312 0.01013 0.56516 0.00565
3294.15991 1.01453 0.01015 0.57005 0.00570
3293.19507 1.01604 0.01016 0.57487 0.00575
3292.22998 1.01760 0.01018 0.57969 0.00580
3291.26489 1.01918 0.01019 0.58459 0.00585
3290.30005 1.02079 0.01021 0.58961 0.00590
3289.33496 1.02247 0.01022 0.59478 0.00595
3288.37012 1.02429 0.01024 0.60013 0.00600
3287.40503 1.02633 0.01026 0.60568 0.00606
3286.43994 1.02865 0.01029 0.61135 0.00611
3285.47510 1.03131 0.01031 0.61706 0.00617
3284.51001 1.03426 0.01034 0.62268 0.00623
3283.54395 1.03746 0.01037 0.62808 0.00628
3282.57910 1.04076 0.01041 0.63325 0.00633
3281.61401 1.04405 0.01044 0.63821 0.00638
3280.64893 1.04725 0.01047 0.64308 0.00643
3279.68408 1.05030 0.01050 0.64796 0.00648
3278.71899 1.05326 0.01053 0.65297 0.00653
3277.75391 1.05618 0.01056 0.65826 0.00658
3276.78906 1.05919 0.01059 0.66384 0.00664
3275.82397 1.06240 0.01062 0.66975 0.00670
3274.85889 1.06594 0.01066 0.67588 0.00676
3273.89404 1.06990 0.01070 0.68217 0.00682
3272.92798 1.07426 0.01074 0.68847 0.00688
3271.96289 1.07900 0.01079 0.69463 0.00695
3270.99805 1.08403 0.01084 0.70063 0.00701
3270.03296 1.08924 0.01089 0.70643 0.00706
3269.06812 1.09461 0.01095 0.71213 0.00712
3268.10303 1.10008 0.01100 0.71781 0.00718
3267.13794 1.10572 0.01106 0.72349 0.00723
3266.17310 1.11156 0.01112 0.72920 0.00729
3265.20801 1.11765 0.01118 0.73493 0.00735
3264.24292 1.12406 0.01124 0.74066 0.00741
3263.27808 1.13080 0.01131 0.74633 0.00746
3262.31201 1.13790 0.01138 0.75186 0.00752
3261.34692 1.14532 0.01145 0.75719 0.00757
3260.38208 1.15304 0.01153 0.76224 0.00762
3259.41699 1.16096 0.01161 0.76701 0.00767
3258.45190 1.16903 0.01169 0.77150 0.00771
3257.48706 1.17722 0.01177 0.77578 0.00776
3256.52197 1.18553 0.01186 0.77992 0.00780
3255.55688 1.19402 0.01194 0.78394 0.00784
3254.59204 1.20276 0.01203 0.78787 0.00788
3253.62695 1.21176 0.01212 0.79157 0.00792
3252.66211 1.22105 0.01221 0.79496 0.00795
3251.69702 1.23057 0.01231 0.79800 0.00798
3250.73096 1.24025 0.01240 0.80066 0.00801
3249.76611 1.25005 0.01250 0.80294 0.00803
3248.80103 1.25990 0.01260 0.80483 0.00805
3247.83594 1.26976 0.01270 0.80638 0.00806
3246.87109 1.27962 0.01280 0.80760 0.00808
3245.90601 1.28946 0.01289 0.80855 0.00809
3244.94092 1.29931 0.01299 0.80927 0.00809
3243.97607 1.30919 0.01309 0.80978 0.00810
3243.01099 1.31915 0.01319 0.81006 0.00810
3242.04590 1.32921 0.01329 0.81006 0.00810
3241.08105 1.33939 0.01339 0.80972 0.00810
3240.11499 1.34965 0.01350 0.80899 0.00809
3239.14990 1.35999 0.01360 0.80781 0.00808
3238.18506 1.37031 0.01370 0.80615 0.00806
3237.21997 1.38056 0.01381 0.80394 0.00804
3236.25488 1.39062 0.01391 0.80119 0.00801
3235.29004 1.40038 0.01400 0.79791 0.00798
3234.32495 1.40979 0.01410 0.79420 0.00794
3233.36011 1.41875 0.01419 0.79012 0.00790
3232.39502 1.42725 0.01427 0.78581 0.00786
3231.42993 1.43529 0.01435 0.78136 0.00781
3230.46509 1.44292 0.01443 0.77684 0.00777
3229.50000 1.45016 0.01450 0.77231 0.00772
3228.53394 1.45711 0.01457 0.76782 0.00768
3227.56909 1.46381 0.01464 0.76341 0.00763
3226.60400 1.47033 0.01470 0.75906 0.00759
3225.63892 1.47673 0.01477 0.75474 0.00755
3224.67407 1.48301 0.01483 0.75040 0.00750
3223.70898 1.48918 0.01489 0.74596 0.00746
3222.74390 1.49521 0.01495 0.74144 0.00741
3221.77905 1.50110 0.01501 0.73683 0.00737
3220.81396 1.50681 0.01507 0.73216 0.00732
3219.84912 1.51235 0.01512 0.72742 0.00727
3218.88403 1.51772 0.01518 0.72262 0.00723
3217.91797 1.52292 0.01523 0.71774 0.00718
3216.95288 1.52793 0.01528 0.71279 0.00713
3215.98804 1.53275 0.01533 0.70777 0.00708
3215.02295 1.53733 0.01537 0.70267 0.00703
3214.05811 1.54163 0.01542 0.69746 0.00697
3213.09302 1.54564 0.01546 0.69224 0.00692
3212.12793 1.54931 0.01549 0.68705 0.00687
3211.16309 1.55267 0.01553 0.68196 0.00682
3210.19800 1.55572 0.01556 0.67702 0.00677
3209.23291 1.55852 0.01559 0.67229 0.00672
3208.26807 1.56112 0.01561 0.66784 0.00668
3207.30200 1.56362 0.01564 0.66367 0.00664
3206.33691 1.56611 0.01566 0.65979 0.00660
3205.37207 1.56863 0.01569 0.65610 0.00656
3204.40698 1.57125 0.01571 0.65253 0.00653
3203.44189 1.57392 0.01574 0.64902 0.00649
3202.47705 1.57664 0.01577 0.64549 0.00645
3201.51196 1.57934 0.01579 0.64195 0.00642
3200.54712 1.58198 0.01582 0.63835 0.00638
3199.58203 1.58452 0.01585 0.63477 0.00635
3198.61694 1.58693 0.01587 0.63124 0.00631
3197.65210 1.58922 0.01589 0.62780 0.00628
3196.68701 1.59140 0.01591 0.62447 0.00624
3195.72095 1.59351 0.01594 0.62130 0.00621
3194.75610 1.59558 0.01596 0.61830 0.00618
3193.79102 1.59767 0.01598 0.61548 0.00615
3192.82593 1.59984 0.01600 0.61285 0.00613
3191.86108 1.60212 0.01602 0.61033 0.00610
3190.89600 1.60454 0.01605 0.60786 0.00608
3189.93091 1.60708 0.01607 0.60538 0.00605
3188.96606 1.60970 0.01610 0.60282 0.00603
3188.00098 1.61234 0.01612 0.60021 0.00600
3187.03589 1.61495 0.01615 0.59752 0.00598
3186.07104 1.61752 0.01618 0.59482 0.00595
3185.10498 1.62002 0.01620 0.59217 0.00592
3184.13989 1.62251 0.01623 0.58959 0.00590
3183.17505 1.62500 0.01625 0.58712 0.00587
3182.20996 1.62756 0.01628 0.58472 0.00585
3181.24512 1.63023 0.01630 0.58238 0.00582
3180.28003 1.63300 0.01633 0.58004 0.00580
3179.31494 1.63591 0.01636 0.57764 0.00578
3178.35010 1.63889 0.01639 0.57513 0.00575
3177.38501 1.64191 0.01642 0.57246 0.00572
3176.41992 1.64488 0.01645 0.56965 0.00570
3175.45508 1.64775 0.01648 0.56673 0.00567
3174.48901 1.65051 0.01651 0.56376 0.00564
3173.52393 1.65311 0.01653 0.56080 0.00561
3172.55908 1.65562 0.01656 0.55793 0.00558
3171.59399 1.65808 0.01658 0.55521 0.00555
3170.62891 1.66056 0.01661 0.55260 0.00553
3169.66406 1.66311 0.01663 0.55008 0.00550
3168.69897 1.66574 0.01666 0.54761 0.00548
3167.73389 1.66846 0.01668 0.54513 0.00545
3166.76904 1.67126 0.01671 0.54263 0.00543
3165.80396 1.67412 0.01674 0.54008 0.00540
3164.83911 1.67702 0.01677 0.53751 0.00538
3163.87402 1.67994 0.01680 0.53492 0.00535
3162.90796 1.68292 0.01683 0.53232 0.00532
3161.94312 1.68596 0.01686 0.52973 0.00530
3160.97803 1.68910 0.01689 0.52713 0.00527
3160.01294 1.69237 0.01692 0.52449 0.00524
3159.04810 1.69575 0.01696 0.52175 0.00522
3158.08301 1.69927 0.01699 0.51887 0.00519
3157.11792 1.70286 0.01703 0.51580 0.00516
3156.15308 1.70650 0.01706 0.51248 0.00512
3155.18799 1.71008 0.01710 0.50893 0.00509
3154.22290 1.71354 0.01714 0.50513 0.00505
3153.25806 1.71685 0.01717 0.50119 0.00501
3152.29199 1.71996 0.01720 0.49716 0.00497
3151.32690 1.72292 0.01723 0.49313 0.00493
3150.36206 1.72575 0.01726 0.48915 0.00489
3149.39697 1.72852 0.01729 0.48522 0.00485
3148.43188 1.73129 0.01731 0.48133 0.00481
3147.46704 1.73407 0.01734 0.47745 0.00477
3146.50195 1.73691 0.01737 0.47353 0.00474
3145.53711 1.73977 0.01740 0.46953 0.00470
3144.57202 1.74265 0.01743 0.46540 0.00465
3143.60693 1.74551 0.01746 0.46115 0.00461
3142.64209 1.74831 0.01748 0.45674 0.00457
3141.67700 1.75103 0.01751 0.45221 0.00452
3140.71094 1.75361 0.01754 0.44757 0.00448
3139.74609 1.75607 0.01756 0.44287 0.00443
3138.78101 1.75841 0.01758 0.43817 0.00438
3137.81592 1.76067 0.01761 0.43345 0.00433
3136.85107 1.76286 0.01763 0.42872 0.00429
3135.88599 1.76501 0.01765 0.42396 0.00424
3134.92090 1.76710 0.01767 0.41915 0.00419
3133.95605 1.76916 0.01769 0.41429 0.00414
3132.99097 1.77118 0.01771 0.40939 0.00409
3132.02588 1.77313 0.01773 0.40438 0.00404
3131.06104 1.77500 0.01775 0.39923 0.00399
3130.09497 1.77675 0.01777 0.39399 0.00394
3129.12988 1.77834 0.01778 0.38866 0.00389
3128.16504 1.77978 0.01780 0.38330 0.00383
3127.19995 1.78109 0.01781 0.37796 0.00378
3126.23511 1.78227 0.01782 0.37260 0.00373
3125.27002 1.78334 0.01783 0.36722 0.00367
3124.30493 1.78430 0.01784 0.36181 0.00362
3123.34009 1.78513 0.01785 0.35638 0.00356
3122.37500 1.78584 0.01786 0.35094 0.00351
3121.40991 1.78643 0.01786 0.34550 0.00345
3120.44507 1.78688 0.01787 0.34004 0.00340
3119.47900 1.78720 0.01787 0.33457 0.00335
3118.51392 1.78735 0.01787 0.32908 0.00329
3117.54907 1.78732 0.01787 0.32361 0.00324
3116.58398 1.78714 0.01787 0.31821 0.00318
3115.61890 1.78680 0.01787 0.31293 0.00313
3114.65405 1.78634 0.01786 0.30773 0.00308
3113.68896 1.78579 0.01786 0.30261 0.00303
3112.72412 1.78515 0.01785 0.29758 0.00298
3111.75903 1.78443 0.01784 0.29264 0.00293
3110.79395 1.78366 0.01784 0.28778 0.00288
3109.82910 1.78285 0.01783 0.28301 0.00283
3108.86401 1.78198 0.01782 0.27827 0.00278
3107.89795 1.78107 0.01781 0.27353 0.00274
3106.93311 1.78008 0.01780 0.26882 0.00269
3105.96802 1.77897 0.01779 0.26414 0.00264
3105.00293 1.77776 0.01778 0.25950 0.00259
3104.03809 1.77642 0.01776 0.25493 0.00255
3103.07300 1.77497 0.01775 0.25047 0.00250
3102.10791 1.77341 0.01773 0.24613 0.00246
3101.14307 1.77179 0.01772 0.24194 0.00242
3100.17798 1.77014 0.01770 0.23791 0.00238
3099.21289 1.76851 0.01769 0.23403 0.00234
3098.24805 1.76693 0.01767 0.23027 0.00230
3097.28198 1.76540 0.01765 0.22655 0.00227
3096.31689 1.76392 0.01764 0.22283 0.00223
3095.35205 1.76244 0.01762 0.21908 0.00219
3094.38696 1.76092 0.01761 0.21528 0.00215
3093.42212 1.75931 0.01759 0.21147 0.00211
3092.45703 1.75759 0.01758 0.20769 0.00208
3091.49194 1.75576 0.01756 0.20396 0.00204
3090.52710 1.75381 0.01754 0.20030 0.00200
3089.56201 1.75178 0.01752 0.19677 0.00197
3088.59692 1.74969 0.01750 0.19341 0.00193
3087.63208 1.74757 0.01748 0.19018 0.00190
3086.66602 1.74546 0.01745 0.18708 0.00187
3085.70093 1.74337 0.01743 0.18409 0.00184
3084.73608 1.74133 0.01741 0.18118 0.00181
3083.77100 1.73932 0.01739 0.17833 0.00178
3082.80591 1.73733 0.01737 0.17551 0.00176
3081.84106 1.73533 0.01735 0.17272 0.00173
3080.87598 1.73332 0.01733 0.16997 0.00170
3079.91089 1.73130 0.01731 0.16727 0.00167
3078.94604 1.72924 0.01729 0.16464 0.00165
3077.98096 1.72718 0.01727 0.16209 0.00162
3077.01611 1.72511 0.01725 0.15962 0.00160
3076.05103 1.72306 0.01723 0.15724 0.00157
3075.08496 1.72103 0.01721 0.15493 0.00155
3074.12012 1.71903 0.01719 0.15268 0.00153
3073.15503 1.71707 0.01717 0.15049 0.00150
3072.18994 1.71515 0.01715 0.14832 0.00148
3071.22510 1.71326 0.01713 0.14616 0.00146
3070.26001 1.71138 0.01711 0.14401 0.00144
3069.29492 1.70949 0.01709 0.14188 0.00142
3068.33008 1.70759 0.01708 0.13976 0.00140
3067.36499 1.70565 0.01706 0.13767 0.00138
3066.39990 1.70369 0.01704 0.13564 0.00136
3065.43506 1.70170 0.01702 0.13367 0.00134
3064.46899 1.69970 0.01700 0.13178 0.00132
3063.50391 1.69770 0.01698 0.12999 0.00130
3062.53906 1.69574 0.01696 0.12829 0.00128
3061.57397 1.69384 0.01694 0.12669 0.00127
3060.60889 1.69202 0.01692 0.12514 0.00125
3059.64404 1.69029 0.01690 0.12363 0.00124
3058.67896 1.68864 0.01689 0.12210 0.00122
3057.71411 1.68705 0.01687 0.12053 0.00121
3056.74902 1.68549 0.01685 0.11891 0.00119
3055.78394 1.68394 0.01684 0.11723 0.00117
3054.81909 1.68234 0.01682 0.11551 0.00116
3053.85400 1.68068 0.01681 0.11377 0.00114
3052.88794 1.67895 0.01679 0.11205 0.00112
3051.92310 1.67716 0.01677 0.11039 0.00110
3050.95801 1.67534 0.01675 0.10881 0.00109
3049.99292 1.67352 0.01674 0.10733 0.00107
3049.02808 1.67173 0.01672 0.10592 0.00106
3048.06299 1.67000 0.01670 0.10457 0.00105
3047.09790 1.66831 0.01668 0.10323 0.00103
3046.13306 1.66665 0.01667 0.10186 0.00102
3045.16797 1.66500 0.01665 0.10048 0.00100
3044.20288 1.66331 0.01663 0.09909 0.00099
3043.23804 1.66158 0.01662 0.09771 0.00098
3042.27197 1.65979 0.01660 0.09637 0.00096
3041.30688 1.65798 0.01658 0.09511 0.00095
3040.34204 1.65614 0.01656 0.09395 0.00094
3039.37695 1.65433 0.01654 0.09290 0.00093
3038.41211 1.65258 0.01653 0.09197 0.00092
3037.44702 1.65089 0.01651 0.09109 0.00091
3036.48193 1.64930 0.01649 0.09024 0.00090
3035.51709 1.64778 0.01648 0.08940 0.00089
3034.55200 1.64633 0.01646 0.08854 0.00089
3033.58691 1.64493 0.01645 0.08766 0.00088
3032.62207 1.64355 0.01644 0.08676 0.00087
3031.65601 1.64218 0.01642 0.08584 0.00086
3030.69092 1.64079 0.01641 0.08491 0.00085
3029.72607 1.63941 0.01639 0.08399 0.00084
3028.76099 1.63802 0.01638 0.08312 0.00083
3027.79590 1.63666 0.01637 0.08230 0.00082
3026.83105 1.63535 0.01635 0.08152 0.00082
3025.86597 1.63410 0.01634 0.08074 0.00081
3024.90088 1.63293 0.01633 0.07995 0.00080
3023.93604 1.63179 0.01632 0.07912 0.00079
3022.97095 1.63067 0.01631 0.07823 0.00078
3022.00610 1.62957 0.01630 0.07730 0.00077
3021.04102 1.62846 0.01628 0.07633 0.00076
3020.07495 1.62732 0.01627 0.07532 0.00075
3019.11011 1.62614 0.01626 0.07426 0.00074
3018.14502 1.62490 0.01625 0.07319 0.00073
3017.17993 1.62361 0.01624 0.07214 0.00072
3016.21509 1.62227 0.01622 0.07113 0.00071
3015.25000 1.62089 0.01621 0.07018 0.00070
3014.28491 1.61949 0.01619 0.06928 0.00069
3013.32007 1.61809 0.01618 0.06842 0.00068
3012.35498 1.61668 0.01617 0.06761 0.00068
3011.38989 1.61529 0.01615 0.06687 0.00067
3010.42505 1.61393 0.01614 0.06620 0.00066
3009.45898 1.61262 0.01613 0.06559 0.00066
3008.49390 1.61136 0.01611 0.06500 0.00065
3007.52905 1.61017 0.01610 0.06439 0.00064
3006.56396 1.60901 0.01609 0.06378 0.00064
3005.59912 1.60789 0.01608 0.06313 0.00063
3004.63403 1.60678 0.01607 0.06247 0.00062
3003.66895 1.60567 0.01606 0.06181 0.00062
3002.70410 1.60456 0.01605 0.06112 0.00061
3001.73901 1.60344 0.01603 0.06042 0.00060
3000.77393 1.60230 0.01602 0.05974 0.00060
2999.80908 1.60115 0.01601 0.05909 0.00059
2998.84302 1.60001 0.01600 0.05847 0.00058
2997.87793 1.59889 0.01599 0.05788 0.00058
2996.91309 1.59779 0.01598 0.05731 0.00057
2995.94800 1.59672 0.01597 0.05673 0.00057
2994.98291 1.59568 0.01596 0.05617 0.00056
2994.01807 1.59465 0.01595 0.05561 0.00056
2993.05298 1.59366 0.01594 0.05504 0.00055
2992.08789 1.59271 0.01593 0.05445 0.00054
2991.12305 1.59176 0.01592 0.05383 0.00054
2990.15796 1.59081 0.01591 0.05317 0.00053
2989.19312 1.58985 0.01590 0.05249 0.00052
2988.22803 1.58887 0.01589 0.05179 0.00052
2987.26196 1.58786 0.01588 0.05108 0.00051
2986.29712 1.58681 0.01587 0.05038 0.00050
2985.33203 1.58574 0.01586 0.04968 0.00050
2984.36694 1.58465 0.01585 0.04901 0.00049
2983.40210 1.58353 0.01584 0.04834 0.00048
2982.43701 1.58238 0.01582 0.04769 0.00048
2981.47192 1.58122 0.01581 0.04708 0.00047
2980.50708 1.58003 0.01580 0.04652 0.00047
2979.54199 1.57883 0.01579 0.04600 0.00046
2978.57690 1.57761 0.01578 0.04553 0.00046
2977.61206 1.57641 0.01576 0.04512 0.00045
2976.64600 1.57522 0.01575 0.04477 0.00045
2975.68091 1.57407 0.01574 0.04450 0.00044
2974.71606 1.57296 0.01573 0.04429 0.00044
2973.75098 1.57194 0.01572 0.04413 0.00044
2972.78589 1.57103 0.01571 0.04402 0.00044
2971.82104 1.57020 0.01570 0.04389 0.00044
2970.85596 1.56947 0.01569 0.04371 0.00044
2969.89111 1.56880 0.01569 0.04348 0.00043
2968.92603 1.56820 0.01568 0.04316 0.00043
2967.96094 1.56762 0.01568 0.04276 0.00043
2966.99609 1.56703 0.01567 0.04227 0.00042
2966.03101 1.56641 0.01566 0.04170 0.00042
2965.06494 1.56573 0.01566 0.04105 0.00041
2964.10010 1.56498 0.01565 0.04038 0.00040
2963.13501 1.56413 0.01564 0.03970 0.00040
2962.16992 1.56322 0.01563 0.03905 0.00039
2961.20508 1.56225 0.01562 0.03847 0.00038
2960.23999 1.56125 0.01561 0.03795 0.00038
2959.27490 1.56026 0.01560 0.03750 0.00038
2958.31006 1.55929 0.01559 0.03710 0.00037
2957.34497 1.55837 0.01558 0.03676 0.00037
2956.37988 1.55750 0.01558 0.03642 0.00036
2955.41504 1.55668 0.01557 0.03607 0.00036
2954.44897 1.55588 0.01556 0.03570 0.00036
2953.48389 1.55509 0.01555 0.03529 0.00035
2952.51904 1.55430 0.01554 0.03486 0.00035
2951.55396 1.55348 0.01553 0.03440 0.00034
2950.58911 1.55264 0.01553 0.03395 0.00034
2949.62402 1.55176 0.01552 0.03352 0.00034
2948.65894 1.55087 0.01551 0.03310 0.00033
2947.69409 1.54997 0.01550 0.03272 0.00033
2946.72900 1.54907 0.01549 0.03238 0.00032
2945.76392 1.54819 0.01548 0.03210 0.00032
2944.79907 1.54735 0.01547 0.03184 0.00032
2943.83301 1.54656 0.01547 0.03161 0.00032
2942.86792 1.54582 0.01546 0.03136 0.00031
2941.90308 1.54512 0.01545 0.03107 0.00031
2940.93799 1.54444 0.01544 0.03076 0.00031
2939.97290 1.54377 0.01544 0.03039 0.00030
2939.00806 1.54308 0.01543 0.03000 0.00030
2938.04297 1.54237 0.01542 0.02956 0.00030
2937.07788 1.54163 0.01542 0.02912 0.00029
2936.11304 1.54084 0.01541 0.02869 0.00029
2935.14795 1.54003 0.01540 0.02828 0.00028
2934.18311 1.53921 0.01539 0.02791 0.00028
2933.21802 1.53839 0.01538 0.02757 0.00028
2932.25195 1.53759 0.01538 0.02725 0.00027
2931.28711 1.53681 0.01537 0.02694 0.00027
2930.32202 1.53605 0.01536 0.02661 0.00027
2929.35693 1.53528 0.01535 0.02627 0.00026
2928.39209 1.53449 0.01534 0.02588 0.00026
2927.42700 1.53366 0.01534 0.02550 0.00025
2926.46191 1.53278 0.01533 0.02515 0.00025
2925.49707 1.53188 0.01532 0.02484 0.00025
2924.53198 1.53095 0.01531 0.02462 0.00025
2923.56689 1.53005 0.01530 0.02448 0.00024
2922.60205 1.52920 0.01529 0.02442 0.00024
2921.63599 1.52842 0.01528 0.02439 0.00024
2920.67090 1.52774 0.01528 0.02438 0.00024
2919.70605 1.52714 0.01527 0.02435 0.00024
2918.74097 1.52663 0.01527 0.02427 0.00024
2917.77588 1.52615 0.01526 0.02410 0.00024
2916.81104 1.52568 0.01526 0.02382 0.00024
2915.84595 1.52517 0.01525 0.02347 0.00023
2914.88110 1.52457 0.01525 0.02305 0.00023
2913.91602 1.52391 0.01524 0.02265 0.00023
2912.95093 1.52315 0.01523 0.02230 0.00022
2911.98608 1.52238 0.01522 0.02200 0.00022
2911.02100 1.52162 0.01522 0.02180 0.00022
2910.05493 1.52088 0.01521 0.02165 0.00022
2909.09009 1.52020 0.01520 0.02153 0.00022
2908.12500 1.51958 0.01520 0.02143 0.00021
2907.15991 1.51903 0.01519 0.02130 0.00021
2906.19507 1.51851 0.01519 0.02113 0.00021
2905.22998 1.51800 0.01518 0.02089 0.00021
2904.26489 1.51749 0.01517 0.02062 0.00021
2903.30005 1.51694 0.01517 0.02031 0.00020
2902.33496 1.51638 0.01516 0.02000 0.00020
2901.37012 1.51579 0.01516 0.01970 0.00020
2900.40503 1.51519 0.01515 0.01939 0.00019
2899.43896 1.51459 0.01515 0.01908 0.00019
2898.47412 1.51397 0.01514 0.01878 0.00019
2897.50903 1.51334 0.01513 0.01848 0.00018
2896.54395 1.51271 0.01513 0.01819 0.00018
2895.57910 1.51209 0.01512 0.01790 0.00018
2894.61401 1.51144 0.01511 0.01760 0.00018
2893.64893 1.51076 0.01511 0.01727 0.00017
2892.68408 1.51007 0.01510 0.01698 0.00017
2891.71899 1.50933 0.01509 0.01672 0.00017
2890.75391 1.50861 0.01509 0.01650 0.00016
2889.78906 1.50789 0.01508 0.01635 0.00016
2888.82300 1.50720 0.01507 0.01622 0.00016
2887.85791 1.50656 0.01507 0.01612 0.00016
2886.89307 1.50595 0.01506 0.01602 0.00016
2885.92798 1.50540 0.01505 0.01591 0.00016
2884.96289 1.50488 0.01505 0.01577 0.00016
2883.99805 1.50441 0.01504 0.01560 0.00016
2883.03296 1.50393 0.01504 0.01536 0.00015
2882.06812 1.50344 0.01503 0.01505 0.00015
2881.10303 1.50290 0.01503 0.01470 0.00015
2880.13794 1.50228 0.01502 0.01431 0.00014
2879.17310 1.50161 0.01502 0.01395 0.00014
2878.20801 1.50087 0.01501 0.01366 0.00014
2877.24194 1.50010 0.01500 0.01341 0.00013
2876.27710 1.49934 0.01499 0.01322 0.00013
2875.31201 1.49858 0.01499 0.01307 0.00013
2874.34692 1.49783 0.01498 0.01297 0.00013
2873.38208 1.49712 0.01497 0.01291 0.00013
2872.41699 1.49644 0.01496 0.01287 0.00013
2871.45190 1.49580 0.01496 0.01285 0.00013
2870.48706 1.49518 0.01495 0.01282 0.00013
2869.52197 1.49459 0.01495 0.01280 0.00013
2868.55688 1.49402 0.01494 0.01277 0.00013
2867.59204 1.49348 0.01493 0.01275 0.00013
2866.62598 1.49297 0.01493 0.01274 0.00013
2865.66089 1.49250 0.01492 0.01271 0.00013
2864.69604 1.49206 0.01492 0.01265 0.00013
2863.73096 1.49164 0.01492 0.01255 0.00013
2862.76611 1.49123 0.01491 0.01239 0.00012
2861.80103 1.49079 0.01491 0.01219 0.00012
2860.83594 1.49031 0.01490 0.01195 0.00012
2859.87109 1.48977 0.01490 0.01169 0.00012
2858.90601 1.48915 0.01489 0.01143 0.00011
2857.94092 1.48849 0.01488 0.01124 0.00011
2856.97607 1.48780 0.01488 0.01115 0.00011
2856.01001 1.48712 0.01487 0.01112 0.00011
2855.04492 1.48647 0.01486 0.01120 0.00011
2854.08008 1.48592 0.01486 0.01132 0.00011
2853.11499 1.48549 0.01485 0.01147 0.00011
2852.14990 1.48512 0.01485 0.01159 0.00012
2851.18506 1.48485 0.01485 0.01162 0.00012
2850.21997 1.48461 0.01485 0.01160 0.00012
2849.25488 1.48440 0.01484 0.01149 0.00011
2848.29004 1.48418 0.01484 0.01130 0.00011
2847.32495 1.48394 0.01484 0.01103 0.00011
2846.36011 1.48365 0.01484 0.01071 0.00011
2845.39502 1.48331 0.01483 0.01035 0.00010
2844.42896 1.48291 0.01483 0.00996 0.00010
2843.46411 1.48245 0.01482 0.00957 0.00010
2842.49902 1.48194 0.01482 0.00918 0.00009
2841.53394 1.48139 0.01481 0.00881 0.00009
2840.56909 1.48077 0.01481 0.00844 0.00008
2839.60400 1.48010 0.01480 0.00807 0.00008
2838.63892 1.47937 0.01479 0.00775 0.00008
2837.67407 1.47858 0.01479 0.00750 0.00007
2836.70898 1.47777 0.01478 0.00732 0.00007
2835.74390 1.47695 0.01477 0.00725 0.00007
2834.77905 1.47615 0.01476 0.00726 0.00007
2833.81299 1.47540 0.01475 0.00736 0.00007
2832.84790 1.47471 0.01475 0.00752 0.00008
2831.88306 1.47411 0.01474 0.00772 0.00008
2830.91797 1.47360 0.01474 0.00793 0.00008
2829.95288 1.47319 0.01473 0.00813 0.00008
2828.98804 1.47284 0.01473 0.00828 0.00008
2828.02295 1.47253 0.01473 0.00838 0.00008
2827.05811 1.47226 0.01472 0.00841 0.00008
2826.09302 1.47200 0.01472 0.00837 0.00008
2825.12793 1.47173 0.01472 0.00829 0.00008
2824.16309 1.47143 0.01471 0.00817 0.00008
2823.19800 1.47113 0.01471 0.00802 0.00008
2822.23193 1.47082 0.01471 0.00787 0.00008
2821.26709 1.47048 0.01470 0.00768 0.00008
2820.30200 1.47012 0.01470 0.00746 0.00007
2819.33691 1.46974 0.01470 0.00722 0.00007
2818.37207 1.46932 0.01469 0.00696 0.00007
2817.40698 1.46884 0.01469 0.00669 0.00007
2816.44189 1.46831 0.01468 0.00643 0.00006
2815.47705 1.46774 0.01468 0.00619 0.00006
2814.51196 1.46713 0.01467 0.00601 0.00006
2813.54712 1.46649 0.01466 0.00587 0.00006
2812.58203 1.46585 0.01466 0.00579 0.00006
2811.61597 1.46522 0.01465 0.00576 0.00006
2810.65088 1.46462 0.01465 0.00579 0.00006
2809.68604 1.46404 0.01464 0.00586 0.00006
2808.72095 1.46351 0.01464 0.00597 0.00006
2807.75610 1.46305 0.01463 0.00609 0.00006
2806.79102 1.46268 0.01463 0.00621 0.00006
2805.82593 1.46231 0.01462 0.00629 0.00006
2804.86108 1.46196 0.01462 0.00630 0.00006
2803.89600 1.46164 0.01462 0.00630 0.00006
2802.93091 1.46133 0.01461 0.00625 0.00006
2801.96606 1.46107 0.01461 0.00625 0.00006
2801.00000 1.46088 0.01461 0.00633 0.00006
2800.03491 1.46059 0.01461 0.00608 0.00006
2799.07007 1.46019 0.01460 0.00547 0.00005
2798.10498 1.45971 0.01460 0.00525 0.00005
2797.13989 1.45910 0.01459 0.00515 0.00005
2796.17505 1.45847 0.01458 0.00515 0.00005
2795.20996 1.45789 0.01458 0.00513 0.00005
2794.24512 1.45736 0.01457 0.00513 0.00005
2793.28003 1.45687 0.01457 0.00518 0.00005
2792.31494 1.45641 0.01456 0.00525 0.00005
2791.35010 1.45597 0.01456 0.00534 0.00005
2790.38501 1.45557 0.01456 0.00544 0.00005
2789.41895 1.45524 0.01455 0.00551 0.00006
2788.45410 1.45492 0.01455 0.00556 0.00006
2787.48901 1.45460 0.01455 0.00555 0.00006
2786.52393 1.45427 0.01454 0.00550 0.00005
2785.55908 1.45393 0.01454 0.00544 0.00005
2784.59399 1.45357 0.01454 0.00539 0.00005
2783.62891 1.45320 0.01453 0.00539 0.00005
2782.66406 1.45284 0.01453 0.00539 0.00005
2781.69897 1.45251 0.01453 0.00538 0.00005
2780.73389 1.45220 0.01452 0.00535 0.00005
2779.76904 1.45190 0.01452 0.00531 0.00005
2778.80298 1.45160 0.01452 0.00524 0.00005
2777.83789 1.45130 0.01451 0.00514 0.00005
2776.87305 1.45098 0.01451 0.00501 0.00005
2775.90796 1.45063 0.01451 0.00485 0.00005
2774.94312 1.45021 0.01450 0.00466 0.00005
2773.97803 1.44972 0.01450 0.00450 0.00004
2773.01294 1.44921 0.01449 0.00442 0.00004
2772.04810 1.44874 0.01449 0.00447 0.00004
2771.08301 1.44831 0.01448 0.00455 0.00005
2770.11792 1.44793 0.01448 0.00459 0.00005
2769.15308 1.44757 0.01448 0.00456 0.00005
2768.18701 1.44720 0.01447 0.00448 0.00004
2767.22192 1.44682 0.01447 0.00446 0.00004
2766.25708 1.44645 0.01446 0.00452 0.00005
2765.29199 1.44609 0.01446 0.00454 0.00005
2764.32690 1.44573 0.01446 0.00447 0.00004
2763.36206 1.44538 0.01445 0.00443 0.00004
2762.39697 1.44503 0.01445 0.00445 0.00004
2761.43188 1.44468 0.01445 0.00445 0.00004
2760.46704 1.44434 0.01444 0.00439 0.00004
2759.50195 1.44399 0.01444 0.00432 0.00004
2758.53711 1.44361 0.01444 0.00427 0.00004
2757.57202 1.44319 0.01443 0.00422 0.00004
2756.60596 1.44275 0.01443 0.00419 0.00004
2755.64111 1.44233 0.01442 0.00424 0.00004
2754.67603 1.44198 0.01442 0.00438 0.00004
2753.71094 1.44170 0.01442 0.00450 0.00004
2752.74609 1.44145 0.01441 0.00452 0.00005
2751.78101 1.44120 0.01441 0.00445 0.00004
2750.81592 1.44090 0.01441 0.00432 0.00004
2749.85107 1.44054 0.01441 0.00420 0.00004
2748.88599 1.44012 0.01440 0.00414 0.00004
2747.92090 1.43970 0.01440 0.00414 0.00004
2746.95605 1.43930 0.01439 0.00419 0.00004
2745.98999 1.43893 0.01439 0.00425 0.00004
2745.02490 1.43859 0.01439 0.00429 0.00004
2744.06006 1.43827 0.01438 0.00432 0.00004
2743.09497 1.43796 0.01438 0.00435 0.00004
2742.12988 1.43766 0.01438 0.00436 0.00004
2741.16504 1.43737 0.01437 0.00438 0.00004
2740.19995 1.43709 0.01437 0.00438 0.00004
2739.23511 1.43680 0.01437 0.00437 0.00004
2738.27002 1.43646 0.01436 0.00429 0.00004
2737.30493 1.43607 0.01436 0.00419 0.00004
2736.34009 1.43569 0.01436 0.00421 0.00004
2735.37500 1.43538 0.01435 0.00439 0.00004
2734.40894 1.43512 0.01435 0.00451 0.00005
2733.44409 1.43487 0.01435 0.00447 0.00004
2732.47900 1.43459 0.01435 0.00434 0.00004
2731.51392 1.43426 0.01434 0.00423 0.00004
2730.54907 1.43390 0.01434 0.00424 0.00004
2729.58398 1.43354 0.01434 0.00436 0.00004
2728.61890 1.43322 0.01433 0.00442 0.00004
2727.65405 1.43293 0.01433 0.00436 0.00004
2726.68896 1.43267 0.01433 0.00436 0.00004
2725.72412 1.43240 0.01432 0.00445 0.00004
2724.75903 1.43214 0.01432 0.00446 0.00004
2723.79297 1.43185 0.01432 0.00431 0.00004
2722.82788 1.43150 0.01431 0.00417 0.00004
2721.86304 1.43108 0.01431 0.00414 0.00004
2720.89795 1.43066 0.01431 0.00420 0.00004
2719.93311 1.43027 0.01430 0.00432 0.00004
2718.96802 1.42993 0.01430 0.00445 0.00004
2718.00293 1.42964 0.01430 0.00455 0.00005
2717.03809 1.42938 0.01429 0.00464 0.00005
2716.07300 1.42912 0.01429 0.00471 0.00005
2715.10791 1.42888 0.01429 0.00478 0.00005
2714.14307 1.42864 0.01429 0.00485 0.00005
2713.17700 1.42842 0.01428 0.00490 0.00005
2712.21191 1.42820 0.01428 0.00492 0.00005
2711.24707 1.42798 0.01428 0.00493 0.00005
2710.28198 1.42775 0.01428 0.00492 0.00005
2709.31689 1.42750 0.01427 0.00492 0.00005
2708.35205 1.42725 0.01427 0.00494 0.00005
2707.38696 1.42700 0.01427 0.00497 0.00005
2706.42212 1.42676 0.01427 0.00499 0.00005
2705.45703 1.42654 0.01427 0.00502 0.00005
2704.49194 1.42635 0.01426 0.00504 0.00005
2703.52710 1.42617 0.01426 0.00505 0.00005
2702.56201 1.42600 0.01426 0.00505 0.00005
2701.59595 1.42583 0.01426 0.00500 0.00005
2700.63110 1.42566 0.01426 0.00490 0.00005
2699.66602 1.42546 0.01425 0.00477 0.00005
2698.70093 1.42522 0.01425 0.00462 0.00005
2697.73608 1.42494 0.01425 0.00447 0.00004
2696.77100 1.42462 0.01425 0.00434 0.00004
2695.80591 1.42427 0.01424 0.00423 0.00004
2694.84106 1.42391 0.01424 0.00414 0.00004
2693.87598 1.42353 0.01424 0.00408 0.00004
2692.91089 1.42314 0.01423 0.00405 0.00004
2691.94604 1.42275 0.01423 0.00404 0.00004
2690.97998 1.42236 0.01422 0.00406 0.00004
2690.01489 1.42198 0.01422 0.00410 0.00004
2689.05005 1.42161 0.01422 0.00415 0.00004
2688.08496 1.42125 0.01421 0.00423 0.00004
2687.12012 1.42090 0.01421 0.00433 0.00004
2686.15503 1.42057 0.01421 0.00445 0.00004
2685.18994 1.42029 0.01420 0.00460 0.00005
2684.22510 1.42004 0.01420 0.00474 0.00005
2683.26001 1.41983 0.01420 0.00488 0.00005
2682.29492 1.41965 0.01420 0.00499 0.00005
2681.33008 1.41949 0.01419 0.00507 0.00005
2680.36401 1.41935 0.01419 0.00511 0.00005
2679.39893 1.41920 0.01419 0.00511 0.00005
2678.43408 1.41903 0.01419 0.00507 0.00005
2677.46899 1.41884 0.01419 0.00500 0.00005
2676.50391 1.41862 0.01419 0.00493 0.00005
2675.53906 1.41837 0.01418 0.00487 0.00005
2674.57397 1.41809 0.01418 0.00482 0.00005
2673.60889 1.41780 0.01418 0.00478 0.00005
2672.64404 1.41749 0.01417 0.00477 0.00005
2671.67896 1.41718 0.01417 0.00477 0.00005
2670.71411 1.41688 0.01417 0.00479 0.00005
2669.74902 1.41659 0.01417 0.00483 0.00005
2668.78296 1.41631 0.01416 0.00488 0.00005
2667.81812 1.41604 0.01416 0.00493 0.00005
2666.85303 1.41578 0.01416 0.00498 0.00005
2665.88794 1.41552 0.01416 0.00504 0.00005
2664.92310 1.41528 0.01415 0.00511 0.00005
2663.95801 1.41504 0.01415 0.00517 0.00005
2662.99292 1.41483 0.01415 0.00523 0.00005
2662.02808 1.41462 0.01415 0.00527 0.00005
2661.06299 1.41442 0.01414 0.00530 0.00005
2660.09790 1.41422 0.01414 0.00533 0.00005
2659.13306 1.41403 0.01414 0.00536 0.00005
2658.16699 1.41384 0.01414 0.00537 0.00005
2657.20190 1.41364 0.01414 0.00535 0.00005
2656.23706 1.41342 0.01413 0.00532 0.00005
2655.27197 1.41320 0.01413 0.00529 0.00005
2654.30688 1.41296 0.01413 0.00526 0.00005
2653.34204 1.41271 0.01413 0.00524 0.00005
2652.37695 1.41244 0.01412 0.00522 0.00005
2651.41211 1.41217 0.01412 0.00521 0.00005
2650.44702 1.41189 0.01412 0.00522 0.00005
2649.48193 1.41162 0.01412 0.00524 0.00005
2648.51709 1.41136 0.01411 0.00527 0.00005
2647.55200 1.41111 0.01411 0.00530 0.00005
2646.58594 1.41084 0.01411 0.00531 0.00005
2645.62109 1.41057 0.01411 0.00533 0.00005
2644.65601 1.41029 0.01410 0.00537 0.00005
2643.69092 1.41002 0.01410 0.00543 0.00005
2642.72607 1.40976 0.01410 0.00551 0.00006
2641.76099 1.40951 0.01410 0.00558 0.00006
2640.79590 1.40927 0.01409 0.00564 0.00006
2639.83105 1.40905 0.01409 0.00571 0.00006
2638.86597 1.40884 0.01409 0.00579 0.00006
2637.90088 1.40865 0.01409 0.00586 0.00006
2636.93604 1.40847 0.01408 0.00592 0.00006
2635.96997 1.40830 0.01408 0.00595 0.00006
2635.00488 1.40812 0.01408 0.00594 0.00006
2634.04004 1.40793 0.01408 0.00592 0.00006
2633.07495 1.40770 0.01408 0.00589 0.00006
2632.11011 1.40745 0.01407 0.00587 0.00006
2631.14502 1.40718 0.01407 0.00587 0.00006
2630.17993 1.40690 0.01407 0.00587 0.00006
2629.21509 1.40661 0.01407 0.00590 0.00006
2628.25000 1.40633 0.01406 0.00596 0.00006
2627.28491 1.40605 0.01406 0.00604 0.00006
2626.32007 1.40579 0.01406 0.00613 0.00006
2625.35400 1.40553 0.01406 0.00621 0.00006
2624.38892 1.40528 0.01405 0.00628 0.00006
2623.42407 1.40503 0.01405 0.00637 0.00006
2622.45898 1.40479 0.01405 0.00648 0.00006
2621.49390 1.40455 0.01405 0.00661 0.00007
2620.52905 1.40433 0.01404 0.00675 0.00007
2619.56396 1.40413 0.01404 0.00690 0.00007
2618.59912 1.40396 0.01404 0.00704 0.00007
2617.63403 1.40382 0.01404 0.00719 0.00007
2616.66895 1.40372 0.01404 0.00733 0.00007
2615.70410 1.40364 0.01404 0.00744 0.00007
2614.73901 1.40357 0.01404 0.00751 0.00008
2613.77295 1.40351 0.01404 0.00754 0.00008
2612.80811 1.40342 0.01403 0.00752 0.00008
2611.84302 1.40330 0.01403 0.00748 0.00007
2610.87793 1.40317 0.01403 0.00745 0.00007
2609.91309 1.40301 0.01403 0.00742 0.00007
2608.94800 1.40285 0.01403 0.00739 0.00007
2607.98291 1.40267 0.01403 0.00736 0.00007
2607.01807 1.40248 0.01402 0.00732 0.00007
2606.05298 1.40227 0.01402 0.00729 0.00007
2605.08789 1.40205 0.01402 0.00726 0.00007
2604.12305 1.40182 0.01402 0.00724 0.00007
2603.15698 1.40157 0.01402 0.00723 0.00007
2602.19189 1.40131 0.01401 0.00724 0.00007
2601.22705 1.40104 0.01401 0.00726 0.00007
2600.26196 1.40077 0.01401 0.00731 0.00007
2599.29712 1.40050 0.01401 0.00739 0.00007
2598.33203 1.40024 0.01400 0.00750 0.00007
2597.36694 1.40001 0.01400 0.00763 0.00008
2596.40210 1.39982 0.01400 0.00777 0.00008
2595.43701 1.39965 0.01400 0.00790 0.00008
2594.47192 1.39949 0.01399 0.00802 0.00008
2593.50708 1.39936 0.01399 0.00812 0.00008
2592.54102 1.39925 0.01399 0.00821 0.00008
2591.57593 1.39914 0.01399 0.00828 0.00008
2590.61108 1.39904 0.01399 0.00834 0.00008
2589.64600 1.39893 0.01399 0.00839 0.00008
2588.68091 1.39883 0.01399 0.00841 0.00008
2587.71606 1.39872 0.01399 0.00843 0.00008
2586.75098 1.39860 0.01399 0.00843 0.00008
2585.78589 1.39848 0.01398 0.00842 0.00008
2584.82104 1.39835 0.01398 0.00839 0.00008
2583.85596 1.39820 0.01398 0.00835 0.00008
2582.89111 1.39802 0.01398 0.00831 0.00008
2581.92603 1.39781 0.01398 0.00828 0.00008
2580.95996 1.39760 0.01398 0.00828 0.00008
2579.99512 1.39738 0.01397 0.00830 0.00008
2579.03003 1.39718 0.01397 0.00835 0.00008
2578.06494 1.39699 0.01397 0.00839 0.00008
2577.10010 1.39682 0.01397 0.00843 0.00008
2576.13501 1.39665 0.01397 0.00847 0.00008
2575.16992 1.39650 0.01396 0.00851 0.00009
2574.20508 1.39635 0.01396 0.00854 0.00009
2573.23999 1.39619 0.01396 0.00855 0.00009
2572.27490 1.39603 0.01396 0.00855 0.00009
2571.31006 1.39587 0.01396 0.00854 0.00009
2570.34399 1.39570 0.01396 0.00853 0.00009
2569.37891 1.39552 0.01396 0.00852 0.00009
2568.41406 1.39533 0.01395 0.00851 0.00009
2567.44897 1.39515 0.01395 0.00849 0.00008
2566.48389 1.39494 0.01395 0.00847 0.00008
2565.51904 1.39471 0.01395 0.00844 0.00008
2564.55396 1.39446 0.01394 0.00842 0.00008
2563.58911 1.39419 0.01394 0.00842 0.00008
2562.62402 1.39391 0.01394 0.00844 0.00008
2561.65894 1.39363 0.01394 0.00849 0.00008
2560.69409 1.39334 0.01393 0.00857 0.00009
2559.72900 1.39305 0.01393 0.00867 0.00009
2558.76294 1.39278 0.01393 0.00880 0.00009
2557.79810 1.39253 0.01393 0.00895 0.00009
2556.83301 1.39231 0.01392 0.00913 0.00009
2555.86792 1.39211 0.01392 0.00932 0.00009
2554.90308 1.39196 0.01392 0.00951 0.00010
2553.93799 1.39184 0.01392 0.00969 0.00010
2552.97290 1.39175 0.01392 0.00986 0.00010
2552.00806 1.39167 0.01392 0.01001 0.00010
2551.04297 1.39162 0.01392 0.01014 0.00010
2550.07788 1.39158 0.01392 0.01023 0.00010
2549.11304 1.39154 0.01392 0.01028 0.00010
2548.14697 1.39150 0.01391 0.01031 0.00010
2547.18188 1.39145 0.01391 0.01032 0.00010
2546.21704 1.39138 0.01391 0.01031 0.00010
2545.25195 1.39129 0.01391 0.01028 0.00010
2544.28711 1.39118 0.01391 0.01024 0.00010
2543.32202 1.39103 0.01391 0.01020 0.00010
2542.35693 1.39086 0.01391 0.01015 0.00010
2541.39209 1.39067 0.01391 0.01013 0.00010
2540.42700 1.39047 0.01390 0.01013 0.00010
2539.46191 1.39027 0.01390 0.01015 0.00010
2538.49707 1.39007 0.01390 0.01019 0.00010
2537.53101 1.38987 0.01390 0.01024 0.00010
2536.56592 1.38969 0.01390 0.01029 0.00010
2535.60107 1.38951 0.01390 0.01035 0.00010
2534.63599 1.38934 0.01389 0.01041 0.00010
2533.67090 1.38918 0.01389 0.01047 0.00010
2532.70605 1.38901 0.01389 0.01053 0.00011
2531.74097 1.38885 0.01389 0.01059 0.00011
2530.77588 1.38868 0.01389 0.01064 0.00011
2529.81104 1.38851 0.01389 0.01068 0.00011
2528.84595 1.38834 0.01388 0.01074 0.00011
2527.88110 1.38815 0.01388 0.01081 0.00011
2526.91602 1.38796 0.01388 0.01089 0.00011
2525.94995 1.38778 0.01388 0.01098 0.00011
2524.98511 1.38761 0.01388 0.01108 0.00011
2524.02002 1.38745 0.01387 0.01120 0.00011
2523.05493 1.38730 0.01387 0.01132 0.00011
2522.09009 1.38718 0.01387 0.01144 0.00011
2521.12500 1.38707 0.01387 0.01157 0.00012
2520.15991 1.38698 0.01387 0.01167 0.00012
2519.19507 1.38690 0.01387 0.01177 0.00012
2518.22998 1.38682 0.01387 0.01185 0.00012
2517.26489 1.38673 0.01387 0.01192 0.00012
2516.30005 1.38665 0.01387 0.01200 0.00012
2515.33398 1.38658 0.01387 0.01208 0.00012
2514.36890 1.38653 0.01387 0.01216 0.00012
2513.40405 1.38649 0.01386 0.01222 0.00012
2512.43896 1.38647 0.01386 0.01225 0.00012
2511.47412 1.38645 0.01386 0.01225 0.00012
2510.50903 1.38642 0.01386 0.01219 0.00012
2509.54395 1.38635 0.01386 0.01209 0.00012
2508.57910 1.38623 0.01386 0.01198 0.00012
2507.61401 1.38606 0.01386 0.01187 0.00012
2506.64893 1.38584 0.01386 0.01179 0.00012
2505.68408 1.38559 0.01386 0.01175 0.00012
2504.71802 1.38532 0.01385 0.01176 0.00012
2503.75293 1.38505 0.01385 0.01182 0.00012
2502.78809 1.38480 0.01385 0.01193 0.00012
2501.82300 1.38459 0.01385 0.01207 0.00012
2500.85791 1.38443 0.01384 0.01222 0.00012
2499.89307 1.38430 0.01384 0.01237 0.00012
2498.92798 1.38420 0.01384 0.01249 0.00012
2497.96289 1.38410 0.01384 0.01257 0.00013
2496.99805 1.38399 0.01384 0.01263 0.00013
2496.03296 1.38388 0.01384 0.01270 0.00013
2495.06812 1.38377 0.01384 0.01277 0.00013
2494.10303 1.38366 0.01384 0.01286 0.00013
2493.13696 1.38356 0.01384 0.01295 0.00013
2492.17212 1.38349 0.01383 0.01305 0.00013
2491.20703 1.38344 0.01383 0.01314 0.00013
2490.24194 1.38340 0.01383 0.01320 0.00013
2489.27710 1.38338 0.01383 0.01321 0.00013
2488.31201 1.38333 0.01383 0.01317 0.00013
2487.34692 1.38325 0.01383 0.01310 0.00013
2486.38208 1.38312 0.01383 0.01302 0.00013
2485.41699 1.38294 0.01383 0.01297 0.00013
2484.45190 1.38274 0.01383 0.01295 0.00013
2483.48706 1.38252 0.01383 0.01298 0.00013
2482.52100 1.38231 0.01382 0.01303 0.00013
2481.55591 1.38212 0.01382 0.01312 0.00013
2480.59106 1.38195 0.01382 0.01322 0.00013
2479.62598 1.38182 0.01382 0.01333 0.00013
2478.66089 1.38170 0.01382 0.01342 0.00013
2477.69604 1.38159 0.01382 0.01350 0.00013
2476.73096 1.38147 0.01381 0.01355 0.00014
2475.76611 1.38133 0.01381 0.01360 0.00014
2474.80103 1.38119 0.01381 0.01366 0.00014
2473.83594 1.38104 0.01381 0.01374 0.00014
2472.87109 1.38091 0.01381 0.01386 0.00014
2471.90601 1.38081 0.01381 0.01399 0.00014
2470.93994 1.38075 0.01381 0.01412 0.00014
2469.97510 1.38072 0.01381 0.01422 0.00014
2469.01001 1.38070 0.01381 0.01428 0.00014
2468.04492 1.38068 0.01381 0.01430 0.00014
2467.08008 1.38064 0.01381 0.01429 0.00014
2466.11499 1.38057 0.01381 0.01425 0.00014
2465.14990 1.38046 0.01380 0.01420 0.00014
2464.18506 1.38031 0.01380 0.01416 0.00014
2463.21997 1.38015 0.01380 0.01416 0.00014
2462.25488 1.37997 0.01380 0.01419 0.00014
2461.29004 1.37981 0.01380 0.01426 0.00014
2460.32397 1.37966 0.01380 0.01434 0.00014
2459.35889 1.37954 0.01380 0.01443 0.00014
2458.39404 1.37945 0.01379 0.01451 0.00015
2457.42896 1.37937 0.01379 0.01458 0.00015
2456.46411 1.37930 0.01379 0.01462 0.00015
2455.49902 1.37922 0.01379 0.01464 0.00015
2454.53394 1.37912 0.01379 0.01464 0.00015
2453.56909 1.37901 0.01379 0.01464 0.00015
2452.60400 1.37889 0.01379 0.01467 0.00015
2451.63892 1.37876 0.01379 0.01470 0.00015
2450.67407 1.37865 0.01379 0.01474 0.00015
2449.70801 1.37854 0.01379 0.01477 0.00015
2448.74292 1.37844 0.01378 0.01478 0.00015
2447.77808 1.37833 0.01378 0.01478 0.00015
2446.81299 1.37820 0.01378 0.01476 0.00015
2445.84790 1.37805 0.01378 0.01474 0.00015
2444.88306 1.37787 0.01378 0.01472 0.00015
2443.91797 1.37767 0.01378 0.01472 0.00015
2442.95288 1.37745 0.01377 0.01475 0.00015
2441.98804 1.37721 0.01377 0.01481 0.00015
2441.02295 1.37699 0.01377 0.01492 0.00015
2440.05811 1.37679 0.01377 0.01506 0.00015
2439.09302 1.37661 0.01377 0.01523 0.00015
2438.12695 1.37648 0.01376 0.01541 0.00015
2437.16211 1.37637 0.01376 0.01558 0.00016
2436.19702 1.37630 0.01376 0.01574 0.00016
2435.23193 1.37625 0.01376 0.01589 0.00016
2434.26709 1.37623 0.01376 0.01601 0.00016
2433.30200 1.37621 0.01376 0.01611 0.00016
2432.33691 1.37620 0.01376 0.01618 0.00016
2431.37207 1.37619 0.01376 0.01622 0.00016
2430.40698 1.37617 0.01376 0.01623 0.00016
2429.44189 1.37612 0.01376 0.01623 0.00016
2428.47705 1.37606 0.01376 0.01622 0.00016
2427.51099 1.37598 0.01376 0.01620 0.00016
2426.54590 1.37588 0.01376 0.01617 0.00016
2425.58105 1.37575 0.01376 0.01615 0.00016
2424.61597 1.37561 0.01376 0.01614 0.00016
2423.65088 1.37545 0.01375 0.01615 0.00016
2422.68604 1.37529 0.01375 0.01620 0.00016
2421.72095 1.37512 0.01375 0.01626 0.00016
2420.75610 1.37497 0.01375 0.01633 0.00016
2419.79102 1.37483 0.01375 0.01641 0.00016
2418.82593 1.37471 0.01375 0.01650 0.00016
2417.86108 1.37459 0.01375 0.01659 0.00017
2416.89600 1.37450 0.01374 0.01668 0.00017
2415.92993 1.37441 0.01374 0.01676 0.00017
2414.96509 1.37434 0.01374 0.01683 0.00017
2414.00000 1.37427 0.01374 0.01689 0.00017
2413.03491 1.37419 0.01374 0.01693 0.00017
2412.07007 1.37411 0.01374 0.01696 0.00017
2411.10498 1.37403 0.01374 0.01698 0.00017
2410.13989 1.37393 0.01374 0.01700 0.00017
2409.17505 1.37383 0.01374 0.01701 0.00017
2408.20996 1.37370 0.01374 0.01701 0.00017
2407.24512 1.37356 0.01374 0.01702 0.00017
2406.28003 1.37340 0.01373 0.01705 0.00017
2405.31396 1.37324 0.01373 0.01710 0.00017
2404.34912 1.37308 0.01373 0.01716 0.00017
2403.38403 1.37293 0.01373 0.01724 0.00017
2402.41895 1.37280 0.01373 0.01732 0.00017
2401.45410 1.37267 0.01373 0.01739 0.00017
2400.48901 1.37254 0.01373 0.01746 0.00017
2399.52393 1.37242 0.01372 0.01753 0.00018
2398.55908 1.37229 0.01372 0.01760 0.00018
2397.59399 1.37215 0.01372 0.01766 0.00018
2396.62891 1.37201 0.01372 0.01772 0.00018
2395.66406 1.37186 0.01372 0.01778 0.00018
2394.69800 1.37170 0.01372 0.01786 0.00018
2393.73291 1.37153 0.01372 0.01796 0.00018
2392.76807 1.37137 0.01371 0.01807 0.00018
2391.80298 1.37121 0.01371 0.01821 0.00018
2390.83789 1.37106 0.01371 0.01835 0.00018
2389.87305 1.37093 0.01371 0.01850 0.00018
2388.90796 1.37081 0.01371 0.01866 0.00019
2387.94312 1.37070 0.01371 0.01882 0.00019
2386.97803 1.37060 0.01371 0.01900 0.00019
2386.01294 1.37053 0.01371 0.01919 0.00019
2385.04810 1.37049 0.01370 0.01938 0.00019
2384.08301 1.37047 0.01370 0.01955 0.00020
2383.11694 1.37048 0.01370 0.01970 0.00020
2382.15210 1.37050 0.01370 0.01982 0.00020
2381.18701 1.37053 0.01371 0.01992 0.00020
2380.22192 1.37057 0.01371 0.02000 0.00020
2379.25708 1.37060 0.01371 0.02004 0.00020
2378.29199 1.37062 0.01371 0.02005 0.00020
2377.32690 1.37061 0.01371 0.02003 0.00020
2376.36206 1.37056 0.01371 0.01999 0.00020
2375.39697 1.37049 0.01370 0.01997 0.00020
2374.43188 1.37038 0.01370 0.01995 0.00020
2373.46704 1.37026 0.01370 0.01995 0.00020
2372.50098 1.37011 0.01370 0.01996 0.00020
2371.53589 1.36994 0.01370 0.01999 0.00020
2370.57104 1.36978 0.01370 0.02006 0.00020
2369.60596 1.36962 0.01370 0.02016 0.00020
2368.64111 1.36948 0.01369 0.02030 0.00020
2367.67603 1.36937 0.01369 0.02044 0.00020
2366.71094 1.36928 0.01369 0.02058 0.00021
2365.74609 1.36920 0.01369 0.02071 0.00021
2364.78101 1.36915 0.01369 0.02084 0.00021
2363.81592 1.36910 0.01369 0.02098 0.00021
2362.85107 1.36908 0.01369 0.02110 0.00021
2361.88501 1.36906 0.01369 0.02120 0.00021
2360.91992 1.36906 0.01369 0.02128 0.00021
2359.95508 1.36905 0.01369 0.02133 0.00021
2358.98999 1.36904 0.01369 0.02135 0.00021
2358.02490 1.36901 0.01369 0.02138 0.00021
2357.06006 1.36898 0.01369 0.02139 0.00021
2356.09497 1.36892 0.01369 0.02138 0.00021
2355.12988 1.36884 0.01369 0.02136 0.00021
2354.16504 1.36872 0.01369 0.02133 0.00021
2353.19995 1.36857 0.01369 0.02132 0.00021
2352.23511 1.36839 0.01368 0.02134 0.00021
2351.27002 1.36820 0.01368 0.02140 0.00021
2350.30396 1.36800 0.01368 0.02149 0.00021
2349.33911 1.36782 0.01368 0.02161 0.00022
2348.37402 1.36765 0.01368 0.02176 0.00022
2347.40894 1.36751 0.01368 0.02194 0.00022
2346.44409 1.36740 0.01367 0.02213 0.00022
2345.47900 1.36732 0.01367 0.02232 0.00022
2344.51392 1.36727 0.01367 0.02249 0.00022
2343.54907 1.36723 0.01367 0.02264 0.00023
2342.58398 1.36719 0.01367 0.02276 0.00023
2341.61890 1.36715 0.01367 0.02288 0.00023
2340.65405 1.36711 0.01367 0.02300 0.00023
2339.68799 1.36706 0.01367 0.02313 0.00023
2338.72290 1.36702 0.01367 0.02325 0.00023
2337.75806 1.36699 0.01367 0.02337 0.00023
2336.79297 1.36696 0.01367 0.02350 0.00023
2335.82788 1.36695 0.01367 0.02362 0.00024
2334.86304 1.36695 0.01367 0.02373 0.00024
2333.89795 1.36696 0.01367 0.02383 0.00024
2332.93311 1.36696 0.01367 0.02388 0.00024
2331.96802 1.36695 0.01367 0.02392 0.00024
2331.00293 1.36691 0.01367 0.02395 0.00024
2330.03809 1.36685 0.01367 0.02399 0.00024
2329.07300 1.36678 0.01367 0.02405 0.00024
2328.10693 1.36671 0.01367 0.02413 0.00024
2327.14209 1.36665 0.01367 0.02420 0.00024
2326.17700 1.36659 0.01367 0.02428 0.00024
2325.21191 1.36654 0.01367 0.02435 0.00024
2324.24707 1.36649 0.01366 0.02441 0.00024
2323.28198 1.36643 0.01366 0.02446 0.00024
2322.31689 1.36637 0.01366 0.02450 0.00024
2321.35205 1.36627 0.01366 0.02452 0.00025
2320.38696 1.36615 0.01366 0.02454 0.00025
2319.42212 1.36599 0.01366 0.02459 0.00025
2318.45703 1.36582 0.01366 0.02467 0.00025
2317.49097 1.36565 0.01366 0.02478 0.00025
2316.52588 1.36548 0.01365 0.02493 0.00025
2315.56104 1.36532 0.01365 0.02510 0.00025
2314.59595 1.36517 0.01365 0.02530 0.00025
2313.63110 1.36505 0.01365 0.02551 0.00026
2312.66602 1.36495 0.01365 0.02575 0.00026
2311.70093 1.36488 0.01365 0.02598 0.00026
2310.73608 1.36483 0.01365 0.02622 0.00026
2309.77100 1.36480 0.01365 0.02645 0.00026
2308.80591 1.36478 0.01365 0.02668 0.00027
2307.84106 1.36479 0.01365 0.02692 0.00027
2306.87500 1.36482 0.01365 0.02716 0.00027
2305.90991 1.36489 0.01365 0.02738 0.00027
2304.94507 1.36497 0.01365 0.02758 0.00028
2303.97998 1.36507 0.01365 0.02774 0.00028
2303.01489 1.36516 0.01365 0.02786 0.00028
2302.05005 1.36525 0.01365 0.02796 0.00028
2301.08496 1.36532 0.01365 0.02803 0.00028
2300.12012 1.36537 0.01365 0.02809 0.00028
2299.15503 1.36539 0.01365 0.02813 0.00028
2298.18994 1.36538 0.01365 0.02817 0.00028
2297.22510 1.36534 0.01365 0.02823 0.00028
2296.26001 1.36528 0.01365 0.02834 0.00028
2295.29395 1.36522 0.01365 0.02847 0.00028
2294.32910 1.36519 0.01365 0.02862 0.00029
2293.36401 1.36516 0.01365 0.02878 0.00029
2292.39893 1.36515 0.01365 0.02895 0.00029
2291.43408 1.36515 0.01365 0.02912 0.00029
2290.46899 1.36516 0.01365 0.02929 0.00029
2289.50391 1.36517 0.01365 0.02947 0.00029
2288.53906 1.36520 0.01365 0.02965 0.00030
2287.57397 1.36524 0.01365 0.02984 0.00030
2286.60889 1.36531 0.01365 0.03004 0.00030
2285.64404 1.36540 0.01365 0.03024 0.00030
2284.67798 1.36553 0.01366 0.03044 0.00030
2283.71289 1.36568 0.01366 0.03061 0.00031
2282.74805 1.36586 0.01366 0.03073 0.00031
2281.78296 1.36603 0.01366 0.03081 0.00031
2280.81812 1.36619 0.01366 0.03084 0.00031
2279.85303 1.36632 0.01366 0.03084 0.00031
2278.88794 1.36642 0.01366 0.03083 0.00031
2277.92310 1.36648 0.01366 0.03081 0.00031
2276.95801 1.36651 0.01367 0.03081 0.00031
2275.99292 1.36651 0.01367 0.03083 0.00031
2275.02808 1.36650 0.01366 0.03087 0.00031
2274.06201 1.36649 0.01366 0.03094 0.00031
2273.09692 1.36649 0.01366 0.03103 0.00031
2272.13208 1.36650 0.01366 0.03113 0.00031
2271.16699 1.36652 0.01367 0.03124 0.00031
2270.20190 1.36655 0.01367 0.03134 0.00031
2269.23706 1.36658 0.01367 0.03145 0.00031
2268.27197 1.36662 0.01367 0.03155 0.00032
2267.30688 1.36666 0.01367 0.03166 0.00032
2266.34204 1.36671 0.01367 0.03178 0.00032
2265.37695 1.36678 0.01367 0.03190 0.00032
2264.41211 1.36686 0.01367 0.03203 0.00032
2263.44702 1.36695 0.01367 0.03214 0.00032
2262.48096 1.36706 0.01367 0.03224 0.00032
2261.51611 1.36717 0.01367 0.03231 0.00032
2260.55103 1.36727 0.01367 0.03237 0.00032
2259.58594 1.36736 0.01367 0.03241 0.00032
2258.62109 1.36743 0.01367 0.03244 0.00032
2257.65601 1.36749 0.01367 0.03248 0.00032
2256.69092 1.36752 0.01368 0.03253 0.00033
2255.72607 1.36754 0.01368 0.03259 0.00033
2254.76099 1.36755 0.01368 0.03268 0.00033
2253.79590 1.36757 0.01368 0.03281 0.00033
2252.83105 1.36761 0.01368 0.03296 0.00033
2251.86499 1.36768 0.01368 0.03312 0.00033
2250.89990 1.36777 0.01368 0.03329 0.00033
2249.93506 1.36789 0.01368 0.03345 0.00033
2248.96997 1.36803 0.01368 0.03361 0.00034
2248.00488 1.36820 0.01368 0.03377 0.00034
2247.04004 1.36840 0.01368 0.03391 0.00034
2246.07495 1.36864 0.01369 0.03403 0.00034
2245.11011 1.36889 0.01369 0.03411 0.00034
2244.14502 1.36914 0.01369 0.03414 0.00034
2243.17993 1.36939 0.01369 0.03414 0.00034
2242.21509 1.36963 0.01370 0.03410 0.00034
2241.25000 1.36985 0.01370 0.03403 0.00034
2240.28394 1.37004 0.01370 0.03394 0.00034
2239.31909 1.37019 0.01370 0.03383 0.00034
2238.35400 1.37031 0.01370 0.03371 0.00034
2237.38892 1.37039 0.01370 0.03360 0.00034
2236.42407 1.37045 0.01370 0.03352 0.00034
2235.45898 1.37049 0.01370 0.03346 0.00033
2234.49390 1.37052 0.01371 0.03342 0.00033
2233.52905 1.37054 0.01371 0.03340 0.00033
2232.56396 1.37057 0.01371 0.03340 0.00033
2231.59912 1.37060 0.01371 0.03341 0.00033
2230.63403 1.37065 0.01371 0.03346 0.00033
2229.66797 1.37071 0.01371 0.03352 0.00034
2228.70288 1.37080 0.01371 0.03359 0.00034
2227.73804 1.37091 0.01371 0.03365 0.00034
2226.77295 1.37105 0.01371 0.03369 0.00034
2225.80811 1.37119 0.01371 0.03372 0.00034
2224.84302 1.37135 0.01371 0.03375 0.00034
2223.87793 1.37150 0.01371 0.03376 0.00034
2222.91309 1.37167 0.01372 0.03374 0.00034
2221.94800 1.37183 0.01372 0.03370 0.00034
2220.98291 1.37199 0.01372 0.03364 0.00034
2220.01807 1.37212 0.01372 0.03358 0.00034
2219.05200 1.37224 0.01372 0.03351 0.00034
2218.08691 1.37235 0.01372 0.03345 0.00033
2217.12207 1.37245 0.01372 0.03340 0.00033
2216.15698 1.37254 0.01373 0.03335 0.00033
2215.19189 1.37263 0.01373 0.03330 0.00033
2214.22705 1.37271 0.01373 0.03326 0.00033
2213.26196 1.37279 0.01373 0.03323 0.00033
2212.29712 1.37289 0.01373 0.03322 0.00033
2211.33203 1.37300 0.01373 0.03322 0.00033
2210.36694 1.37313 0.01373 0.03322 0.00033
2209.40210 1.37327 0.01373 0.03321 0.00033
2208.43701 1.37342 0.01373 0.03319 0.00033
2207.47095 1.37360 0.01374 0.03316 0.00033
2206.50610 1.37378 0.01374 0.03310 0.00033
2205.54102 1.37397 0.01374 0.03302 0.00033
2204.57593 1.37415 0.01374 0.03291 0.00033
2203.61108 1.37431 0.01374 0.03277 0.00033
2202.64600 1.37444 0.01374 0.03261 0.00033
2201.68091 1.37455 0.01375 0.03247 0.00032
2200.71606 1.37464 0.01375 0.03233 0.00032
2199.75098 1.37472 0.01375 0.03220 0.00032
2198.78589 1.37480 0.01375 0.03209 0.00032
2197.82104 1.37488 0.01375 0.03199 0.00032
2196.85498 1.37497 0.01375 0.03189 0.00032
2195.88989 1.37506 0.01375 0.03179 0.00032
2194.92505 1.37516 0.01375 0.03168 0.00032
2193.95996 1.37526 0.01375 0.03157 0.00032
2192.99512 1.37534 0.01375 0.03145 0.00031
2192.03003 1.37542 0.01375 0.03132 0.00031
2191.06494 1.37549 0.01375 0.03120 0.00031
2190.10010 1.37555 0.01376 0.03110 0.00031
2189.13501 1.37563 0.01376 0.03102 0.00031
2188.16992 1.37573 0.01376 0.03093 0.00031
2187.20508 1.37584 0.01376 0.03085 0.00031
2186.23901 1.37598 0.01376 0.03075 0.00031
2185.27393 1.37612 0.01376 0.03064 0.00031
2184.30908 1.37627 0.01376 0.03049 0.00030
2183.34399 1.37641 0.01376 0.03031 0.00030
2182.37891 1.37654 0.01377 0.03010 0.00030
2181.41406 1.37664 0.01377 0.02988 0.00030
2180.44897 1.37672 0.01377 0.02966 0.00030
2179.48389 1.37678 0.01377 0.02944 0.00029
2178.51904 1.37683 0.01377 0.02924 0.00029
2177.55396 1.37686 0.01377 0.02904 0.00029
2176.58911 1.37690 0.01377 0.02884 0.00029
2175.62402 1.37693 0.01377 0.02863 0.00029
2174.65796 1.37697 0.01377 0.02842 0.00028
2173.69312 1.37699 0.01377 0.02819 0.00028
2172.72803 1.37699 0.01377 0.02796 0.00028
2171.76294 1.37698 0.01377 0.02773 0.00028
2170.79810 1.37693 0.01377 0.02749 0.00027
2169.83301 1.37686 0.01377 0.02727 0.00027
2168.86792 1.37676 0.01377 0.02708 0.00027
2167.90308 1.37666 0.01377 0.02693 0.00027
2166.93799 1.37657 0.01377 0.02682 0.00027
2165.97290 1.37651 0.01377 0.02673 0.00027
2165.00806 1.37647 0.01376 0.02664 0.00027
2164.04199 1.37646 0.01376 0.02654 0.00027
2163.07690 1.37646 0.01376 0.02642 0.00026
2162.11206 1.37646 0.01376 0.02630 0.00026
2161.14697 1.37645 0.01376 0.02615 0.00026
2160.18188 1.37643 0.01376 0.02601 0.00026
2159.21704 1.37641 0.01376 0.02587 0.00026
2158.25195 1.37638 0.01376 0.02574 0.00026
2157.28711 1.37635 0.01376 0.02563 0.00026
2156.32202 1.37633 0.01376 0.02552 0.00026
2155.35693 1.37634 0.01376 0.02542 0.00025
2154.39209 1.37636 0.01376 0.02530 0.00025
2153.42700 1.37638 0.01376 0.02516 0.00025
2152.46094 1.37642 0.01376 0.02499 0.00025
2151.49609 1.37644 0.01376 0.02480 0.00025
2150.53101 1.37644 0.01376 0.02459 0.00025
2149.56592 1.37641 0.01376 0.02437 0.00024
2148.60107 1.37635 0.01376 0.02415 0.00024
2147.63599 1.37627 0.01376 0.02394 0.00024
2146.67090 1.37618 0.01376 0.02375 0.00024
2145.70605 1.37606 0.01376 0.02359 0.00024
2144.74097 1.37596 0.01376 0.02345 0.00023
2143.77588 1.37587 0.01376 0.02333 0.00023
2142.81104 1.37579 0.01376 0.02322 0.00023
2141.84497 1.37572 0.01376 0.02310 0.00023
2140.87988 1.37566 0.01376 0.02298 0.00023
2139.91504 1.37560 0.01376 0.02285 0.00023
2138.94995 1.37554 0.01376 0.02271 0.00023
2137.98511 1.37547 0.01375 0.02258 0.00023
2137.02002 1.37539 0.01375 0.02245 0.00022
2136.05493 1.37531 0.01375 0.02232 0.00022
2135.09009 1.37523 0.01375 0.02220 0.00022
2134.12500 1.37515 0.01375 0.02210 0.00022
2133.15991 1.37509 0.01375 0.02200 0.00022
2132.19507 1.37504 0.01375 0.02192 0.00022
2131.22900 1.37501 0.01375 0.02182 0.00022
2130.26392 1.37499 0.01375 0.02169 0.00022
2129.29907 1.37497 0.01375 0.02154 0.00022
2128.33398 1.37495 0.01375 0.02138 0.00021
2127.36890 1.37492 0.01375 0.02121 0.00021
2126.40405 1.37486 0.01375 0.02103 0.00021
2125.43896 1.37479 0.01375 0.02084 0.00021
2124.47412 1.37471 0.01375 0.02064 0.00021
2123.50903 1.37460 0.01375 0.02045 0.00020
2122.54395 1.37446 0.01374 0.02026 0.00020
2121.57910 1.37432 0.01374 0.02009 0.00020
2120.61401 1.37418 0.01374 0.01995 0.00020
2119.64795 1.37403 0.01374 0.01983 0.00020
2118.68311 1.37389 0.01374 0.01972 0.00020
2117.71802 1.37376 0.01374 0.01963 0.00020
2116.75293 1.37365 0.01374 0.01955 0.00020
2115.78809 1.37355 0.01374 0.01945 0.00019
2114.82300 1.37346 0.01373 0.01932 0.00019
2113.85791 1.37335 0.01373 0.01919 0.00019
2112.89307 1.37324 0.01373 0.01905 0.00019
2111.92798 1.37312 0.01373 0.01892 0.00019
2110.96289 1.37298 0.01373 0.01879 0.00019
2109.99805 1.37284 0.01373 0.01867 0.00019
2109.03198 1.37269 0.01373 0.01857 0.00019
2108.06689 1.37254 0.01373 0.01847 0.00018
2107.10205 1.37238 0.01372 0.01839 0.00018
2106.13696 1.37223 0.01372 0.01833 0.00018
2105.17212 1.37210 0.01372 0.01828 0.00018
2104.20703 1.37198 0.01372 0.01823 0.00018
2103.24194 1.37188 0.01372 0.01816 0.00018
2102.27710 1.37177 0.01372 0.01809 0.00018
2101.31201 1.37167 0.01372 0.01801 0.00018
2100.34692 1.37156 0.01372 0.01794 0.00018
2099.38208 1.37144 0.01371 0.01787 0.00018
2098.41602 1.37132 0.01371 0.01781 0.00018
2097.45093 1.37121 0.01371 0.01775 0.00018
2096.48608 1.37111 0.01371 0.01771 0.00018
2095.52100 1.37103 0.01371 0.01769 0.00018
2094.55591 1.37097 0.01371 0.01765 0.00018
2093.59106 1.37093 0.01371 0.01761 0.00018
2092.62598 1.37090 0.01371 0.01754 0.00018
2091.66089 1.37089 0.01371 0.01744 0.00017
2090.69604 1.37087 0.01371 0.01731 0.00017
2089.73096 1.37084 0.01371 0.01714 0.00017
2088.76611 1.37079 0.01371 0.01696 0.00017
2087.80103 1.37070 0.01371 0.01677 0.00017
2086.83496 1.37058 0.01371 0.01658 0.00017
2085.87012 1.37042 0.01370 0.01640 0.00016
2084.90503 1.37026 0.01370 0.01624 0.00016
2083.93994 1.37009 0.01370 0.01610 0.00016
2082.97510 1.36992 0.01370 0.01597 0.00016
2082.01001 1.36975 0.01370 0.01586 0.00016
2081.04492 1.36957 0.01370 0.01574 0.00016
2080.08008 1.36939 0.01369 0.01563 0.00016
2079.11499 1.36920 0.01369 0.01551 0.00016
2078.14990 1.36900 0.01369 0.01541 0.00015
2077.18506 1.36879 0.01369 0.01532 0.00015
2076.21899 1.36858 0.01369 0.01526 0.00015
2075.25391 1.36837 0.01368 0.01521 0.00015
2074.28906 1.36817 0.01368 0.01518 0.00015
2073.32397 1.36798 0.01368 0.01517 0.00015
2072.35889 1.36780 0.01368 0.01517 0.00015
2071.39404 1.36764 0.01368 0.01519 0.00015
2070.42896 1.36751 0.01368 0.01521 0.00015
2069.46411 1.36740 0.01367 0.01522 0.00015
2068.49902 1.36731 0.01367 0.01521 0.00015
2067.53394 1.36724 0.01367 0.01517 0.00015
2066.56909 1.36716 0.01367 0.01512 0.00015
2065.60400 1.36707 0.01367 0.01505 0.00015
2064.63794 1.36697 0.01367 0.01496 0.00015
2063.67310 1.36685 0.01367 0.01487 0.00015
2062.70801 1.36672 0.01367 0.01478 0.00015
2061.74292 1.36657 0.01367 0.01468 0.00015
2060.77808 1.36642 0.01366 0.01458 0.00015
2059.81299 1.36625 0.01366 0.01450 0.00014
2058.84790 1.36606 0.01366 0.01443 0.00014
2057.88306 1.36587 0.01366 0.01438 0.00014
2056.91797 1.36567 0.01366 0.01436 0.00014
2055.95288 1.36549 0.01365 0.01434 0.00014
2054.98804 1.36532 0.01365 0.01434 0.00014
2054.02197 1.36515 0.01365 0.01434 0.00014
2053.05688 1.36500 0.01365 0.01435 0.00014
2052.09204 1.36485 0.01365 0.01437 0.00014
2051.12695 1.36472 0.01365 0.01440 0.00014
2050.16211 1.36461 0.01365 0.01442 0.00014
2049.19702 1.36451 0.01365 0.01442 0.00014
2048.23193 1.36442 0.01364 0.01442 0.00014
2047.26697 1.36433 0.01364 0.01442 0.00014
2046.30200 1.36426 0.01364 0.01440 0.00014
2045.33704 1.36418 0.01364 0.01437 0.00014
2044.37195 1.36411 0.01364 0.01433 0.00014
2043.40698 1.36402 0.01364 0.01427 0.00014
2042.44202 1.36393 0.01364 0.01421 0.00014
2041.47595 1.36382 0.01364 0.01413 0.00014
2040.51099 1.36369 0.01364 0.01406 0.00014
2039.54602 1.36355 0.01364 0.01401 0.00014
2038.58105 1.36340 0.01363 0.01396 0.00014
2037.61597 1.36325 0.01363 0.01393 0.00014
2036.65100 1.36310 0.01363 0.01391 0.00014
2035.68604 1.36296 0.01363 0.01392 0.00014
2034.72095 1.36285 0.01363 0.01394 0.00014
2033.75598 1.36277 0.01363 0.01395 0.00014
2032.79102 1.36270 0.01363 0.01396 0.00014
2031.82605 1.36265 0.01363 0.01394 0.00014
2030.85999 1.36261 0.01363 0.01390 0.00014
2029.89502 1.36258 0.01363 0.01383 0.00014
2028.93005 1.36253 0.01363 0.01374 0.00014
2027.96497 1.36246 0.01362 0.01361 0.00014
2027.00000 1.36238 0.01362 0.01348 0.00013
2026.03503 1.36226 0.01362 0.01334 0.00013
2025.06995 1.36212 0.01362 0.01320 0.00013
2024.10498 1.36195 0.01362 0.01307 0.00013
2023.14001 1.36177 0.01362 0.01297 0.00013
2022.17505 1.36159 0.01362 0.01288 0.00013
2021.20996 1.36140 0.01361 0.01280 0.00013
2020.24500 1.36121 0.01361 0.01274 0.00013
2019.27905 1.36102 0.01361 0.01267 0.00013
2018.31396 1.36084 0.01361 0.01261 0.00013
2017.34900 1.36064 0.01361 0.01255 0.00013
2016.38403 1.36043 0.01360 0.01251 0.00013
2015.41895 1.36022 0.01360 0.01248 0.00012
2014.45398 1.36002 0.01360 0.01247 0.00012
2013.48901 1.35982 0.01360 0.01248 0.00012
2012.52405 1.35964 0.01360 0.01250 0.00013
2011.55896 1.35948 0.01359 0.01254 0.00013
2010.59399 1.35935 0.01359 0.01258 0.00013
2009.62903 1.35923 0.01359 0.01260 0.00013
2008.66296 1.35914 0.01359 0.01259 0.00013
2007.69800 1.35905 0.01359 0.01256 0.00013
2006.73303 1.35893 0.01359 0.01249 0.00012
2005.76794 1.35881 0.01359 0.01242 0.00012
2004.80298 1.35866 0.01359 0.01236 0.00012
2003.83801 1.35850 0.01358 0.01230 0.00012
2002.87305 1.35833 0.01358 0.01225 0.00012
2001.90796 1.35816 0.01358 0.01221 0.00012
2000.94299 1.35799 0.01358 0.01218 0.00012
1999.97803 1.35783 0.01358 0.01215 0.00012
1999.01294 1.35767 0.01358 0.01212 0.00012
1998.04700 1.35751 0.01358 0.01207 0.00012
1997.08203 1.35734 0.01357 0.01201 0.00012
1996.11694 1.35716 0.01357 0.01195 0.00012
1995.15198 1.35695 0.01357 0.01190 0.00012
1994.18701 1.35673 0.01357 0.01186 0.00012
1993.22205 1.35650 0.01357 0.01184 0.00012
1992.25696 1.35627 0.01356 0.01184 0.00012
1991.29199 1.35603 0.01356 0.01185 0.00012
1990.32703 1.35581 0.01356 0.01188 0.00012
1989.36206 1.35559 0.01356 0.01193 0.00012
1988.39697 1.35540 0.01355 0.01200 0.00012
1987.43201 1.35521 0.01355 0.01207 0.00012
1986.46594 1.35504 0.01355 0.01213 0.00012
1985.50098 1.35489 0.01355 0.01217 0.00012
1984.53601 1.35473 0.01355 0.01222 0.00012
1983.57104 1.35458 0.01355 0.01226 0.00012
1982.60596 1.35443 0.01354 0.01232 0.00012
1981.64099 1.35430 0.01354 0.01239 0.00012
1980.67603 1.35417 0.01354 0.01245 0.00012
1979.71106 1.35407 0.01354 0.01248 0.00012
1978.74597 1.35396 0.01354 0.01251 0.00013
1977.78101 1.35385 0.01354 0.01253 0.00013
1976.81604 1.35374 0.01354 0.01253 0.00013
1975.84998 1.35362 0.01354 0.01253 0.00013
1974.88501 1.35349 0.01353 0.01251 0.00013
1973.92004 1.35334 0.01353 0.01248 0.00012
1972.95496 1.35318 0.01353 0.01247 0.00012
1971.98999 1.35301 0.01353 0.01248 0.00012
1971.02502 1.35284 0.01353 0.01250 0.00013
1970.06006 1.35269 0.01353 0.01253 0.00013
1969.09497 1.35254 0.01353 0.01256 0.00013
1968.13000 1.35239 0.01352 0.01256 0.00013
1967.16504 1.35224 0.01352 0.01257 0.00013
1966.19995 1.35208 0.01352 0.01258 0.00013
1965.23401 1.35191 0.01352 0.01260 0.00013
1964.26904 1.35173 0.01352 0.01263 0.00013
1963.30396 1.35155 0.01352 0.01267 0.00013
1962.33899 1.35138 0.01351 0.01271 0.00013
1961.37402 1.35121 0.01351 0.01278 0.00013
1960.40906 1.35106 0.01351 0.01287 0.00013
1959.44397 1.35094 0.01351 0.01296 0.00013
1958.47900 1.35085 0.01351 0.01304 0.00013
1957.51404 1.35076 0.01351 0.01310 0.00013
1956.54895 1.35068 0.01351 0.01313 0.00013
1955.58398 1.35060 0.01351 0.01315 0.00013
1954.61902 1.35051 0.01351 0.01316 0.00013
1953.65295 1.35042 0.01350 0.01315 0.00013
1952.68799 1.35032 0.01350 0.01313 0.00013
1951.72302 1.35020 0.01350 0.01310 0.00013
1950.75806 1.35007 0.01350 0.01308 0.00013
1949.79297 1.34993 0.01350 0.01306 0.00013
1948.82800 1.34979 0.01350 0.01306 0.00013
1947.86304 1.34965 0.01350 0.01305 0.00013
1946.89795 1.34952 0.01350 0.01303 0.00013
1945.93298 1.34937 0.01349 0.01300 0.00013
1944.96802 1.34920 0.01349 0.01294 0.00013
1944.00305 1.34902 0.01349 0.01290 0.00013
1943.03699 1.34880 0.01349 0.01287 0.00013
1942.07202 1.34857 0.01349 0.01287 0.00013
1941.10706 1.34832 0.01348 0.01290 0.00013
1940.14197 1.34808 0.01348 0.01296 0.00013
1939.17700 1.34785 0.01348 0.01305 0.00013
1938.21204 1.34766 0.01348 0.01316 0.00013
1937.24695 1.34750 0.01347 0.01330 0.00013
1936.28198 1.34737 0.01347 0.01342 0.00013
1935.31702 1.34727 0.01347 0.01351 0.00014
1934.35205 1.34718 0.01347 0.01357 0.00014
1933.38696 1.34708 0.01347 0.01360 0.00014
1932.42200 1.34698 0.01347 0.01362 0.00014
1931.45605 1.34685 0.01347 0.01364 0.00014
1930.49097 1.34672 0.01347 0.01365 0.00014
1929.52600 1.34657 0.01347 0.01367 0.00014
1928.56104 1.34642 0.01346 0.01370 0.00014
1927.59595 1.34626 0.01346 0.01373 0.00014
1926.63098 1.34611 0.01346 0.01377 0.00014
1925.66602 1.34596 0.01346 0.01382 0.00014
1924.70105 1.34582 0.01346 0.01387 0.00014
1923.73596 1.34567 0.01346 0.01391 0.00014
1922.77100 1.34553 0.01346 0.01394 0.00014
1921.80603 1.34537 0.01345 0.01396 0.00014
1920.83997 1.34520 0.01345 0.01400 0.00014
1919.87500 1.34504 0.01345 0.01407 0.00014
1918.91003 1.34488 0.01345 0.01414 0.00014
1917.94495 1.34473 0.01345 0.01424 0.00014
1916.97998 1.34461 0.01345 0.01433 0.00014
1916.01501 1.34451 0.01345 0.01443 0.00014
1915.05005 1.34443 0.01344 0.01450 0.00014
1914.08496 1.34437 0.01344 0.01455 0.00015
1913.12000 1.34432 0.01344 0.01458 0.00015
1912.15503 1.34426 0.01344 0.01457 0.00015
1911.18994 1.34419 0.01344 0.01454 0.00015
1910.22400 1.34409 0.01344 0.01447 0.00014
1909.25903 1.34397 0.01344 0.01440 0.00014
1908.29395 1.34382 0.01344 0.01432 0.00014
1907.32898 1.34364 0.01344 0.01425 0.00014
1906.36401 1.34344 0.01343 0.01419 0.00014
1905.39905 1.34321 0.01343 0.01413 0.00014
1904.43396 1.34295 0.01343 0.01407 0.00014
1903.46899 1.34268 0.01343 0.01405 0.00014
1902.50403 1.34238 0.01342 0.01407 0.00014
1901.53894 1.34209 0.01342 0.01411 0.00014
1900.57397 1.34179 0.01342 0.01419 0.00014
1899.60901 1.34151 0.01342 0.01429 0.00014
1898.64294 1.34124 0.01341 0.01442 0.00014
1897.67798 1.34098 0.01341 0.01457 0.00015
1896.71301 1.34074 0.01341 0.01474 0.00015
1895.74805 1.34053 0.01341 0.01493 0.00015
1894.78296 1.34036 0.01340 0.01513 0.00015
1893.81799 1.34021 0.01340 0.01531 0.00015
1892.85303 1.34009 0.01340 0.01547 0.00015
1891.88794 1.33998 0.01340 0.01563 0.00016
1890.92297 1.33989 0.01340 0.01578 0.00016
1889.95801 1.33982 0.01340 0.01591 0.00016
1888.99304 1.33975 0.01340 0.01602 0.00016
1888.02698 1.33969 0.01340 0.01610 0.00016
1887.06201 1.33961 0.01340 0.01616 0.00016
1886.09705 1.33952 0.01340 0.01619 0.00016
1885.13196 1.33941 0.01339 0.01621 0.00016
1884.16699 1.33928 0.01339 0.01623 0.00016
1883.20203 1.33913 0.01339 0.01626 0.00016
1882.23706 1.33897 0.01339 0.01629 0.00016
1881.27197 1.33880 0.01339 0.01632 0.00016
1880.30701 1.33861 0.01339 0.01637 0.00016
1879.34204 1.33840 0.01338 0.01645 0.00016
1878.37695 1.33821 0.01338 0.01655 0.00017
1877.41101 1.33803 0.01338 0.01667 0.00017
1876.44604 1.33786 0.01338 0.01680 0.00017
1875.48096 1.33771 0.01338 0.01692 0.00017
1874.51599 1.33757 0.01338 0.01705 0.00017
1873.55103 1.33744 0.01337 0.01717 0.00017
1872.58606 1.33732 0.01337 0.01728 0.00017
1871.62097 1.33721 0.01337 0.01738 0.00017
1870.65601 1.33709 0.01337 0.01748 0.00017
1869.69104 1.33698 0.01337 0.01756 0.00018
1868.72595 1.33686 0.01337 0.01765 0.00018
1867.76099 1.33674 0.01337 0.01773 0.00018
1866.79602 1.33661 0.01337 0.01782 0.00018
1865.82996 1.33649 0.01336 0.01790 0.00018
1864.86499 1.33637 0.01336 0.01799 0.00018
1863.90002 1.33625 0.01336 0.01807 0.00018
1862.93506 1.33614 0.01336 0.01816 0.00018
1861.96997 1.33603 0.01336 0.01823 0.00018
1861.00500 1.33592 0.01336 0.01829 0.00018
1860.04004 1.33580 0.01336 0.01835 0.00018
1859.07495 1.33567 0.01336 0.01840 0.00018
1858.10999 1.33553 0.01336 0.01846 0.00018
1857.14502 1.33538 0.01335 0.01851 0.00019
1856.18005 1.33522 0.01335 0.01858 0.00019
1855.21399 1.33507 0.01335 0.01866 0.00019
1854.24902 1.33491 0.01335 0.01876 0.00019
1853.28406 1.33477 0.01335 0.01886 0.00019
1852.31897 1.33464 0.01335 0.01896 0.00019
1851.35400 1.33453 0.01335 0.01905 0.00019
1850.38904 1.33443 0.01334 0.01912 0.00019
1849.42395 1.33432 0.01334 0.01918 0.00019
1848.45898 1.33421 0.01334 0.01922 0.00019
1847.49402 1.33408 0.01334 0.01925 0.00019
1846.52905 1.33394 0.01334 0.01927 0.00019
1845.56396 1.33377 0.01334 0.01929 0.00019
1844.59900 1.33359 0.01334 0.01931 0.00019
1843.63306 1.33338 0.01333 0.01934 0.00019
1842.66797 1.33316 0.01333 0.01940 0.00019
1841.70300 1.33294 0.01333 0.01949 0.00019
1840.73804 1.33273 0.01333 0.01959 0.00020
1839.77295 1.33252 0.01333 0.01971 0.00020
1838.80798 1.33232 0.01332 0.01983 0.00020
1837.84302 1.33212 0.01332 0.01996 0.00020
1836.87805 1.33194 0.01332 0.02010 0.00020
1835.91296 1.33176 0.01332 0.02023 0.00020
1834.94800 1.33159 0.01332 0.02037 0.00020
1833.98303 1.33142 0.01331 0.02051 0.00021
1833.01697 1.33126 0.01331 0.02067 0.00021
1832.05200 1.33112 0.01331 0.02083 0.00021
1831.08704 1.33098 0.01331 0.02099 0.00021
1830.12195 1.33086 0.01331 0.02116 0.00021
1829.15698 1.33077 0.01331 0.02132 0.00021
1828.19202 1.33070 0.01331 0.02146 0.00021
1827.22705 1.33065 0.01331 0.02158 0.00022
1826.26196 1.33059 0.01331 0.02167 0.00022
1825.29700 1.33054 0.01331 0.02172 0.00022
1824.33203 1.33047 0.01330 0.02174 0.00022
1823.36694 1.33037 0.01330 0.02173 0.00022
1822.40100 1.33023 0.01330 0.02171 0.00022
1821.43604 1.33006 0.01330 0.02168 0.00022
1820.47095 1.32986 0.01330 0.02167 0.00022
1819.50598 1.32962 0.01330 0.02169 0.00022
1818.54102 1.32936 0.01329 0.02174 0.00022
1817.57605 1.32910 0.01329 0.02181 0.00022
1816.61096 1.32884 0.01329 0.02191 0.00022
1815.64600 1.32860 0.01329 0.02203 0.00022
1814.68103 1.32837 0.01328 0.02217 0.00022
1813.71594 1.32816 0.01328 0.02230 0.00022
1812.75098 1.32795 0.01328 0.02244 0.00022
1811.78601 1.32775 0.01328 0.02256 0.00023
1810.81995 1.32754 0.01328 0.02268 0.00023
1809.85498 1.32733 0.01327 0.02280 0.00023
1808.89001 1.32712 0.01327 0.02291 0.00023
1807.92505 1.32691 0.01327 0.02304 0.00023
1806.95996 1.32669 0.01327 0.02317 0.00023
1805.99500 1.32647 0.01326 0.02329 0.00023
1805.03003 1.32623 0.01326 0.02341 0.00023
1804.06494 1.32599 0.01326 0.02354 0.00024
1803.09998 1.32573 0.01326 0.02367 0.00024
1802.13501 1.32544 0.01325 0.02382 0.00024
1801.17004 1.32514 0.01325 0.02400 0.00024
1800.20398 1.32484 0.01325 0.02420 0.00024
1799.23901 1.32454 0.01325 0.02445 0.00024
1798.27405 1.32426 0.01324 0.02473 0.00025
1797.30896 1.32401 0.01324 0.02504 0.00025
1796.34399 1.32379 0.01324 0.02538 0.00025
1795.37903 1.32362 0.01324 0.02573 0.00026
1794.41394 1.32350 0.01323 0.02607 0.00026
1793.44897 1.32341 0.01323 0.02638 0.00026
1792.48401 1.32335 0.01323 0.02666 0.00027
1791.51904 1.32329 0.01323 0.02691 0.00027
1790.55396 1.32324 0.01323 0.02713 0.00027
1789.58801 1.32319 0.01323 0.02732 0.00027
1788.62305 1.32314 0.01323 0.02748 0.00027
1787.65796 1.32306 0.01323 0.02761 0.00028
1786.69299 1.32294 0.01323 0.02772 0.00028
1785.72803 1.32280 0.01323 0.02783 0.00028
1784.76294 1.32262 0.01323 0.02795 0.00028
1783.79797 1.32241 0.01322 0.02809 0.00028
1782.83301 1.32218 0.01322 0.02825 0.00028
1781.86804 1.32193 0.01322 0.02844 0.00028
1780.90295 1.32169 0.01322 0.02867 0.00029
1779.93799 1.32146 0.01321 0.02895 0.00029
1778.97302 1.32125 0.01321 0.02927 0.00029
1778.00696 1.32109 0.01321 0.02961 0.00030
1777.04199 1.32096 0.01321 0.02994 0.00030
1776.07703 1.32087 0.01321 0.03026 0.00030
1775.11206 1.32081 0.01321 0.03057 0.00031
1774.14697 1.32078 0.01321 0.03086 0.00031
1773.18201 1.32076 0.01321 0.03113 0.00031
1772.21704 1.32075 0.01321 0.03135 0.00031
1771.25195 1.32074 0.01321 0.03155 0.00032
1770.28699 1.32073 0.01321 0.03173 0.00032
1769.32202 1.32071 0.01321 0.03189 0.00032
1768.35706 1.32069 0.01321 0.03202 0.00032
1767.39099 1.32065 0.01321 0.03211 0.00032
1766.42603 1.32058 0.01321 0.03217 0.00032
1765.46106 1.32046 0.01320 0.03219 0.00032
1764.49597 1.32028 0.01320 0.03220 0.00032
1763.53101 1.32004 0.01320 0.03225 0.00032
1762.56604 1.31976 0.01320 0.03234 0.00032
1761.60095 1.31945 0.01319 0.03248 0.00032
1760.63599 1.31914 0.01319 0.03268 0.00033
1759.67102 1.31883 0.01319 0.03292 0.00033
1758.70605 1.31854 0.01319 0.03320 0.00033
1757.74097 1.31830 0.01318 0.03352 0.00034
1756.77600 1.31810 0.01318 0.03383 0.00034
1755.81006 1.31791 0.01318 0.03412 0.00034
1754.84497 1.31773 0.01318 0.03437 0.00034
1753.88000 1.31752 0.01318 0.03461 0.00035
1752.91504 1.31729 0.01317 0.03486 0.00035
1751.94995 1.31704 0.01317 0.03515 0.00035
1750.98499 1.31679 0.01317 0.03545 0.00035
1750.02002 1.31653 0.01317 0.03578 0.00036
1749.05505 1.31627 0.01316 0.03613 0.00036
1748.08997 1.31601 0.01316 0.03652 0.00037
1747.12500 1.31578 0.01316 0.03694 0.00037
1746.16003 1.31557 0.01316 0.03740 0.00037
1745.19397 1.31540 0.01315 0.03786 0.00038
1744.22900 1.31526 0.01315 0.03831 0.00038
1743.26404 1.31513 0.01315 0.03875 0.00039
1742.29895 1.31501 0.01315 0.03920 0.00039
1741.33398 1.31490 0.01315 0.03967 0.00040
1740.36902 1.31482 0.01315 0.04016 0.00040
1739.40405 1.31477 0.01315 0.04066 0.00041
1738.43896 1.31476 0.01315 0.04115 0.00041
1737.47400 1.31478 0.01315 0.04161 0.00042
1736.50903 1.31482 0.01315 0.04206 0.00042
1735.54395 1.31489 0.01315 0.04249 0.00042
1734.57800 1.31498 0.01315 0.04288 0.00043
1733.61304 1.31508 0.01315 0.04323 0.00043
1732.64795 1.31515 0.01315 0.04352 0.00044
1731.68298 1.31519 0.01315 0.04378 0.00044
1730.71802 1.31518 0.01315 0.04403 0.00044
1729.75305 1.31513 0.01315 0.04429 0.00044
1728.78796 1.31504 0.01315 0.04459 0.00045
1727.82300 1.31493 0.01315 0.04494 0.00045
1726.85803 1.31482 0.01315 0.04534 0.00045
1725.89294 1.31474 0.01315 0.04578 0.00046
1724.92798 1.31469 0.01315 0.04626 0.00046
1723.96301 1.31468 0.01315 0.04677 0.00047
1722.99695 1.31473 0.01315 0.04728 0.00047
1722.03198 1.31483 0.01315 0.04777 0.00048
1721.06702 1.31497 0.01315 0.04824 0.00048
1720.10205 1.31514 0.01315 0.04868 0.00049
1719.13696 1.31533 0.01315 0.04910 0.00049
1718.17200 1.31556 0.01316 0.04947 0.00049
1717.20703 1.31580 0.01316 0.04979 0.00050
1716.24194 1.31602 0.01316 0.05005 0.00050
1715.27698 1.31622 0.01316 0.05024 0.00050
1714.31201 1.31638 0.01316 0.05040 0.00050
1713.34705 1.31650 0.01316 0.05056 0.00051
1712.38098 1.31657 0.01317 0.05070 0.00051
1711.41602 1.31659 0.01317 0.05081 0.00051
1710.45105 1.31653 0.01317 0.05092 0.00051
1709.48596 1.31641 0.01316 0.05107 0.00051
1708.52100 1.31623 0.01316 0.05128 0.00051
1707.55603 1.31601 0.01316 0.05160 0.00052
1706.59094 1.31579 0.01316 0.05200 0.00052
1705.62598 1.31560 0.01316 0.05248 0.00052
1704.66101 1.31547 0.01315 0.05305 0.00053
1703.69604 1.31543 0.01315 0.05370 0.00054
1702.73096 1.31550 0.01316 0.05439 0.00054
1701.76501 1.31568 0.01316 0.05507 0.00055
1700.80005 1.31595 0.01316 0.05567 0.00056
1699.83496 1.31628 0.01316 0.05615 0.00056
1698.87000 1.31661 0.01317 0.05655 0.00057
1697.90503 1.31693 0.01317 0.05690 0.00057
1696.93994 1.31722 0.01317 0.05723 0.00057
1695.97498 1.31749 0.01317 0.05755 0.00058
1695.01001 1.31776 0.01318 0.05784 0.00058
1694.04504 1.31801 0.01318 0.05810 0.00058
1693.07996 1.31827 0.01318 0.05836 0.00058
1692.11499 1.31852 0.01319 0.05861 0.00059
1691.15002 1.31877 0.01319 0.05884 0.00059
1690.18396 1.31900 0.01319 0.05902 0.00059
1689.21899 1.31920 0.01319 0.05916 0.00059
1688.25403 1.31933 0.01319 0.05925 0.00059
1687.28894 1.31939 0.01319 0.05936 0.00059
1686.32397 1.31939 0.01319 0.05953 0.00060
1685.35901 1.31935 0.01319 0.05978 0.00060
1684.39404 1.31931 0.01319 0.06011 0.00060
1683.42896 1.31928 0.01319 0.06049 0.00060
1682.46399 1.31928 0.01319 0.06093 0.00061
1681.49902 1.31935 0.01319 0.06142 0.00061
1680.53406 1.31950 0.01319 0.06195 0.00062
1679.56799 1.31972 0.01320 0.06247 0.00062
1678.60303 1.32000 0.01320 0.06294 0.00063
1677.63794 1.32032 0.01320 0.06334 0.00063
1676.67297 1.32063 0.01321 0.06368 0.00064
1675.70801 1.32093 0.01321 0.06401 0.00064
1674.74304 1.32121 0.01321 0.06433 0.00064
1673.77795 1.32150 0.01321 0.06467 0.00065
1672.81299 1.32180 0.01322 0.06502 0.00065
1671.84802 1.32215 0.01322 0.06536 0.00065
1670.88306 1.32254 0.01323 0.06569 0.00066
1669.91797 1.32297 0.01323 0.06595 0.00066
1668.95300 1.32340 0.01323 0.06612 0.00066
1667.98706 1.32378 0.01324 0.06619 0.00066
1667.02197 1.32407 0.01324 0.06618 0.00066
1666.05701 1.32426 0.01324 0.06616 0.00066
1665.09204 1.32434 0.01324 0.06620 0.00066
1664.12695 1.32434 0.01324 0.06632 0.00066
1663.16199 1.32430 0.01324 0.06655 0.00067
1662.19702 1.32426 0.01324 0.06688 0.00067
1661.23206 1.32427 0.01324 0.06732 0.00067
1660.26697 1.32436 0.01324 0.06786 0.00068
1659.30200 1.32456 0.01325 0.06847 0.00068
1658.33704 1.32487 0.01325 0.06908 0.00069
1657.37097 1.32527 0.01325 0.06962 0.00070
1656.40601 1.32573 0.01326 0.07010 0.00070
1655.44104 1.32624 0.01326 0.07053 0.00071
1654.47595 1.32680 0.01327 0.07096 0.00071
1653.51099 1.32741 0.01327 0.07137 0.00071
1652.54602 1.32808 0.01328 0.07170 0.00072
1651.58105 1.32878 0.01329 0.07191 0.00072
1650.61597 1.32950 0.01329 0.07202 0.00072
1649.65100 1.33019 0.01330 0.07205 0.00072
1648.68604 1.33085 0.01331 0.07201 0.00072
1647.72095 1.33146 0.01331 0.07191 0.00072
1646.75500 1.33200 0.01332 0.07172 0.00072
1645.79004 1.33245 0.01332 0.07145 0.00071
1644.82495 1.33277 0.01333 0.07117 0.00071
1643.85999 1.33299 0.01333 0.07095 0.00071
1642.89502 1.33315 0.01333 0.07082 0.00071
1641.93005 1.33327 0.01333 0.07078 0.00071
1640.96497 1.33341 0.01333 0.07081 0.00071
1640.00000 1.33358 0.01334 0.07087 0.00071
1639.03503 1.33378 0.01334 0.07095 0.00071
1638.06995 1.33401 0.01334 0.07105 0.00071
1637.10498 1.33428 0.01334 0.07115 0.00071
1636.14001 1.33458 0.01335 0.07124 0.00071
1635.17395 1.33490 0.01335 0.07130 0.00071
1634.20898 1.33521 0.01335 0.07130 0.00071
1633.24402 1.33549 0.01335 0.07126 0.00071
1632.27905 1.33574 0.01336 0.07120 0.00071
1631.31396 1.33594 0.01336 0.07118 0.00071
1630.34900 1.33612 0.01336 0.07119 0.00071
1629.38403 1.33628 0.01336 0.07122 0.00071
1628.41895 1.33644 0.01336 0.07126 0.00071
1627.45398 1.33659 0.01337 0.07133 0.00071
1626.48901 1.33674 0.01337 0.07144 0.00071
1625.52405 1.33691 0.01337 0.07161 0.00072
1624.55798 1.33713 0.01337 0.07184 0.00072
1623.59302 1.33742 0.01337 0.07209 0.00072
1622.62805 1.33777 0.01338 0.07231 0.00072
1621.66296 1.33817 0.01338 0.07250 0.00072
1620.69800 1.33862 0.01339 0.07263 0.00073
1619.73303 1.33908 0.01339 0.07272 0.00073
1618.76794 1.33956 0.01340 0.07277 0.00073
1617.80298 1.34004 0.01340 0.07278 0.00073
1616.83801 1.34051 0.01341 0.07275 0.00073
1615.87305 1.34098 0.01341 0.07268 0.00073
1614.90796 1.34145 0.01341 0.07257 0.00073
1613.94202 1.34191 0.01342 0.07243 0.00072
1612.97705 1.34236 0.01342 0.07225 0.00072
1612.01196 1.34278 0.01343 0.07202 0.00072
1611.04700 1.34317 0.01343 0.07173 0.00072
1610.08203 1.34349 0.01343 0.07138 0.00071
1609.11694 1.34372 0.01344 0.07101 0.00071
1608.15198 1.34388 0.01344 0.07066 0.00071
1607.18701 1.34396 0.01344 0.07036 0.00070
1606.22205 1.34400 0.01344 0.07013 0.00070
1605.25696 1.34402 0.01344 0.06995 0.00070
1604.29199 1.34404 0.01344 0.06983 0.00070
1603.32703 1.34407 0.01344 0.06975 0.00070
1602.36096 1.34413 0.01344 0.06971 0.00070
1601.39600 1.34423 0.01344 0.06970 0.00070
1600.43103 1.34438 0.01344 0.06968 0.00070
1599.46594 1.34455 0.01345 0.06964 0.00070
1598.50098 1.34472 0.01345 0.06956 0.00070
1597.53601 1.34488 0.01345 0.06943 0.00069
1596.57104 1.34501 0.01345 0.06930 0.00069
1595.60596 1.34513 0.01345 0.06921 0.00069
1594.64099 1.34525 0.01345 0.06914 0.00069
1593.67603 1.34538 0.01345 0.06907 0.00069
1592.71106 1.34552 0.01346 0.06897 0.00069
1591.74500 1.34566 0.01346 0.06883 0.00069
1590.78003 1.34576 0.01346 0.06866 0.00069
1589.81494 1.34581 0.01346 0.06849 0.00068
1588.84998 1.34582 0.01346 0.06834 0.00068
1587.88501 1.34579 0.01346 0.06822 0.00068
1586.92004 1.34573 0.01346 0.06814 0.00068
1585.95496 1.34566 0.01346 0.06810 0.00068
1584.98999 1.34559 0.01346 0.06812 0.00068
1584.02502 1.34553 0.01346 0.06820 0.00068
1583.06006 1.34552 0.01346 0.06834 0.00068
1582.09497 1.34556 0.01346 0.06851 0.00069
1581.13000 1.34566 0.01346 0.06868 0.00069
1580.16394 1.34580 0.01346 0.06882 0.00069
1579.19897 1.34598 0.01346 0.06894 0.00069
1578.23401 1.34620 0.01346 0.06905 0.00069
1577.26904 1.34646 0.01346 0.06915 0.00069
1576.30396 1.34675 0.01347 0.06920 0.00069
1575.33899 1.34704 0.01347 0.06915 0.00069
1574.37402 1.34730 0.01347 0.06901 0.00069
1573.40906 1.34751 0.01348 0.06883 0.00069
1572.44397 1.34764 0.01348 0.06865 0.00069
1571.47900 1.34770 0.01348 0.06848 0.00068
1570.51404 1.34771 0.01348 0.06833 0.00068
1569.54797 1.34766 0.01348 0.06821 0.00068
1568.58301 1.34756 0.01348 0.06813 0.00068
1567.61804 1.34744 0.01347 0.06815 0.00068
1566.65295 1.34732 0.01347 0.06829 0.00068
1565.68799 1.34726 0.01347 0.06853 0.00069
1564.72302 1.34728 0.01347 0.06881 0.00069
1563.75806 1.34738 0.01347 0.06911 0.00069
1562.79297 1.34756 0.01348 0.06939 0.00069
1561.82800 1.34783 0.01348 0.06966 0.00070
1560.86304 1.34816 0.01348 0.06990 0.00070
1559.89795 1.34856 0.01349 0.07010 0.00070
1558.93201 1.34901 0.01349 0.07023 0.00070
1557.96704 1.34948 0.01349 0.07026 0.00070
1557.00195 1.34995 0.01350 0.07018 0.00070
1556.03699 1.35040 0.01350 0.07001 0.00070
1555.07202 1.35079 0.01351 0.06978 0.00070
1554.10706 1.35110 0.01351 0.06948 0.00069
1553.14197 1.35131 0.01351 0.06916 0.00069
1552.17700 1.35143 0.01351 0.06884 0.00069
1551.21204 1.35145 0.01351 0.06855 0.00069
1550.24695 1.35140 0.01351 0.06834 0.00068
1549.28198 1.35130 0.01351 0.06822 0.00068
1548.31702 1.35121 0.01351 0.06822 0.00068
1547.35095 1.35115 0.01351 0.06832 0.00068
1546.38599 1.35117 0.01351 0.06850 0.00068
1545.42102 1.35127 0.01351 0.06870 0.00069
1544.45605 1.35148 0.01351 0.06891 0.00069
1543.49097 1.35178 0.01352 0.06907 0.00069
1542.52600 1.35214 0.01352 0.06918 0.00069
1541.56104 1.35255 0.01353 0.06921 0.00069
1540.59595 1.35297 0.01353 0.06916 0.00069
1539.63098 1.35339 0.01353 0.06904 0.00069
1538.66602 1.35379 0.01354 0.06883 0.00069
1537.70105 1.35414 0.01354 0.06854 0.00069
1536.73499 1.35442 0.01354 0.06821 0.00068
1535.77002 1.35463 0.01355 0.06785 0.00068
1534.80505 1.35477 0.01355 0.06748 0.00067
1533.83997 1.35483 0.01355 0.06710 0.00067
1532.87500 1.35480 0.01355 0.06674 0.00067
1531.91003 1.35468 0.01355 0.06643 0.00066
1530.94495 1.35450 0.01354 0.06621 0.00066
1529.97998 1.35431 0.01354 0.06611 0.00066
1529.01501 1.35413 0.01354 0.06613 0.00066
1528.05005 1.35401 0.01354 0.06624 0.00066
1527.08496 1.35398 0.01354 0.06640 0.00066
1526.12000 1.35403 0.01354 0.06656 0.00067
1525.15405 1.35417 0.01354 0.06672 0.00067
1524.18896 1.35439 0.01354 0.06686 0.00067
1523.22400 1.35468 0.01355 0.06693 0.00067
1522.25903 1.35500 0.01355 0.06690 0.00067
1521.29395 1.35529 0.01355 0.06675 0.00067
1520.32898 1.35552 0.01356 0.06651 0.00067
1519.36401 1.35566 0.01356 0.06626 0.00066
1518.39905 1.35573 0.01356 0.06605 0.00066
1517.43396 1.35575 0.01356 0.06587 0.00066
1516.46899 1.35574 0.01356 0.06573 0.00066
1515.50403 1.35571 0.01356 0.06564 0.00066
1514.53796 1.35569 0.01356 0.06559 0.00066
1513.57300 1.35568 0.01356 0.06559 0.00066
1512.60803 1.35570 0.01356 0.06562 0.00066
1511.64294 1.35574 0.01356 0.06567 0.00066
1510.67798 1.35581 0.01356 0.06570 0.00066
1509.71301 1.35589 0.01356 0.06575 0.00066
1508.74805 1.35600 0.01356 0.06581 0.00066
1507.78296 1.35614 0.01356 0.06590 0.00066
1506.81799 1.35631 0.01356 0.06600 0.00066
1505.85303 1.35654 0.01357 0.06609 0.00066
1504.88794 1.35683 0.01357 0.06614 0.00066
1503.92200 1.35714 0.01357 0.06615 0.00066
1502.95703 1.35749 0.01357 0.06610 0.00066
1501.99194 1.35784 0.01358 0.06599 0.00066
1501.02698 1.35818 0.01358 0.06583 0.00066
1500.06201 1.35850 0.01358 0.06559 0.00066
1499.09705 1.35876 0.01359 0.06528 0.00065
1498.13196 1.35896 0.01359 0.06495 0.00065
1497.16699 1.35908 0.01359 0.06464 0.00065
1496.20203 1.35915 0.01359 0.06436 0.00064
1495.23706 1.35920 0.01359 0.06412 0.00064
1494.27197 1.35925 0.01359 0.06391 0.00064
1493.30701 1.35930 0.01359 0.06372 0.00064
1492.34094 1.35937 0.01359 0.06354 0.00064
1491.37598 1.35945 0.01359 0.06336 0.00063
1490.41101 1.35953 0.01360 0.06316 0.00063
1489.44604 1.35960 0.01360 0.06292 0.00063
1488.48096 1.35964 0.01360 0.06264 0.00063
1487.51599 1.35962 0.01360 0.06235 0.00062
1486.55103 1.35954 0.01360 0.06208 0.00062
1485.58606 1.35940 0.01359 0.06186 0.00062
1484.62097 1.35924 0.01359 0.06171 0.00062
1483.65601 1.35908 0.01359 0.06162 0.00062
1482.69104 1.35893 0.01359 0.06158 0.00062
1481.72498 1.35881 0.01359 0.06159 0.00062
1480.76001 1.35872 0.01359 0.06164 0.00062
1479.79504 1.35868 0.01359 0.06172 0.00062
1478.82996 1.35867 0.01359 0.06181 0.00062
1477.86499 1.35871 0.01359 0.06190 0.00062
1476.90002 1.35879 0.01359 0.06199 0.00062
1475.93506 1.35893 0.01359 0.06207 0.00062
1474.96997 1.35911 0.01359 0.06213 0.00062
1474.00500 1.35933 0.01359 0.06214 0.00062
1473.04004 1.35956 0.01360 0.06208 0.00062
1472.07495 1.35978 0.01360 0.06195 0.00062
1471.10901 1.35996 0.01360 0.06177 0.00062
1470.14404 1.36010 0.01360 0.06156 0.00062
1469.17896 1.36018 0.01360 0.06134 0.00061
1468.21399 1.36021 0.01360 0.06113 0.00061
1467.24902 1.36020 0.01360 0.06095 0.00061
1466.28406 1.36016 0.01360 0.06082 0.00061
1465.31897 1.36011 0.01360 0.06074 0.00061
1464.35400 1.36008 0.01360 0.06071 0.00061
1463.38904 1.36008 0.01360 0.06071 0.00061
1462.42395 1.36012 0.01360 0.06072 0.00061
1461.45898 1.36020 0.01360 0.06073 0.00061
1460.49402 1.36030 0.01360 0.06074 0.00061
1459.52795 1.36042 0.01360 0.06072 0.00061
1458.56299 1.36056 0.01361 0.06068 0.00061
1457.59802 1.36071 0.01361 0.06064 0.00061
1456.63306 1.36087 0.01361 0.06059 0.00061
1455.66797 1.36105 0.01361 0.06053 0.00061
1454.70300 1.36123 0.01361 0.06044 0.00060
1453.73804 1.36144 0.01361 0.06033 0.00060
1452.77295 1.36166 0.01362 0.06018 0.00060
1451.80798 1.36187 0.01362 0.05998 0.00060
1450.84302 1.36205 0.01362 0.05974 0.00060
1449.87805 1.36220 0.01362 0.05947 0.00059
1448.91199 1.36230 0.01362 0.05916 0.00059
1447.94702 1.36235 0.01362 0.05886 0.00059
1446.98206 1.36235 0.01362 0.05856 0.00059
1446.01697 1.36231 0.01362 0.05830 0.00058
1445.05200 1.36223 0.01362 0.05809 0.00058
1444.08704 1.36216 0.01362 0.05793 0.00058
1443.12195 1.36209 0.01362 0.05782 0.00058
1442.15698 1.36206 0.01362 0.05773 0.00058
1441.19202 1.36207 0.01362 0.05765 0.00058
1440.22705 1.36211 0.01362 0.05755 0.00058
1439.26196 1.36217 0.01362 0.05743 0.00057
1438.29700 1.36222 0.01362 0.05728 0.00057
1437.33105 1.36227 0.01362 0.05710 0.00057
1436.36597 1.36230 0.01362 0.05690 0.00057
1435.40100 1.36229 0.01362 0.05669 0.00057
1434.43604 1.36226 0.01362 0.05648 0.00056
1433.47095 1.36220 0.01362 0.05629 0.00056
1432.50598 1.36212 0.01362 0.05613 0.00056
1431.54102 1.36203 0.01362 0.05599 0.00056
1430.57605 1.36192 0.01362 0.05588 0.00056
1429.61096 1.36182 0.01362 0.05581 0.00056
1428.64600 1.36173 0.01362 0.05577 0.00056
1427.68103 1.36167 0.01362 0.05576 0.00056
1426.71497 1.36164 0.01362 0.05577 0.00056
1425.75000 1.36164 0.01362 0.05578 0.00056
1424.78503 1.36168 0.01362 0.05579 0.00056
1423.81995 1.36174 0.01362 0.05579 0.00056
1422.85498 1.36182 0.01362 0.05577 0.00056
1421.89001 1.36194 0.01362 0.05576 0.00056
1420.92505 1.36208 0.01362 0.05572 0.00056
1419.95996 1.36225 0.01362 0.05565 0.00056
1418.99500 1.36244 0.01362 0.05554 0.00056
1418.03003 1.36263 0.01363 0.05538 0.00055
1417.06494 1.36281 0.01363 0.05517 0.00055
1416.09900 1.36298 0.01363 0.05493 0.00055
1415.13403 1.36312 0.01363 0.05464 0.00055
1414.16895 1.36323 0.01363 0.05432 0.00054
1413.20398 1.36329 0.01363 0.05396 0.00054
1412.23901 1.36330 0.01363 0.05356 0.00054
1411.27405 1.36323 0.01363 0.05317 0.00053
1410.30896 1.36310 0.01363 0.05279 0.00053
1409.34399 1.36290 0.01363 0.05245 0.00052
1408.37903 1.36266 0.01363 0.05216 0.00052
1407.41394 1.36239 0.01362 0.05193 0.00052
1406.44897 1.36209 0.01362 0.05177 0.00052
1405.48401 1.36179 0.01362 0.05168 0.00052
1404.51794 1.36151 0.01362 0.05165 0.00052
1403.55298 1.36126 0.01361 0.05168 0.00052
1402.58801 1.36105 0.01361 0.05176 0.00052
1401.62305 1.36090 0.01361 0.05188 0.00052
1400.65796 1.36080 0.01361 0.05201 0.00052
1399.69299 1.36077 0.01361 0.05214 0.00052
1398.72803 1.36080 0.01361 0.05226 0.00052
1397.76294 1.36087 0.01361 0.05237 0.00052
1396.79797 1.36100 0.01361 0.05244 0.00052
1395.83301 1.36116 0.01361 0.05246 0.00052
1394.86804 1.36134 0.01361 0.05242 0.00052
1393.90198 1.36152 0.01362 0.05233 0.00052
1392.93701 1.36168 0.01362 0.05217 0.00052
1391.97205 1.36181 0.01362 0.05198 0.00052
1391.00696 1.36191 0.01362 0.05177 0.00052
1390.04199 1.36197 0.01362 0.05154 0.00052
1389.07703 1.36200 0.01362 0.05130 0.00051
1388.11206 1.36199 0.01362 0.05107 0.00051
1387.14697 1.36197 0.01362 0.05086 0.00051
1386.18201 1.36193 0.01362 0.05067 0.00051
1385.21704 1.36189 0.01362 0.05048 0.00050
1384.25195 1.36183 0.01362 0.05030 0.00050
1383.28601 1.36177 0.01362 0.05013 0.00050
1382.32104 1.36171 0.01362 0.04997 0.00050
1381.35596 1.36164 0.01362 0.04982 0.00050
1380.39099 1.36158 0.01362 0.04967 0.00050
1379.42603 1.36151 0.01362 0.04951 0.00050
1378.46106 1.36143 0.01361 0.04937 0.00049
1377.49597 1.36134 0.01361 0.04924 0.00049
1376.53101 1.36126 0.01361 0.04915 0.00049
1375.56604 1.36121 0.01361 0.04907 0.00049
1374.60095 1.36118 0.01361 0.04899 0.00049
1373.63599 1.36117 0.01361 0.04890 0.00049
1372.67102 1.36117 0.01361 0.04877 0.00049
1371.70496 1.36119 0.01361 0.04862 0.00049
1370.73999 1.36119 0.01361 0.04844 0.00048
1369.77502 1.36117 0.01361 0.04825 0.00048
1368.81006 1.36112 0.01361 0.04804 0.00048
1367.84497 1.36104 0.01361 0.04783 0.00048
1366.88000 1.36093 0.01361 0.04762 0.00048
1365.91504 1.36080 0.01361 0.04745 0.00047
1364.94995 1.36067 0.01361 0.04732 0.00047
1363.98499 1.36055 0.01361 0.04723 0.00047
1363.02002 1.36047 0.01360 0.04714 0.00047
1362.05505 1.36041 0.01360 0.04703 0.00047
1361.08899 1.36036 0.01360 0.04690 0.00047
1360.12402 1.36031 0.01360 0.04674 0.00047
1359.15906 1.36024 0.01360 0.04656 0.00047
1358.19397 1.36015 0.01360 0.04637 0.00046
1357.22900 1.36002 0.01360 0.04618 0.00046
1356.26404 1.35986 0.01360 0.04600 0.00046
1355.29895 1.35967 0.01360 0.04587 0.00046
1354.33398 1.35949 0.01359 0.04578 0.00046
1353.36902 1.35934 0.01359 0.04575 0.00046
1352.40405 1.35922 0.01359 0.04574 0.00046
1351.43896 1.35915 0.01359 0.04573 0.00046
1350.47400 1.35912 0.01359 0.04568 0.00046
1349.50806 1.35911 0.01359 0.04559 0.00046
1348.54297 1.35910 0.01359 0.04546 0.00045
1347.57800 1.35907 0.01359 0.04530 0.00045
1346.61304 1.35901 0.01359 0.04510 0.00045
1345.64795 1.35891 0.01359 0.04489 0.00045
1344.68298 1.35878 0.01359 0.04469 0.00045
1343.71802 1.35861 0.01359 0.04454 0.00045
1342.75305 1.35843 0.01358 0.04443 0.00044
1341.78796 1.35827 0.01358 0.04436 0.00044
1340.82300 1.35815 0.01358 0.04431 0.00044
1339.85803 1.35806 0.01358 0.04425 0.00044
1338.89197 1.35799 0.01358 0.04416 0.00044
1337.92700 1.35793 0.01358 0.04404 0.00044
1336.96204 1.35787 0.01358 0.04389 0.00044
1335.99695 1.35779 0.01358 0.04371 0.00044
1335.03198 1.35767 0.01358 0.04351 0.00044
1334.06702 1.35752 0.01358 0.04331 0.00043
1333.10205 1.35733 0.01357 0.04313 0.00043
1332.13696 1.35713 0.01357 0.04297 0.00043
1331.17200 1.35690 0.01357 0.04285 0.00043
1330.20703 1.35667 0.01357 0.04275 0.00043
1329.24194 1.35645 0.01356 0.04269 0.00043
1328.27600 1.35624 0.01356 0.04263 0.00043
1327.31104 1.35604 0.01356 0.04260 0.00043
1326.34595 1.35585 0.01356 0.04256 0.00043
1325.38098 1.35568 0.01356 0.04253 0.00043
1324.41602 1.35551 0.01356 0.04251 0.00043
1323.45105 1.35534 0.01355 0.04249 0.00042
1322.48596 1.35517 0.01355 0.04248 0.00042
1321.52100 1.35502 0.01355 0.04248 0.00042
1320.55603 1.35489 0.01355 0.04250 0.00043
1319.59094 1.35477 0.01355 0.04253 0.00043
1318.62598 1.35469 0.01355 0.04256 0.00043
1317.66101 1.35464 0.01355 0.04257 0.00043
1316.69495 1.35462 0.01355 0.04256 0.00043
1315.72998 1.35460 0.01355 0.04250 0.00043
1314.76501 1.35459 0.01355 0.04240 0.00042
1313.80005 1.35456 0.01355 0.04226 0.00042
1312.83496 1.35450 0.01354 0.04208 0.00042
1311.87000 1.35438 0.01354 0.04188 0.00042
1310.90503 1.35421 0.01354 0.04168 0.00042
1309.93994 1.35399 0.01354 0.04150 0.00041
1308.97498 1.35373 0.01354 0.04138 0.00041
1308.01001 1.35345 0.01353 0.04132 0.00041
1307.04504 1.35319 0.01353 0.04132 0.00041
1306.07898 1.35296 0.01353 0.04138 0.00041
1305.11401 1.35277 0.01353 0.04145 0.00041
1304.14905 1.35264 0.01353 0.04153 0.00042
1303.18396 1.35255 0.01353 0.04159 0.00042
1302.21899 1.35249 0.01352 0.04163 0.00042
1301.25403 1.35244 0.01352 0.04162 0.00042
1300.28894 1.35239 0.01352 0.04159 0.00042
1299.32397 1.35234 0.01352 0.04154 0.00042
1298.35901 1.35228 0.01352 0.04147 0.00041
1297.39404 1.35221 0.01352 0.04140 0.00041
1296.42896 1.35212 0.01352 0.04132 0.00041
1295.46301 1.35203 0.01352 0.04123 0.00041
1294.49805 1.35192 0.01352 0.04113 0.00041
1293.53296 1.35180 0.01352 0.04104 0.00041
1292.56799 1.35167 0.01352 0.04095 0.00041
1291.60303 1.35153 0.01352 0.04086 0.00041
1290.63794 1.35139 0.01351 0.04078 0.00041
1289.67297 1.35123 0.01351 0.04071 0.00041
1288.70801 1.35105 0.01351 0.04066 0.00041
1287.74304 1.35089 0.01351 0.04063 0.00041
1286.77795 1.35074 0.01351 0.04062 0.00041
1285.81299 1.35061 0.01351 0.04064 0.00041
1284.84802 1.35051 0.01351 0.04066 0.00041
1283.88196 1.35043 0.01350 0.04065 0.00041
1282.91699 1.35038 0.01350 0.04062 0.00041
1281.95203 1.35033 0.01350 0.04056 0.00041
1280.98706 1.35028 0.01350 0.04047 0.00040
1280.02197 1.35022 0.01350 0.04036 0.00040
1279.05701 1.35014 0.01350 0.04024 0.00040
1278.09204 1.35004 0.01350 0.04012 0.00040
1277.12695 1.34991 0.01350 0.03999 0.00040
1276.16199 1.34978 0.01350 0.03987 0.00040
1275.19702 1.34964 0.01350 0.03974 0.00040
1274.23206 1.34949 0.01349 0.03961 0.00040
1273.26599 1.34932 0.01349 0.03948 0.00039
1272.30103 1.34914 0.01349 0.03935 0.00039
1271.33606 1.34895 0.01349 0.03923 0.00039
1270.37097 1.34873 0.01349 0.03912 0.00039
1269.40601 1.34850 0.01348 0.03903 0.00039
1268.44104 1.34826 0.01348 0.03896 0.00039
1267.47595 1.34803 0.01348 0.03892 0.00039
1266.51099 1.34780 0.01348 0.03890 0.00039
1265.54602 1.34758 0.01348 0.03890 0.00039
1264.58105 1.34739 0.01347 0.03892 0.00039
1263.61597 1.34723 0.01347 0.03894 0.00039
1262.65100 1.34709 0.01347 0.03893 0.00039
1261.68506 1.34695 0.01347 0.03891 0.00039
1260.71997 1.34681 0.01347 0.03888 0.00039
1259.75500 1.34667 0.01347 0.03885 0.00039
1258.79004 1.34653 0.01347 0.03881 0.00039
1257.82495 1.34639 0.01346 0.03876 0.00039
1256.85999 1.34624 0.01346 0.03871 0.00039
1255.89502 1.34609 0.01346 0.03865 0.00039
1254.93005 1.34594 0.01346 0.03859 0.00039
1253.96497 1.34578 0.01346 0.03852 0.00039
1253.00000 1.34561 0.01346 0.03845 0.00038
1252.03503 1.34543 0.01345 0.03837 0.00038
1251.06897 1.34524 0.01345 0.03830 0.00038
1250.10400 1.34503 0.01345 0.03823 0.00038
1249.13904 1.34480 0.01345 0.03819 0.00038
1248.17395 1.34458 0.01345 0.03816 0.00038
1247.20898 1.34436 0.01344 0.03816 0.00038
1246.24402 1.34416 0.01344 0.03816 0.00038
1245.27905 1.34397 0.01344 0.03818 0.00038
1244.31396 1.34381 0.01344 0.03820 0.00038
1243.34900 1.34367 0.01344 0.03822 0.00038
1242.38403 1.34355 0.01344 0.03822 0.00038
1241.41895 1.34344 0.01343 0.03818 0.00038
1240.45300 1.34332 0.01343 0.03811 0.00038
1239.48804 1.34318 0.01343 0.03800 0.00038
1238.52295 1.34300 0.01343 0.03789 0.00038
1237.55798 1.34279 0.01343 0.03779 0.00038
1236.59302 1.34256 0.01343 0.03770 0.00038
1235.62805 1.34230 0.01342 0.03763 0.00038
1234.66296 1.34203 0.01342 0.03757 0.00038
1233.69800 1.34176 0.01342 0.03755 0.00038
1232.73303 1.34149 0.01341 0.03754 0.00038
1231.76794 1.34123 0.01341 0.03757 0.00038
1230.80298 1.34097 0.01341 0.03760 0.00038
1229.83801 1.34073 0.01341 0.03765 0.00038
1228.87195 1.34050 0.01340 0.03771 0.00038
1227.90698 1.34027 0.01340 0.03777 0.00038
1226.94202 1.34005 0.01340 0.03785 0.00038
1225.97705 1.33985 0.01340 0.03794 0.00038
1225.01196 1.33968 0.01340 0.03806 0.00038
1224.04700 1.33955 0.01340 0.03817 0.00038
1223.08203 1.33944 0.01339 0.03827 0.00038
1222.11694 1.33936 0.01339 0.03835 0.00038
1221.15198 1.33931 0.01339 0.03840 0.00038
1220.18701 1.33926 0.01339 0.03842 0.00038
1219.22205 1.33922 0.01339 0.03840 0.00038
1218.25598 1.33917 0.01339 0.03834 0.00038
1217.29102 1.33909 0.01339 0.03825 0.00038
1216.32605 1.33897 0.01339 0.03814 0.00038
1215.36096 1.33882 0.01339 0.03803 0.00038
1214.39600 1.33866 0.01339 0.03796 0.00038
1213.43103 1.33850 0.01338 0.03791 0.00038
1212.46594 1.33836 0.01338 0.03785 0.00038
1211.50098 1.33821 0.01338 0.03778 0.00038
1210.53601 1.33807 0.01338 0.03769 0.00038
1209.57104 1.33792 0.01338 0.03757 0.00038
1208.60596 1.33775 0.01338 0.03743 0.00037
1207.64001 1.33756 0.01338 0.03729 0.00037
1206.67505 1.33733 0.01337 0.03713 0.00037
1205.70996 1.33706 0.01337 0.03697 0.00037
1204.74500 1.33674 0.01337 0.03681 0.00037
1203.78003 1.33638 0.01336 0.03669 0.00037
1202.81494 1.33600 0.01336 0.03663 0.00037
1201.84998 1.33560 0.01336 0.03663 0.00037
1200.88501 1.33521 0.01335 0.03668 0.00037
1199.92004 1.33485 0.01335 0.03678 0.00037
1198.95496 1.33453 0.01335 0.03692 0.00037
1197.98999 1.33427 0.01334 0.03708 0.00037
1197.02502 1.33406 0.01334 0.03725 0.00037
1196.05896 1.33390 0.01334 0.03740 0.00037
1195.09399 1.33379 0.01334 0.03752 0.00038
1194.12903 1.33371 0.01334 0.03759 0.00038
1193.16394 1.33363 0.01334 0.03762 0.00038
1192.19897 1.33356 0.01334 0.03761 0.00038
1191.23401 1.33350 0.01333 0.03757 0.00038
1190.26904 1.33341 0.01333 0.03748 0.00037
1189.30396 1.33330 0.01333 0.03734 0.00037
1188.33899 1.33314 0.01333 0.03715 0.00037
1187.37402 1.33292 0.01333 0.03694 0.00037
1186.40906 1.33264 0.01333 0.03673 0.00037
1185.44299 1.33230 0.01332 0.03656 0.00037
1184.47803 1.33191 0.01332 0.03642 0.00036
1183.51294 1.33149 0.01331 0.03632 0.00036
1182.54797 1.33104 0.01331 0.03627 0.00036
1181.58301 1.33057 0.01331 0.03627 0.00036
1180.61804 1.33010 0.01330 0.03634 0.00036
1179.65295 1.32967 0.01330 0.03648 0.00036
1178.68799 1.32927 0.01329 0.03666 0.00037
1177.72302 1.32892 0.01329 0.03686 0.00037
1176.75806 1.32861 0.01329 0.03708 0.00037
1175.79297 1.32835 0.01328 0.03730 0.00037
1174.82800 1.32813 0.01328 0.03753 0.00038
1173.86206 1.32796 0.01328 0.03776 0.00038
1172.89697 1.32785 0.01328 0.03797 0.00038
1171.93201 1.32778 0.01328 0.03813 0.00038
1170.96704 1.32774 0.01328 0.03824 0.00038
1170.00195 1.32770 0.01328 0.03828 0.00038
1169.03699 1.32766 0.01328 0.03827 0.00038
1168.07202 1.32760 0.01328 0.03822 0.00038
1167.10706 1.32752 0.01328 0.03812 0.00038
1166.14197 1.32738 0.01327 0.03798 0.00038
1165.17700 1.32719 0.01327 0.03781 0.00038
1164.21204 1.32694 0.01327 0.03766 0.00038
1163.24597 1.32665 0.01327 0.03753 0.00038
1162.28101 1.32633 0.01326 0.03744 0.00037
1161.31604 1.32600 0.01326 0.03736 0.00037
1160.35095 1.32566 0.01326 0.03730 0.00037
1159.38599 1.32532 0.01325 0.03725 0.00037
1158.42102 1.32497 0.01325 0.03722 0.00037
1157.45605 1.32462 0.01325 0.03721 0.00037
1156.49097 1.32427 0.01324 0.03718 0.00037
1155.52600 1.32390 0.01324 0.03715 0.00037
1154.56104 1.32350 0.01323 0.03709 0.00037
1153.59595 1.32305 0.01323 0.03705 0.00037
1152.63000 1.32256 0.01323 0.03707 0.00037
1151.66504 1.32205 0.01322 0.03714 0.00037
1150.69995 1.32154 0.01322 0.03728 0.00037
1149.73499 1.32104 0.01321 0.03749 0.00037
1148.77002 1.32058 0.01321 0.03774 0.00038
1147.80505 1.32017 0.01320 0.03803 0.00038
1146.83997 1.31981 0.01320 0.03835 0.00038
1145.87500 1.31950 0.01319 0.03867 0.00039
1144.91003 1.31925 0.01319 0.03898 0.00039
1143.94495 1.31903 0.01319 0.03925 0.00039
1142.97998 1.31882 0.01319 0.03949 0.00039
1142.01501 1.31861 0.01319 0.03971 0.00040
1141.04895 1.31840 0.01318 0.03993 0.00040
1140.08398 1.31819 0.01318 0.04017 0.00040
1139.11902 1.31799 0.01318 0.04042 0.00040
1138.15405 1.31782 0.01318 0.04068 0.00041
1137.18896 1.31769 0.01318 0.04094 0.00041
1136.22400 1.31759 0.01318 0.04119 0.00041
1135.25903 1.31753 0.01318 0.04141 0.00041
1134.29395 1.31749 0.01317 0.04160 0.00042
1133.32898 1.31747 0.01317 0.04175 0.00042
1132.36401 1.31746 0.01317 0.04185 0.00042
1131.39905 1.31742 0.01317 0.04190 0.00042
1130.43298 1.31736 0.01317 0.04191 0.00042
1129.46802 1.31726 0.01317 0.04191 0.00042
1128.50305 1.31714 0.01317 0.04191 0.00042
1127.53796 1.31700 0.01317 0.04193 0.00042
1126.57300 1.31687 0.01317 0.04197 0.00042
1125.60803 1.31675 0.01317 0.04200 0.00042
1124.64294 1.31664 0.01317 0.04202 0.00042
1123.67798 1.31654 0.01317 0.04200 0.00042
1122.71301 1.31643 0.01316 0.04194 0.00042
1121.74805 1.31628 0.01316 0.04185 0.00042
1120.78296 1.31610 0.01316 0.04173 0.00042
1119.81702 1.31587 0.01316 0.04161 0.00042
1118.85205 1.31558 0.01316 0.04150 0.00041
1117.88696 1.31524 0.01315 0.04141 0.00041
1116.92200 1.31486 0.01315 0.04137 0.00041
1115.95703 1.31447 0.01314 0.04142 0.00041
1114.99194 1.31410 0.01314 0.04154 0.00042
1114.02698 1.31377 0.01314 0.04170 0.00042
1113.06201 1.31350 0.01314 0.04189 0.00042
1112.09705 1.31327 0.01313 0.04206 0.00042
1111.13196 1.31309 0.01313 0.04223 0.00042
1110.16699 1.31294 0.01313 0.04238 0.00042
1109.20203 1.31281 0.01313 0.04250 0.00043
1108.23596 1.31270 0.01313 0.04259 0.00043
1107.27100 1.31261 0.01313 0.04265 0.00043
1106.30603 1.31251 0.01313 0.04268 0.00043
1105.34094 1.31241 0.01312 0.04270 0.00043
1104.37598 1.31231 0.01312 0.04273 0.00043
1103.41101 1.31222 0.01312 0.04273 0.00043
1102.44604 1.31215 0.01312 0.04270 0.00043
1101.48096 1.31209 0.01312 0.04264 0.00043
1100.51599 1.31201 0.01312 0.04253 0.00043
1099.55103 1.31192 0.01312 0.04239 0.00042
1098.58606 1.31181 0.01312 0.04223 0.00042
1097.62000 1.31168 0.01312 0.04204 0.00042
1096.65503 1.31152 0.01312 0.04181 0.00042
1095.68994 1.31131 0.01311 0.04156 0.00042
1094.72498 1.31106 0.01311 0.04130 0.00041
1093.76001 1.31075 0.01311 0.04104 0.00041
1092.79504 1.31042 0.01310 0.04082 0.00041
1091.82996 1.31006 0.01310 0.04063 0.00041
1090.86499 1.30970 0.01310 0.04045 0.00040
1089.90002 1.30933 0.01309 0.04029 0.00040
1088.93506 1.30895 0.01309 0.04014 0.00040
1087.96997 1.30856 0.01309 0.03999 0.00040
1087.00500 1.30818 0.01308 0.03984 0.00040
1086.03894 1.30778 0.01308 0.03968 0.00040
1085.07397 1.30734 0.01307 0.03952 0.00040
1084.10901 1.30688 0.01307 0.03937 0.00039
1083.14404 1.30640 0.01306 0.03926 0.00039
1082.17896 1.30591 0.01306 0.03920 0.00039
1081.21399 1.30542 0.01305 0.03919 0.00039
1080.24902 1.30496 0.01305 0.03923 0.00039
1079.28406 1.30454 0.01305 0.03929 0.00039
1078.31897 1.30418 0.01304 0.03936 0.00039
1077.35400 1.30388 0.01304 0.03944 0.00039
1076.38904 1.30362 0.01304 0.03949 0.00039
1075.42297 1.30342 0.01303 0.03951 0.00040
1074.45801 1.30326 0.01303 0.03946 0.00039
1073.49304 1.30311 0.01303 0.03934 0.00039
1072.52795 1.30295 0.01303 0.03915 0.00039
1071.56299 1.30277 0.01303 0.03890 0.00039
1070.59802 1.30257 0.01303 0.03861 0.00039
1069.63306 1.30234 0.01302 0.03828 0.00038
1068.66797 1.30208 0.01302 0.03792 0.00038
1067.70300 1.30178 0.01302 0.03750 0.00038
1066.73804 1.30142 0.01301 0.03705 0.00037
1065.77295 1.30101 0.01301 0.03659 0.00037
1064.80701 1.30056 0.01301 0.03613 0.00036
1063.84204 1.30008 0.01300 0.03567 0.00036
1062.87695 1.29957 0.01300 0.03519 0.00035
1061.91199 1.29904 0.01299 0.03470 0.00035
1060.94702 1.29846 0.01298 0.03418 0.00034
1059.98206 1.29784 0.01298 0.03365 0.00034
1059.01697 1.29717 0.01297 0.03309 0.00033
1058.05200 1.29643 0.01296 0.03252 0.00033
1057.08704 1.29561 0.01296 0.03193 0.00032
1056.12195 1.29471 0.01295 0.03134 0.00031
1055.15698 1.29372 0.01294 0.03079 0.00031
1054.19202 1.29266 0.01293 0.03031 0.00030
1053.22595 1.29156 0.01292 0.02990 0.00030
1052.26099 1.29045 0.01290 0.02958 0.00030
1051.29602 1.28932 0.01289 0.02930 0.00029
1050.33105 1.28820 0.01288 0.02903 0.00029
1049.36597 1.28706 0.01287 0.02877 0.00029
1048.40100 1.28589 0.01286 0.02854 0.00029
1047.43604 1.28469 0.01285 0.02835 0.00028
1046.47095 1.28346 0.01283 0.02820 0.00028
1045.50598 1.28219 0.01282 0.02810 0.00028
1044.54102 1.28092 0.01281 0.02805 0.00028
1043.57605 1.27965 0.01280 0.02807 0.00028
1042.60999 1.27840 0.01278 0.02819 0.00028
1041.64502 1.27721 0.01277 0.02836 0.00028
1040.68005 1.27610 0.01276 0.02856 0.00029
1039.71497 1.27507 0.01275 0.02874 0.00029
1038.75000 1.27409 0.01274 0.02883 0.00029
1037.78503 1.27312 0.01273 0.02884 0.00029
1036.81995 1.27211 0.01272 0.02876 0.00029
1035.85498 1.27102 0.01271 0.02862 0.00029
1034.89001 1.26983 0.01270 0.02844 0.00028
1033.92505 1.26852 0.01269 0.02828 0.00028
1032.95996 1.26711 0.01267 0.02817 0.00028
1031.99500 1.26562 0.01266 0.02817 0.00028
1031.02905 1.26409 0.01264 0.02829 0.00028
1030.06396 1.26256 0.01263 0.02852 0.00029
1029.09900 1.26108 0.01261 0.02883 0.00029
1028.13403 1.25965 0.01260 0.02920 0.00029
1027.16895 1.25826 0.01258 0.02958 0.00030
1026.20398 1.25691 0.01257 0.02998 0.00030
1025.23901 1.25558 0.01256 0.03037 0.00030
1024.27405 1.25427 0.01254 0.03075 0.00031
1023.30902 1.25294 0.01253 0.03112 0.00031
1022.34399 1.25161 0.01252 0.03150 0.00032
1021.37799 1.25027 0.01250 0.03191 0.00032
1020.41302 1.24894 0.01249 0.03235 0.00032
1019.44800 1.24764 0.01248 0.03281 0.00033
1018.48297 1.24636 0.01246 0.03325 0.00033
1017.51801 1.24507 0.01245 0.03364 0.00034
1016.55298 1.24377 0.01244 0.03400 0.00034
1015.58801 1.24244 0.01242 0.03435 0.00034
1014.62201 1.24106 0.01241 0.03469 0.00035
1013.65698 1.23964 0.01240 0.03505 0.00035
1012.69202 1.23817 0.01238 0.03541 0.00035
1011.72699 1.23664 0.01237 0.03577 0.00036
1010.76202 1.23506 0.01235 0.03618 0.00036
1009.79700 1.23344 0.01233 0.03665 0.00037
1008.83099 1.23180 0.01232 0.03718 0.00037
1007.86603 1.23016 0.01230 0.03778 0.00038
1006.90100 1.22852 0.01229 0.03841 0.00038
1005.93597 1.22687 0.01227 0.03904 0.00039
1004.97101 1.22522 0.01225 0.03971 0.00040
1004.00598 1.22356 0.01224 0.04042 0.00040
1003.04102 1.22188 0.01222 0.04117 0.00041
1002.07501 1.22021 0.01220 0.04194 0.00042
1001.10999 1.21852 0.01219 0.04273 0.00043
1000.14502 1.21681 0.01217 0.04354 0.00044
 999.17999 1.21509 0.01215 0.04438 0.00044
 998.21503 1.21335 0.01213 0.04529 0.00045
 997.25000 1.21162 0.01212 0.04625 0.00046
 996.28497 1.20989 0.01210 0.04724 0.00047
 995.31897 1.20818 0.01208 0.04825 0.00048
 994.35400 1.20647 0.01206 0.04927 0.00049
 993.38898 1.20477 0.01205 0.05031 0.00050
 992.42401 1.20306 0.01203 0.05138 0.00051
 991.45898 1.20136 0.01201 0.05247 0.00052
 990.49402 1.19966 0.01200 0.05357 0.00054
 989.52802 1.19793 0.01198 0.05465 0.00055
 988.56299 1.19618 0.01196 0.05571 0.00056
 987.59802 1.19438 0.01194 0.05678 0.00057
 986.63300 1.19253 0.01193 0.05789 0.00058
 985.66803 1.19062 0.01191 0.05904 0.00059
 984.70300 1.18866 0.01189 0.06024 0.00060
 983.73798 1.18665 0.01187 0.06151 0.00062
 982.77197 1.18462 0.01185 0.06282 0.00063
 981.80701 1.18255 0.01183 0.06421 0.00064
 980.84198 1.18046 0.01180 0.06569 0.00066
 979.87701 1.17836 0.01178 0.06724 0.00067
 978.91199 1.17627 0.01176 0.06886 0.00069
 977.94702 1.17417 0.01174 0.07054 0.00071
 976.98199 1.17207 0.01172 0.07228 0.00072
 976.01599 1.16995 0.01170 0.07407 0.00074
 975.05103 1.16781 0.01168 0.07592 0.00076
 974.08600 1.16567 0.01166 0.07786 0.00078
 973.12097 1.16352 0.01164 0.07989 0.00080
 972.15601 1.16138 0.01161 0.08201 0.00082
 971.19098 1.15927 0.01159 0.08421 0.00084
 970.22601 1.15718 0.01157 0.08646 0.00086
 969.26001 1.15511 0.01155 0.08877 0.00089
 968.29498 1.15304 0.01153 0.09113 0.00091
 967.33002 1.15097 0.01151 0.09356 0.00094
 966.36499 1.14891 0.01149 0.09606 0.00096
 965.40002 1.14685 0.01147 0.09863 0.00099
 964.43500 1.14480 0.01145 0.10128 0.00101
 963.46899 1.14274 0.01143 0.10399 0.00104
 962.50403 1.14068 0.01141 0.10679 0.00107
 961.53900 1.13861 0.01139 0.10970 0.00110
 960.57397 1.13656 0.01137 0.11273 0.00113
 959.60901 1.13456 0.01135 0.11593 0.00116
 958.64398 1.13262 0.01133 0.11922 0.00119
 957.67902 1.13073 0.01131 0.12257 0.00123
 956.71301 1.12890 0.01129 0.12602 0.00126
 955.74799 1.12712 0.01127 0.12955 0.00130
 954.78302 1.12539 0.01125 0.13319 0.00133
 953.81799 1.12373 0.01124 0.13697 0.00137
 952.85303 1.12214 0.01122 0.14085 0.00141
 951.88800 1.12065 0.01121 0.14480 0.00145
 950.92297 1.11925 0.01119 0.14885 0.00149
 949.95697 1.11793 0.01118 0.15302 0.00153
 948.99200 1.11674 0.01117 0.15728 0.00157
 948.02698 1.11569 0.01116 0.16165 0.00162
 947.06201 1.11479 0.01115 0.16608 0.00166
 946.09698 1.11404 0.01114 0.17054 0.00171
 945.13202 1.11344 0.01113 0.17502 0.00175
 944.16602 1.11296 0.01113 0.17950 0.00179
 943.20099 1.11261 0.01113 0.18397 0.00184
 942.23602 1.11236 0.01112 0.18846 0.00188
 941.27100 1.11219 0.01112 0.19293 0.00193
 940.30603 1.11211 0.01112 0.19738 0.00197
 939.34100 1.11208 0.01112 0.20184 0.00202
 938.37598 1.11210 0.01112 0.20633 0.00206
 937.40997 1.11222 0.01112 0.21088 0.00211
 936.44501 1.11244 0.01112 0.21553 0.00216
 935.47998 1.11279 0.01113 0.22020 0.00220
 934.51501 1.11327 0.01113 0.22487 0.00225
 933.54999 1.11388 0.01114 0.22954 0.00230
 932.58502 1.11462 0.01115 0.23420 0.00234
 931.62000 1.11547 0.01115 0.23885 0.00239
 930.65399 1.11641 0.01116 0.24349 0.00243
 929.68903 1.11746 0.01117 0.24810 0.00248
 928.72400 1.11861 0.01119 0.25271 0.00253
 927.75897 1.11985 0.01120 0.25731 0.00257
 926.79401 1.12119 0.01121 0.26192 0.00262
 925.82898 1.12265 0.01123 0.26654 0.00267
 924.86401 1.12425 0.01124 0.27117 0.00271
 923.89801 1.12599 0.01126 0.27576 0.00276
 922.93298 1.12787 0.01128 0.28030 0.00280
 921.96802 1.12987 0.01130 0.28476 0.00285
 921.00299 1.13197 0.01132 0.28912 0.00289
 920.03802 1.13415 0.01134 0.29344 0.00293
 919.07300 1.13640 0.01136 0.29773 0.00298
 918.10699 1.13875 0.01139 0.30197 0.00302
 917.14203 1.14120 0.01141 0.30616 0.00306
 916.17700 1.14375 0.01144 0.31029 0.00310
 915.21198 1.14638 0.01146 0.31438 0.00314
 914.24701 1.14912 0.01149 0.31840 0.00318
 913.28198 1.15196 0.01152 0.32235 0.00322
 912.31702 1.15491 0.01155 0.32623 0.00326
 911.35101 1.15795 0.01158 0.32999 0.00330
 910.38599 1.16106 0.01161 0.33366 0.00334
 909.42102 1.16425 0.01164 0.33721 0.00337
 908.45599 1.16748 0.01167 0.34066 0.00341
 907.49103 1.17075 0.01171 0.34402 0.00344
 906.52600 1.17406 0.01174 0.34729 0.00347
 905.56097 1.17742 0.01177 0.35048 0.00350
 904.59497 1.18080 0.01181 0.35356 0.00354
 903.63000 1.18419 0.01184 0.35653 0.00357
 902.66498 1.18760 0.01188 0.35944 0.00359
 901.70001 1.19102 0.01191 0.36231 0.00362
 900.73499 1.19447 0.01194 0.36510 0.00365
 899.77002 1.19795 0.01198 0.36784 0.00368
 898.80402 1.20145 0.01201 0.37051 0.00371
 897.83899 1.20499 0.01205 0.37310 0.00373
 896.87402 1.20856 0.01209 0.37562 0.00376
 895.90900 1.21215 0.01212 0.37809 0.00378
 894.94397 1.21577 0.01216 0.38048 0.00380
 893.97900 1.21942 0.01219 0.38275 0.00383
 893.01398 1.22305 0.01223 0.38493 0.00385
 892.04797 1.22665 0.01227 0.38702 0.00387
 891.08301 1.23022 0.01230 0.38905 0.00389
 890.11798 1.23376 0.01234 0.39105 0.00391
 889.15302 1.23728 0.01237 0.39305 0.00393
 888.18799 1.24080 0.01241 0.39505 0.00395
 887.22302 1.24435 0.01244 0.39703 0.00397
 886.25800 1.24795 0.01248 0.39899 0.00399
 885.29199 1.25161 0.01252 0.40093 0.00401
 884.32703 1.25534 0.01255 0.40282 0.00403
 883.36200 1.25910 0.01259 0.40460 0.00405
 882.39697 1.26288 0.01263 0.40624 0.00406
 881.43201 1.26663 0.01267 0.40779 0.00408
 880.46698 1.27032 0.01270 0.40925 0.00409
 879.50201 1.27398 0.01274 0.41070 0.00411
 878.53601 1.27761 0.01278 0.41219 0.00412
 877.57098 1.28126 0.01281 0.41367 0.00414
 876.60602 1.28493 0.01285 0.41514 0.00415
 875.64099 1.28866 0.01289 0.41659 0.00417
 874.67603 1.29245 0.01292 0.41799 0.00418
 873.71100 1.29629 0.01296 0.41934 0.00419
 872.74500 1.30019 0.01300 0.42060 0.00421
 871.78003 1.30409 0.01304 0.42174 0.00422
 870.81500 1.30800 0.01308 0.42273 0.00423
 869.84998 1.31184 0.01312 0.42364 0.00424
 868.88501 1.31559 0.01316 0.42449 0.00424
 867.91998 1.31932 0.01319 0.42534 0.00425
 866.95502 1.32303 0.01323 0.42622 0.00426
 865.98901 1.32673 0.01327 0.42708 0.00427
 865.02399 1.33044 0.01330 0.42788 0.00428
 864.05902 1.33417 0.01334 0.42866 0.00429
 863.09399 1.33792 0.01338 0.42941 0.00429
 862.12903 1.34168 0.01342 0.43011 0.00430
 861.16400 1.34544 0.01345 0.43076 0.00431
 860.19897 1.34918 0.01349 0.43132 0.00431
 859.23297 1.35289 0.01353 0.43178 0.00432
 858.26801 1.35653 0.01357 0.43221 0.00432
 857.30298 1.36006 0.01360 0.43263 0.00433
 856.33801 1.36357 0.01364 0.43309 0.00433
 855.37299 1.36707 0.01367 0.43365 0.00434
 854.40802 1.37057 0.01371 0.43423 0.00434
 853.44202 1.37411 0.01374 0.43482 0.00435
 852.47699 1.37769 0.01378 0.43545 0.00435
 851.51202 1.38135 0.01381 0.43611 0.00436
 850.54700 1.38507 0.01385 0.43676 0.00437
 849.58197 1.38889 0.01389 0.43739 0.00437
 848.61700 1.39278 0.01393 0.43797 0.00438
 847.65198 1.39675 0.01397 0.43845 0.00438
 846.68597 1.40076 0.01401 0.43887 0.00439
 845.72101 1.40481 0.01405 0.43923 0.00439
 844.75598 1.40890 0.01409 0.43951 0.00440
 843.79102 1.41305 0.01413 0.43972 0.00440
 842.82599 1.41720 0.01417 0.43982 0.00440
 841.86102 1.42134 0.01421 0.43979 0.00440
 840.89600 1.42547 0.01425 0.43969 0.00440
 839.92999 1.42960 0.01430 0.43956 0.00440
 838.96503 1.43373 0.01434 0.43937 0.00439
 838.00000 1.43785 0.01438 0.43914 0.00439
 837.03497 1.44199 0.01442 0.43882 0.00439
 836.07001 1.44614 0.01446 0.43840 0.00438
 835.10498 1.45025 0.01450 0.43789 0.00438
 834.14001 1.45431 0.01454 0.43732 0.00437
 833.17401 1.45834 0.01458 0.43669 0.00437
 832.20898 1.46231 0.01462 0.43601 0.00436
 831.24402 1.46623 0.01466 0.43533 0.00435
 830.27899 1.47009 0.01470 0.43465 0.00435
 829.31403 1.47397 0.01474 0.43402 0.00434
 828.34900 1.47791 0.01478 0.43344 0.00433
 827.38300 1.48191 0.01482 0.43284 0.00433
 826.41803 1.48600 0.01486 0.43220 0.00432
 825.45300 1.49018 0.01490 0.43146 0.00431
 824.48798 1.49443 0.01494 0.43058 0.00431
 823.52301 1.49867 0.01499 0.42956 0.00430
 822.55798 1.50286 0.01503 0.42838 0.00428
 821.59302 1.50700 0.01507 0.42710 0.00427
 820.62701 1.51106 0.01511 0.42574 0.00426
 819.66199 1.51504 0.01515 0.42436 0.00424
 818.69702 1.51893 0.01519 0.42301 0.00423
 817.73199 1.52283 0.01523 0.42169 0.00422
 816.76703 1.52677 0.01527 0.42041 0.00420
 815.80200 1.53077 0.01531 0.41913 0.00419
 814.83698 1.53485 0.01535 0.41781 0.00418
 813.87097 1.53904 0.01539 0.41642 0.00416
 812.90601 1.54333 0.01543 0.41490 0.00415
 811.94098 1.54767 0.01548 0.41323 0.00413
 810.97601 1.55202 0.01552 0.41137 0.00411
 810.01099 1.55637 0.01556 0.40934 0.00409
 809.04602 1.56067 0.01561 0.40713 0.00407
 808.08002 1.56491 0.01565 0.40480 0.00405
 807.11499 1.56907 0.01569 0.40238 0.00402
 806.15002 1.57319 0.01573 0.39983 0.00400
 805.18500 1.57727 0.01577 0.39718 0.00397
 804.21997 1.58130 0.01581 0.39440 0.00394
 803.25500 1.58527 0.01585 0.39148 0.00391
 802.28998 1.58912 0.01589 0.38839 0.00388
 801.32397 1.59282 0.01593 0.38510 0.00385
 800.35901 1.59648 0.01596 0.38175 0.00382
