#FORMAT = WAVN N dn K dk
#DESCRIPTION = Refractive indices of 6.1 wt% HNO<sub>3</sub> from 250 to 5000 cm<sup>-1</sup>
#SUBSTANCE= Nitric acid
#SAMPLEFORM= Bulk aqueous solution
#TEMPERATURE= 300 K
#CONCENTRATION= 6.1 wt%
#DOI=10.1063/1.439445
#REFERENCE= Querry, M. R., and I. L. Tyler, Reflectance and complex refractive 
## indices in the infrared of aqueous solutions of nitric acid, J. Chem. Phys., 
## vol. 72, pgs. 2495-2499, 1980.
## AIP document No. JCPSA-72-2495-27
#CONTACT=   
#COMMENT= Derived from reflectance spectra of bulk aqueous solutions of
## nitric acid at room temperature using Kramers-Kronig techniques.
 250.31 1.543 0.015 3.90E-001 7.8E-003
 250.63 1.544 0.015 3.89E-001 7.8E-003
 250.94 1.543 0.015 3.89E-001 7.8E-003
 251.26 1.543 0.015 3.88E-001 7.8E-003
 251.57 1.543 0.015 3.87E-001 7.7E-003
 251.89 1.542 0.015 3.86E-001 7.7E-003
 252.21 1.543 0.015 3.85E-001 7.7E-003
 252.53 1.543 0.015 3.85E-001 7.7E-003
 252.84 1.543 0.015 3.84E-001 7.7E-003
 253.16 1.543 0.015 3.83E-001 7.7E-003
 253.49 1.543 0.015 3.82E-001 7.6E-003
 253.81 1.543 0.015 3.81E-001 7.6E-003
 254.13 1.544 0.015 3.81E-001 7.6E-003
 254.45 1.544 0.015 3.80E-001 7.6E-003
 254.78 1.544 0.015 3.79E-001 7.6E-003
 255.10 1.544 0.015 3.78E-001 7.6E-003
 255.43 1.544 0.015 3.78E-001 7.6E-003
 255.75 1.545 0.015 3.77E-001 7.5E-003
 256.08 1.543 0.015 3.76E-001 7.5E-003
 256.41 1.545 0.015 3.76E-001 7.5E-003
 256.74 1.543 0.015 3.75E-001 7.5E-003
 257.07 1.544 0.015 3.74E-001 7.5E-003
 256.74 1.543 0.015 3.75E-001 7.5E-003
 257.07 1.544 0.015 3.74E-001 7.5E-003
 257.40 1.544 0.015 3.73E-001 7.5E-003
 257.73 1.544 0.015 3.73E-001 7.5E-003
 258.06 1.545 0.015 3.72E-001 7.4E-003
 258.40 1.545 0.015 3.72E-001 7.4E-003
 258.73 1.545 0.015 3.71E-001 7.4E-003
 259.07 1.545 0.015 3.71E-001 7.4E-003
 259.40 1.546 0.015 3.70E-001 7.4E-003
 259.74 1.546 0.015 3.69E-001 7.4E-003
 260.08 1.546 0.015 3.69E-001 7.4E-003
 260.42 1.547 0.015 3.68E-001 7.4E-003
 260.76 1.547 0.015 3.68E-001 7.4E-003
 261.10 1.547 0.015 3.67E-001 7.3E-003
 261.44 1.548 0.015 3.66E-001 7.3E-003
 261.78 1.548 0.015 3.65E-001 7.3E-003
 262.12 1.549 0.015 3.65E-001 7.3E-003
 262.47 1.550 0.015 3.63E-001 7.3E-003
 262.81 1.550 0.015 3.64E-001 7.3E-003
 263.16 1.552 0.016 3.62E-001 7.2E-003
 263.50 1.553 0.016 3.63E-001 7.3E-003
 263.85 1.553 0.016 3.63E-001 7.3E-003
 264.20 1.555 0.016 3.63E-001 7.3E-003
 264.55 1.553 0.016 3.65E-001 7.3E-003
 264.90 1.556 0.016 3.63E-001 7.3E-003
 265.25 1.554 0.016 3.65E-001 7.3E-003
 265.60 1.555 0.016 3.64E-001 7.3E-003
 265.96 1.555 0.016 3.64E-001 7.3E-003
 266.31 1.555 0.016 3.64E-001 7.3E-003
 266.67 1.555 0.016 3.64E-001 7.3E-003
 267.02 1.555 0.016 3.64E-001 7.3E-003
 267.38 1.555 0.016 3.64E-001 7.3E-003
 267.74 1.555 0.016 3.64E-001 7.3E-003
 268.10 1.555 0.016 3.64E-001 7.3E-003
 268.46 1.554 0.016 3.64E-001 7.3E-003
 268.82 1.554 0.016 3.64E-001 7.3E-003
 269.18 1.553 0.016 3.64E-001 7.3E-003
 269.54 1.552 0.016 3.64E-001 7.3E-003
 269.91 1.551 0.016 3.64E-001 7.3E-003
 270.27 1.551 0.016 3.63E-001 7.3E-003
 270.64 1.550 0.015 3.63E-001 7.3E-003
 271.00 1.549 0.015 3.62E-001 7.2E-003
 271.37 1.549 0.015 3.61E-001 7.2E-003
 271.74 1.549 0.015 3.60E-001 7.2E-003
 272.11 1.549 0.015 3.59E-001 7.2E-003
 272.48 1.549 0.015 3.58E-001 7.2E-003
 272.85 1.550 0.015 3.58E-001 7.2E-003
 273.22 1.550 0.015 3.57E-001 7.1E-003
 273.60 1.550 0.015 3.57E-001 7.1E-003
 273.97 1.550 0.015 3.56E-001 7.1E-003
 274.35 1.550 0.015 3.56E-001 7.1E-003
 274.73 1.551 0.016 3.55E-001 7.1E-003
 275.10 1.550 0.015 3.54E-001 7.1E-003
 275.48 1.551 0.016 3.54E-001 7.1E-003
 275.86 1.551 0.016 3.53E-001 7.1E-003
 276.24 1.551 0.016 3.52E-001 7.0E-003
 276.63 1.551 0.016 3.52E-001 7.0E-003
 277.01 1.551 0.016 3.51E-001 7.0E-003
 277.39 1.551 0.016 3.51E-001 7.0E-003
 277.78 1.552 0.016 3.50E-001 7.0E-003
 278.16 1.551 0.016 3.49E-001 7.0E-003
 278.55 1.552 0.016 3.49E-001 7.0E-003
 278.94 1.552 0.016 3.48E-001 7.0E-003
 279.33 1.552 0.016 3.47E-001 6.9E-003
 279.72 1.553 0.016 3.47E-001 6.9E-003
 280.11 1.553 0.016 3.46E-001 6.9E-003
 280.50 1.553 0.016 3.45E-001 6.9E-003
 280.90 1.554 0.016 3.45E-001 6.9E-003
 281.29 1.552 0.016 3.44E-001 6.9E-003
 281.69 1.554 0.016 3.43E-001 6.9E-003
 282.09 1.552 0.016 3.43E-001 6.9E-003
 282.49 1.553 0.016 3.42E-001 6.8E-003
 282.89 1.553 0.016 3.41E-001 6.8E-003
 283.29 1.552 0.016 3.40E-001 6.8E-003
 283.69 1.554 0.016 3.39E-001 6.8E-003
 284.09 1.553 0.016 3.39E-001 6.8E-003
 284.49 1.555 0.016 3.38E-001 6.8E-003
 284.90 1.555 0.016 3.37E-001 6.7E-003
 285.31 1.556 0.016 3.36E-001 6.7E-003
 285.71 1.557 0.016 3.35E-001 6.7E-003
 286.12 1.558 0.016 3.33E-001 6.7E-003
 286.53 1.559 0.016 3.32E-001 6.6E-003
 286.94 1.561 0.016 3.31E-001 6.6E-003
 287.36 1.563 0.016 3.31E-001 6.6E-003
 287.77 1.566 0.016 3.31E-001 6.6E-003
 288.18 1.568 0.016 3.31E-001 6.6E-003
 288.60 1.570 0.016 3.32E-001 6.6E-003
 289.02 1.573 0.016 3.33E-001 6.7E-003
 289.44 1.574 0.016 3.35E-001 6.7E-003
 289.86 1.576 0.016 3.37E-001 6.7E-003
 290.28 1.576 0.016 3.40E-001 6.8E-003
 290.70 1.576 0.016 3.41E-001 6.8E-003
 291.12 1.576 0.016 3.47E-001 6.9E-003
 291.55 1.571 0.016 3.45E-001 6.9E-003
 291.97 1.574 0.016 3.50E-001 7.0E-003
 292.40 1.566 0.016 3.45E-001 6.9E-003
 292.83 1.570 0.016 3.49E-001 7.0E-003
 293.26 1.564 0.016 3.44E-001 6.9E-003
 293.69 1.569 0.016 3.46E-001 6.9E-003
 294.12 1.564 0.016 3.43E-001 6.9E-003
 294.55 1.569 0.016 3.43E-001 6.9E-003
 294.99 1.566 0.016 3.44E-001 6.9E-003
 295.42 1.566 0.016 3.42E-001 6.8E-003
 295.86 1.566 0.016 3.45E-001 6.9E-003
 296.30 1.563 0.016 3.41E-001 6.8E-003
 296.74 1.565 0.016 3.45E-001 6.9E-003
 297.18 1.559 0.016 3.40E-001 6.8E-003
 297.62 1.564 0.016 3.43E-001 6.9E-003
 298.06 1.557 0.016 3.37E-001 6.7E-003
 298.51 1.564 0.016 3.38E-001 6.8E-003
 298.95 1.559 0.016 3.35E-001 6.7E-003
 299.40 1.565 0.016 3.35E-001 6.7E-003
 299.85 1.563 0.016 3.34E-001 6.7E-003
 300.30 1.566 0.016 3.34E-001 6.7E-003
 300.75 1.567 0.016 3.34E-001 6.7E-003
 301.20 1.568 0.016 3.34E-001 6.7E-003
 301.66 1.569 0.016 3.34E-001 6.7E-003
 302.11 1.570 0.016 3.34E-001 6.7E-003
 302.57 1.570 0.016 3.34E-001 6.7E-003
 303.03 1.571 0.016 3.34E-001 6.7E-003
 303.49 1.572 0.016 3.34E-001 6.7E-003
 303.95 1.572 0.016 3.35E-001 6.7E-003
 304.41 1.572 0.016 3.36E-001 6.7E-003
 304.88 1.572 0.016 3.35E-001 6.7E-003
 305.34 1.573 0.016 3.37E-001 6.7E-003
 305.81 1.571 0.016 3.34E-001 6.7E-003
 306.28 1.574 0.016 3.39E-001 6.8E-003
 306.75 1.570 0.016 3.33E-001 6.7E-003
 307.22 1.576 0.016 3.38E-001 6.8E-003
 307.69 1.570 0.016 3.33E-001 6.7E-003
 308.17 1.577 0.016 3.37E-001 6.7E-003
 308.64 1.572 0.016 3.34E-001 6.7E-003
 309.12 1.578 0.016 3.37E-001 6.7E-003
 309.60 1.573 0.016 3.34E-001 6.7E-003
 310.08 1.579 0.016 3.39E-001 6.8E-003
 310.56 1.574 0.016 3.35E-001 6.7E-003
 311.04 1.579 0.016 3.41E-001 6.8E-003
 311.53 1.573 0.016 3.37E-001 6.7E-003
 312.01 1.576 0.016 3.40E-001 6.8E-003
 312.50 1.573 0.016 3.38E-001 6.8E-003
 312.99 1.573 0.016 3.38E-001 6.8E-003
 313.48 1.572 0.016 3.37E-001 6.7E-003
 313.97 1.572 0.016 3.36E-001 6.7E-003
 314.47 1.573 0.016 3.36E-001 6.7E-003
 314.96 1.574 0.016 3.35E-001 6.7E-003
 315.46 1.575 0.016 3.36E-001 6.7E-003
 315.96 1.575 0.016 3.36E-001 6.7E-003
 316.46 1.576 0.016 3.38E-001 6.8E-003
 316.96 1.576 0.016 3.37E-001 6.7E-003
 317.46 1.576 0.016 3.40E-001 6.8E-003
 317.97 1.575 0.016 3.39E-001 6.8E-003
 318.47 1.576 0.016 3.40E-001 6.8E-003
 318.98 1.575 0.016 3.39E-001 6.8E-003
 319.49 1.575 0.016 3.40E-001 6.8E-003
 320.00 1.575 0.016 3.39E-001 6.8E-003
 320.51 1.575 0.016 3.40E-001 6.8E-003
 321.03 1.575 0.016 3.38E-001 6.8E-003
 321.54 1.576 0.016 3.41E-001 6.8E-003
 322.06 1.574 0.016 3.39E-001 6.8E-003
 322.58 1.576 0.016 3.40E-001 6.8E-003
 323.10 1.574 0.016 3.39E-001 6.8E-003
 323.62 1.576 0.016 3.39E-001 6.8E-003
 324.15 1.576 0.016 3.40E-001 6.8E-003
 324.68 1.576 0.016 3.39E-001 6.8E-003
 325.20 1.577 0.016 3.40E-001 6.8E-003
 325.73 1.576 0.016 3.40E-001 6.8E-003
 326.26 1.577 0.016 3.40E-001 6.8E-003
 326.80 1.577 0.016 3.41E-001 6.8E-003
 327.33 1.578 0.016 3.41E-001 6.8E-003
 327.87 1.576 0.016 3.41E-001 6.8E-003
 328.41 1.578 0.016 3.43E-001 6.9E-003
 328.95 1.576 0.016 3.41E-001 6.8E-003
 329.49 1.578 0.016 3.43E-001 6.9E-003
 330.03 1.575 0.016 3.43E-001 6.9E-003
 330.58 1.577 0.016 3.43E-001 6.9E-003
 331.13 1.574 0.016 3.44E-001 6.9E-003
 331.67 1.575 0.016 3.44E-001 6.9E-003
 332.23 1.574 0.016 3.45E-001 6.9E-003
 332.78 1.572 0.016 3.44E-001 6.9E-003
 333.33 1.573 0.016 3.44E-001 6.9E-003
 333.89 1.571 0.016 3.44E-001 6.9E-003
 334.45 1.572 0.016 3.43E-001 6.9E-003
 335.01 1.571 0.016 3.43E-001 6.9E-003
 335.57 1.572 0.016 3.42E-001 6.8E-003
 336.13 1.572 0.016 3.42E-001 6.8E-003
 336.70 1.572 0.016 3.42E-001 6.8E-003
 337.27 1.572 0.016 3.42E-001 6.8E-003
 337.84 1.573 0.016 3.42E-001 6.8E-003
 338.41 1.573 0.016 3.42E-001 6.8E-003
 338.98 1.573 0.016 3.43E-001 6.9E-003
 339.56 1.573 0.016 3.43E-001 6.9E-003
 340.14 1.574 0.016 3.43E-001 6.9E-003
 340.72 1.574 0.016 3.43E-001 6.9E-003
 341.30 1.574 0.016 3.43E-001 6.9E-003
 341.88 1.574 0.016 3.43E-001 6.9E-003
 342.47 1.574 0.016 3.43E-001 6.9E-003
 343.05 1.574 0.016 3.44E-001 6.9E-003
 343.64 1.574 0.016 3.44E-001 6.9E-003
 344.23 1.574 0.016 3.44E-001 6.9E-003
 344.83 1.574 0.016 3.44E-001 6.9E-003
 345.42 1.574 0.016 3.44E-001 6.9E-003
 346.02 1.574 0.016 3.45E-001 6.9E-003
 346.62 1.574 0.016 3.45E-001 6.9E-003
 347.22 1.574 0.016 3.45E-001 6.9E-003
 347.83 1.574 0.016 3.45E-001 6.9E-003
 348.43 1.574 0.016 3.46E-001 6.9E-003
 349.04 1.574 0.016 3.46E-001 6.9E-003
 349.65 1.574 0.016 3.46E-001 6.9E-003
 350.26 1.574 0.016 3.46E-001 6.9E-003
 350.88 1.573 0.016 3.46E-001 6.9E-003
 351.49 1.573 0.016 3.46E-001 6.9E-003
 352.11 1.571 0.016 3.46E-001 6.9E-003
 352.73 1.573 0.016 3.47E-001 6.9E-003
 353.36 1.570 0.016 3.47E-001 6.9E-003
 353.98 1.572 0.016 3.47E-001 6.9E-003
 354.61 1.570 0.016 3.48E-001 7.0E-003
 355.24 1.571 0.016 3.48E-001 7.0E-003
 355.87 1.571 0.016 3.48E-001 7.0E-003
 356.51 1.571 0.016 3.48E-001 7.0E-003
 357.14 1.571 0.016 3.49E-001 7.0E-003
 357.78 1.571 0.016 3.49E-001 7.0E-003
 358.42 1.571 0.016 3.49E-001 7.0E-003
 359.07 1.571 0.016 3.49E-001 7.0E-003
 359.71 1.571 0.016 3.50E-001 7.0E-003
 360.36 1.571 0.016 3.50E-001 7.0E-003
 361.01 1.570 0.016 3.50E-001 7.0E-003
 361.66 1.570 0.016 3.50E-001 7.0E-003
 362.32 1.570 0.016 3.51E-001 7.0E-003
 362.98 1.570 0.016 3.51E-001 7.0E-003
 363.64 1.570 0.016 3.52E-001 7.0E-003
 364.30 1.570 0.016 3.52E-001 7.0E-003
 364.96 1.570 0.016 3.52E-001 7.0E-003
 365.63 1.570 0.016 3.52E-001 7.0E-003
 366.30 1.569 0.016 3.53E-001 7.1E-003
 366.97 1.569 0.016 3.53E-001 7.1E-003
 367.65 1.569 0.016 3.53E-001 7.1E-003
 368.32 1.569 0.016 3.53E-001 7.1E-003
 369.00 1.569 0.016 3.54E-001 7.1E-003
 369.69 1.569 0.016 3.54E-001 7.1E-003
 370.37 1.569 0.016 3.54E-001 7.1E-003
 371.06 1.568 0.016 3.55E-001 7.1E-003
 371.75 1.568 0.016 3.55E-001 7.1E-003
 372.44 1.568 0.016 3.55E-001 7.1E-003
 373.13 1.567 0.016 3.56E-001 7.1E-003
 373.83 1.568 0.016 3.56E-001 7.1E-003
 374.53 1.566 0.016 3.56E-001 7.1E-003
 375.23 1.566 0.016 3.56E-001 7.1E-003
 375.94 1.565 0.016 3.57E-001 7.1E-003
 376.65 1.564 0.016 3.57E-001 7.1E-003
 377.36 1.564 0.016 3.57E-001 7.1E-003
 378.07 1.563 0.016 3.58E-001 7.2E-003
 378.79 1.563 0.016 3.58E-001 7.2E-003
 379.51 1.562 0.016 3.59E-001 7.2E-003
 380.23 1.562 0.016 3.59E-001 7.2E-003
 380.95 1.562 0.016 3.60E-001 7.2E-003
 381.68 1.561 0.016 3.60E-001 7.2E-003
 382.41 1.561 0.016 3.60E-001 7.2E-003
 383.14 1.561 0.016 3.61E-001 7.2E-003
 383.88 1.560 0.016 3.61E-001 7.2E-003
 384.62 1.560 0.016 3.61E-001 7.2E-003
 385.36 1.559 0.016 3.61E-001 7.2E-003
 386.10 1.559 0.016 3.62E-001 7.2E-003
 386.85 1.559 0.016 3.62E-001 7.2E-003
 387.60 1.558 0.016 3.62E-001 7.2E-003
 388.35 1.558 0.016 3.63E-001 7.3E-003
 389.11 1.557 0.016 3.63E-001 7.3E-003
 389.86 1.558 0.016 3.63E-001 7.3E-003
 390.63 1.556 0.016 3.63E-001 7.3E-003
 391.39 1.556 0.016 3.64E-001 7.3E-003
 392.16 1.556 0.016 3.64E-001 7.3E-003
 392.93 1.555 0.016 3.64E-001 7.3E-003
 393.70 1.555 0.016 3.65E-001 7.3E-003
 394.48 1.555 0.016 3.65E-001 7.3E-003
 395.26 1.554 0.016 3.65E-001 7.3E-003
 396.04 1.554 0.016 3.66E-001 7.3E-003
 396.83 1.553 0.016 3.66E-001 7.3E-003
 397.61 1.553 0.016 3.66E-001 7.3E-003
 398.41 1.552 0.016 3.66E-001 7.3E-003
 399.20 1.552 0.016 3.66E-001 7.3E-003
 400.00 1.551 0.016 3.67E-001 7.3E-003
 400.80 1.551 0.016 3.67E-001 7.3E-003
 401.61 1.549 0.015 3.67E-001 7.3E-003
 402.41 1.549 0.015 3.67E-001 7.3E-003
 403.23 1.547 0.015 3.67E-001 7.3E-003
 404.04 1.547 0.015 3.67E-001 7.3E-003
 404.86 1.546 0.015 3.67E-001 7.3E-003
 405.68 1.545 0.015 3.67E-001 7.3E-003
 406.50 1.545 0.015 3.68E-001 7.4E-003
 407.33 1.543 0.015 3.68E-001 7.4E-003
 408.16 1.544 0.015 3.68E-001 7.4E-003
 409.00 1.542 0.015 3.68E-001 7.4E-003
 409.84 1.543 0.015 3.68E-001 7.4E-003
 410.68 1.542 0.015 3.68E-001 7.4E-003
 411.52 1.541 0.015 3.69E-001 7.4E-003
 412.37 1.541 0.015 3.68E-001 7.4E-003
 413.22 1.540 0.015 3.69E-001 7.4E-003
 414.08 1.540 0.015 3.69E-001 7.4E-003
 414.94 1.539 0.015 3.69E-001 7.4E-003
 415.80 1.538 0.015 3.69E-001 7.4E-003
 416.67 1.538 0.015 3.69E-001 7.4E-003
 417.54 1.537 0.015 3.69E-001 7.4E-003
 418.41 1.537 0.015 3.69E-001 7.4E-003
 419.29 1.537 0.015 3.69E-001 7.4E-003
 420.17 1.536 0.015 3.69E-001 7.4E-003
 421.05 1.537 0.015 3.70E-001 7.4E-003
 421.94 1.535 0.015 3.70E-001 7.4E-003
 422.83 1.536 0.015 3.70E-001 7.4E-003
 423.73 1.535 0.015 3.70E-001 7.4E-003
 424.63 1.534 0.015 3.70E-001 7.4E-003
 425.53 1.534 0.015 3.70E-001 7.4E-003
 426.44 1.533 0.015 3.70E-001 7.4E-003
 427.35 1.533 0.015 3.70E-001 7.4E-003
 428.27 1.532 0.015 3.71E-001 7.4E-003
 429.18 1.532 0.015 3.70E-001 7.4E-003
 430.11 1.531 0.015 3.71E-001 7.4E-003
 431.03 1.530 0.015 3.71E-001 7.4E-003
 431.97 1.530 0.015 3.71E-001 7.4E-003
 432.90 1.529 0.015 3.71E-001 7.4E-003
 433.84 1.528 0.015 3.71E-001 7.4E-003
 434.78 1.527 0.015 3.71E-001 7.4E-003
 435.73 1.526 0.015 3.71E-001 7.4E-003
 436.68 1.526 0.015 3.71E-001 7.4E-003
 437.64 1.525 0.015 3.71E-001 7.4E-003
 438.60 1.525 0.015 3.71E-001 7.4E-003
 439.56 1.524 0.015 3.72E-001 7.4E-003
 440.53 1.524 0.015 3.72E-001 7.4E-003
 441.50 1.524 0.015 3.72E-001 7.4E-003
 442.48 1.523 0.015 3.72E-001 7.4E-003
 443.46 1.523 0.015 3.73E-001 7.5E-003
 444.44 1.522 0.015 3.73E-001 7.5E-003
 445.43 1.522 0.015 3.73E-001 7.5E-003
 446.43 1.521 0.015 3.73E-001 7.5E-003
 447.43 1.521 0.015 3.73E-001 7.5E-003
 448.43 1.520 0.015 3.73E-001 7.5E-003
 449.44 1.520 0.015 3.73E-001 7.5E-003
 450.45 1.520 0.015 3.73E-001 7.5E-003
 451.47 1.520 0.015 3.73E-001 7.5E-003
 452.49 1.520 0.015 3.74E-001 7.5E-003
 453.51 1.519 0.015 3.74E-001 7.5E-003
 454.55 1.520 0.015 3.75E-001 7.5E-003
 455.58 1.518 0.015 3.75E-001 7.5E-003
 456.62 1.518 0.015 3.76E-001 7.5E-003
 457.67 1.517 0.015 3.76E-001 7.5E-003
 458.72 1.516 0.015 3.77E-001 7.5E-003
 459.77 1.516 0.015 3.77E-001 7.5E-003
 460.83 1.515 0.015 3.77E-001 7.5E-003
 461.89 1.514 0.015 3.78E-001 7.6E-003
 462.96 1.514 0.015 3.77E-001 7.5E-003
 464.04 1.512 0.015 3.78E-001 7.6E-003
 465.12 1.513 0.015 3.78E-001 7.6E-003
 466.20 1.511 0.015 3.78E-001 7.6E-003
 467.29 1.510 0.015 3.78E-001 7.6E-003
 468.38 1.511 0.015 3.79E-001 7.6E-003
 469.48 1.508 0.015 3.79E-001 7.6E-003
 470.59 1.509 0.015 3.79E-001 7.6E-003
 471.70 1.506 0.015 3.79E-001 7.6E-003
 472.81 1.506 0.015 3.79E-001 7.6E-003
 473.93 1.505 0.015 3.80E-001 7.6E-003
 475.06 1.504 0.015 3.80E-001 7.6E-003
 476.19 1.504 0.015 3.80E-001 7.6E-003
 477.33 1.503 0.015 3.80E-001 7.6E-003
 478.47 1.502 0.015 3.81E-001 7.6E-003
 479.62 1.502 0.015 3.81E-001 7.6E-003
 480.77 1.501 0.015 3.81E-001 7.6E-003
 481.93 1.501 0.015 3.81E-001 7.6E-003
 483.09 1.500 0.015 3.81E-001 7.6E-003
 484.26 1.500 0.015 3.81E-001 7.6E-003
 485.44 1.500 0.015 3.82E-001 7.6E-003
 486.62 1.500 0.015 3.82E-001 7.6E-003
 487.80 1.500 0.015 3.83E-001 7.7E-003
 489.00 1.499 0.015 3.83E-001 7.7E-003
 490.20 1.499 0.015 3.84E-001 7.7E-003
 491.40 1.499 0.015 3.85E-001 7.7E-003
 492.61 1.498 0.015 3.85E-001 7.7E-003
 493.83 1.499 0.015 3.86E-001 7.7E-003
 495.05 1.497 0.015 3.87E-001 7.7E-003
 496.28 1.498 0.015 3.87E-001 7.7E-003
 497.51 1.497 0.015 3.88E-001 7.8E-003
 498.75 1.496 0.015 3.89E-001 7.8E-003
 500.00 1.497 0.015 3.90E-001 7.8E-003
 500.63 1.495 0.015 3.91E-001 7.8E-003
 501.25 1.495 0.015 3.91E-001 7.8E-003
 501.88 1.494 0.015 3.91E-001 7.8E-003
 502.51 1.495 0.015 3.92E-001 7.8E-003
 503.14 1.495 0.015 3.93E-001 7.9E-003
 503.78 1.494 0.015 3.94E-001 7.9E-003
 504.41 1.494 0.015 3.95E-001 7.9E-003
 505.05 1.492 0.015 3.95E-001 7.9E-003
 505.69 1.492 0.015 3.96E-001 7.9E-003
 506.33 1.491 0.015 3.96E-001 7.9E-003
 506.97 1.491 0.015 3.97E-001 7.9E-003
 507.61 1.491 0.015 3.97E-001 7.9E-003
 508.26 1.488 0.015 3.98E-001 8.0E-003
 508.91 1.489 0.015 3.98E-001 8.0E-003
 509.55 1.489 0.015 3.99E-001 8.0E-003
 510.20 1.487 0.015 3.99E-001 8.0E-003
 510.86 1.487 0.015 3.99E-001 8.0E-003
 511.51 1.486 0.015 4.00E-001 8.0E-003
 512.16 1.483 0.015 4.00E-001 8.0E-003
 512.82 1.483 0.015 4.01E-001 8.0E-003
 513.48 1.481 0.015 4.01E-001 8.0E-003
 514.14 1.481 0.015 4.01E-001 8.0E-003
 514.80 1.480 0.015 4.02E-001 8.0E-003
 515.46 1.479 0.015 4.02E-001 8.0E-003
 516.13 1.480 0.015 4.02E-001 8.0E-003
 516.80 1.477 0.015 4.02E-001 8.0E-003
 517.46 1.477 0.015 4.03E-001 8.1E-003
 518.13 1.476 0.015 4.04E-001 8.1E-003
 518.81 1.475 0.015 4.04E-001 8.1E-003
 519.48 1.476 0.015 4.04E-001 8.1E-003
 520.16 1.474 0.015 4.04E-001 8.1E-003
 520.83 1.474 0.015 4.05E-001 8.1E-003
 521.51 1.473 0.015 4.05E-001 8.1E-003
 522.19 1.472 0.015 4.06E-001 8.1E-003
 522.88 1.473 0.015 4.06E-001 8.1E-003
 523.56 1.470 0.015 4.06E-001 8.1E-003
 524.25 1.471 0.015 4.07E-001 8.1E-003
 524.93 1.469 0.015 4.07E-001 8.1E-003
 525.62 1.467 0.015 4.08E-001 8.2E-003
 526.32 1.469 0.015 4.08E-001 8.2E-003
 527.01 1.465 0.015 4.09E-001 8.2E-003
 527.70 1.466 0.015 4.10E-001 8.2E-003
 528.40 1.465 0.015 4.10E-001 8.2E-003
 529.10 1.462 0.015 4.10E-001 8.2E-003
 529.80 1.463 0.015 4.09E-001 8.2E-003
 530.50 1.460 0.015 4.09E-001 8.2E-003
 531.21 1.461 0.015 4.08E-001 8.2E-003
 531.91 1.460 0.015 4.09E-001 8.2E-003
 532.62 1.460 0.015 4.10E-001 8.2E-003
 533.33 1.460 0.015 4.10E-001 8.2E-003
 534.05 1.457 0.015 4.10E-001 8.2E-003
 534.76 1.459 0.015 4.11E-001 8.2E-003
 535.48 1.456 0.015 4.11E-001 8.2E-003
 536.19 1.457 0.015 4.12E-001 8.2E-003
 536.91 1.454 0.015 4.12E-001 8.2E-003
 537.63 1.452 0.015 4.13E-001 8.3E-003
 538.36 1.453 0.015 4.13E-001 8.3E-003
 539.08 1.450 0.015 4.13E-001 8.3E-003
 539.81 1.450 0.015 4.12E-001 8.2E-003
 540.54 1.451 0.015 4.12E-001 8.2E-003
 541.27 1.447 0.014 4.12E-001 8.2E-003
 542.01 1.447 0.014 4.13E-001 8.3E-003
 542.74 1.446 0.014 4.13E-001 8.3E-003
 543.48 1.446 0.014 4.12E-001 8.2E-003
 544.22 1.447 0.014 4.13E-001 8.3E-003
 544.96 1.445 0.014 4.13E-001 8.3E-003
 545.70 1.444 0.014 4.14E-001 8.3E-003
 546.45 1.441 0.014 4.14E-001 8.3E-003
 547.20 1.442 0.014 4.14E-001 8.3E-003
 547.95 1.442 0.014 4.14E-001 8.3E-003
 548.70 1.441 0.014 4.14E-001 8.3E-003
 549.45 1.439 0.014 4.14E-001 8.3E-003
 550.21 1.436 0.014 4.14E-001 8.3E-003
 550.96 1.437 0.014 4.14E-001 8.3E-003
 551.72 1.436 0.014 4.15E-001 8.3E-003
 552.49 1.435 0.014 4.15E-001 8.3E-003
 553.25 1.435 0.014 4.15E-001 8.3E-003
 554.02 1.431 0.014 4.15E-001 8.3E-003
 554.79 1.432 0.014 4.14E-001 8.3E-003
 555.56 1.432 0.014 4.14E-001 8.3E-003
 556.33 1.430 0.014 4.15E-001 8.3E-003
 557.10 1.429 0.014 4.15E-001 8.3E-003
 557.88 1.427 0.014 4.15E-001 8.3E-003
 558.66 1.427 0.014 4.15E-001 8.3E-003
 559.44 1.426 0.014 4.15E-001 8.3E-003
 560.22 1.424 0.014 4.14E-001 8.3E-003
 561.01 1.424 0.014 4.14E-001 8.3E-003
 561.80 1.423 0.014 4.14E-001 8.3E-003
 562.59 1.422 0.014 4.14E-001 8.3E-003
 563.38 1.423 0.014 4.14E-001 8.3E-003
 564.17 1.418 0.014 4.14E-001 8.3E-003
 564.97 1.416 0.014 4.15E-001 8.3E-003
 565.77 1.415 0.014 4.14E-001 8.3E-003
 566.57 1.415 0.014 4.14E-001 8.3E-003
 567.38 1.415 0.014 4.14E-001 8.3E-003
 568.18 1.412 0.014 4.14E-001 8.3E-003
 568.99 1.413 0.014 4.13E-001 8.3E-003
 569.80 1.411 0.014 4.13E-001 8.3E-003
 570.61 1.412 0.014 4.14E-001 8.3E-003
 571.43 1.411 0.014 4.14E-001 8.3E-003
 572.25 1.409 0.014 4.14E-001 8.3E-003
 573.07 1.408 0.014 4.14E-001 8.3E-003
 573.89 1.407 0.014 4.14E-001 8.3E-003
 574.71 1.407 0.014 4.14E-001 8.3E-003
 575.54 1.407 0.014 4.14E-001 8.3E-003
 576.37 1.404 0.014 4.15E-001 8.3E-003
 577.20 1.404 0.014 4.15E-001 8.3E-003
 578.03 1.400 0.014 4.15E-001 8.3E-003
 578.87 1.400 0.014 4.15E-001 8.3E-003
 579.71 1.401 0.014 4.14E-001 8.3E-003
 580.55 1.399 0.014 4.15E-001 8.3E-003
 581.40 1.399 0.014 4.15E-001 8.3E-003
 582.24 1.397 0.014 4.15E-001 8.3E-003
 583.09 1.395 0.014 4.15E-001 8.3E-003
 583.94 1.395 0.014 4.14E-001 8.3E-003
 584.80 1.392 0.014 4.15E-001 8.3E-003
 585.65 1.393 0.014 4.14E-001 8.3E-003
 586.51 1.390 0.014 4.14E-001 8.3E-003
 587.37 1.390 0.014 4.14E-001 8.3E-003
 588.24 1.390 0.014 4.13E-001 8.3E-003
 589.10 1.390 0.014 4.13E-001 8.3E-003
 589.97 1.390 0.014 4.13E-001 8.3E-003
 590.84 1.389 0.014 4.13E-001 8.3E-003
 591.72 1.387 0.014 4.12E-001 8.2E-003
 592.59 1.387 0.014 4.13E-001 8.3E-003
 593.47 1.385 0.014 4.13E-001 8.3E-003
 594.35 1.383 0.014 4.13E-001 8.3E-003
 595.24 1.382 0.014 4.13E-001 8.3E-003
 596.13 1.380 0.014 4.13E-001 8.3E-003
 597.01 1.380 0.014 4.13E-001 8.3E-003
 597.91 1.379 0.014 4.13E-001 8.3E-003
 598.80 1.377 0.014 4.13E-001 8.3E-003
 599.70 1.376 0.014 4.13E-001 8.3E-003
 600.60 1.375 0.014 4.13E-001 8.3E-003
 601.50 1.374 0.014 4.12E-001 8.2E-003
 602.41 1.372 0.014 4.12E-001 8.2E-003
 603.32 1.372 0.014 4.11E-001 8.2E-003
 604.23 1.370 0.014 4.12E-001 8.2E-003
 605.14 1.368 0.014 4.12E-001 8.2E-003
 606.06 1.367 0.014 4.11E-001 8.2E-003
 606.98 1.365 0.014 4.10E-001 8.2E-003
 607.90 1.365 0.014 4.10E-001 8.2E-003
 608.83 1.364 0.014 4.10E-001 8.2E-003
 609.76 1.362 0.014 4.09E-001 8.2E-003
 610.69 1.362 0.014 4.09E-001 8.2E-003
 611.62 1.360 0.014 4.08E-001 8.2E-003
 612.56 1.360 0.014 4.08E-001 8.2E-003
 613.50 1.358 0.014 4.08E-001 8.2E-003
 614.44 1.357 0.014 4.07E-001 8.1E-003
 615.38 1.357 0.014 4.07E-001 8.1E-003
 616.33 1.356 0.014 4.07E-001 8.1E-003
 617.28 1.355 0.014 4.07E-001 8.1E-003
 618.24 1.353 0.014 4.06E-001 8.1E-003
 619.20 1.353 0.014 4.06E-001 8.1E-003
 620.16 1.352 0.014 4.06E-001 8.1E-003
 621.12 1.350 0.014 4.05E-001 8.1E-003
 622.08 1.348 0.013 4.05E-001 8.1E-003
 623.05 1.347 0.013 4.05E-001 8.1E-003
 624.02 1.347 0.013 4.04E-001 8.1E-003
 625.00 1.344 0.013 4.04E-001 8.1E-003
 625.98 1.340 0.013 4.03E-001 8.1E-003
 626.96 1.340 0.013 4.03E-001 8.1E-003
 627.94 1.339 0.013 4.02E-001 8.0E-003
 628.93 1.338 0.013 4.02E-001 8.0E-003
 629.92 1.336 0.013 4.02E-001 8.0E-003
 630.91 1.334 0.013 4.02E-001 8.0E-003
 631.91 1.334 0.013 4.02E-001 8.0E-003
 632.91 1.331 0.013 4.01E-001 8.0E-003
 633.91 1.330 0.013 4.00E-001 8.0E-003
 634.92 1.329 0.013 4.00E-001 8.0E-003
 635.93 1.329 0.013 3.99E-001 8.0E-003
 636.94 1.327 0.013 3.99E-001 8.0E-003
 637.96 1.324 0.013 3.98E-001 8.0E-003
 638.98 1.324 0.013 3.97E-001 7.9E-003
 640.00 1.323 0.013 3.96E-001 7.9E-003
 641.03 1.321 0.013 3.96E-001 7.9E-003
 642.05 1.322 0.013 3.95E-001 7.9E-003
 643.09 1.320 0.013 3.95E-001 7.9E-003
 644.12 1.319 0.013 3.94E-001 7.9E-003
 645.16 1.317 0.013 3.94E-001 7.9E-003
 646.20 1.317 0.013 3.94E-001 7.9E-003
 647.25 1.315 0.013 3.93E-001 7.9E-003
 648.30 1.313 0.013 3.91E-001 7.8E-003
 649.35 1.313 0.013 3.90E-001 7.8E-003
 650.41 1.312 0.013 3.90E-001 7.8E-003
 651.47 1.310 0.013 3.89E-001 7.8E-003
 652.53 1.310 0.013 3.88E-001 7.8E-003
 653.59 1.308 0.013 3.88E-001 7.8E-003
 654.66 1.307 0.013 3.87E-001 7.7E-003
 655.74 1.307 0.013 3.87E-001 7.7E-003
 656.81 1.304 0.013 3.86E-001 7.7E-003
 657.89 1.304 0.013 3.85E-001 7.7E-003
 658.98 1.302 0.013 3.85E-001 7.7E-003
 660.07 1.302 0.013 3.84E-001 7.7E-003
 661.16 1.300 0.013 3.84E-001 7.7E-003
 662.25 1.298 0.013 3.83E-001 7.7E-003
 663.35 1.297 0.013 3.82E-001 7.6E-003
 664.45 1.296 0.013 3.80E-001 7.6E-003
 665.56 1.296 0.013 3.80E-001 7.6E-003
 666.67 1.295 0.013 3.80E-001 7.6E-003
 667.78 1.293 0.013 3.79E-001 7.6E-003
 668.90 1.293 0.013 3.78E-001 7.6E-003
 670.02 1.293 0.013 3.78E-001 7.6E-003
 671.14 1.291 0.013 3.78E-001 7.6E-003
 672.27 1.288 0.013 3.77E-001 7.5E-003
 673.40 1.288 0.013 3.76E-001 7.5E-003
 674.54 1.287 0.013 3.75E-001 7.5E-003
 675.68 1.286 0.013 3.74E-001 7.5E-003
 676.82 1.285 0.013 3.74E-001 7.5E-003
 677.97 1.284 0.013 3.73E-001 7.5E-003
 679.12 1.283 0.013 3.73E-001 7.5E-003
 680.27 1.281 0.013 3.73E-001 7.5E-003
 681.43 1.280 0.013 3.72E-001 7.4E-003
 682.59 1.278 0.013 3.71E-001 7.4E-003
 683.76 1.276 0.013 3.70E-001 7.4E-003
 684.93 1.276 0.013 3.70E-001 7.4E-003
 686.11 1.274 0.013 3.69E-001 7.4E-003
 687.29 1.273 0.013 3.68E-001 7.4E-003
 688.47 1.272 0.013 3.67E-001 7.3E-003
 689.66 1.270 0.013 3.67E-001 7.3E-003
 690.85 1.270 0.013 3.66E-001 7.3E-003
 692.04 1.268 0.013 3.65E-001 7.3E-003
 693.24 1.267 0.013 3.64E-001 7.3E-003
 694.44 1.266 0.013 3.64E-001 7.3E-003
 695.65 1.263 0.013 3.62E-001 7.2E-003
 696.86 1.263 0.013 3.61E-001 7.2E-003
 698.08 1.262 0.013 3.60E-001 7.2E-003
 699.30 1.260 0.013 3.59E-001 7.2E-003
 700.53 1.260 0.013 3.59E-001 7.2E-003
 701.75 1.258 0.013 3.58E-001 7.2E-003
 702.99 1.257 0.013 3.57E-001 7.1E-003
 704.23 1.255 0.013 3.56E-001 7.1E-003
 705.47 1.253 0.013 3.55E-001 7.1E-003
 706.71 1.253 0.013 3.54E-001 7.1E-003
 707.96 1.252 0.013 3.53E-001 7.1E-003
 709.22 1.250 0.012 3.53E-001 7.1E-003
 710.48 1.249 0.012 3.52E-001 7.0E-003
 711.74 1.248 0.012 3.51E-001 7.0E-003
 713.01 1.246 0.012 3.50E-001 7.0E-003
 714.29 1.244 0.012 3.50E-001 7.0E-003
 715.56 1.242 0.012 3.48E-001 7.0E-003
 716.85 1.241 0.012 3.46E-001 6.9E-003
 718.13 1.239 0.012 3.45E-001 6.9E-003
 719.42 1.239 0.012 3.44E-001 6.9E-003
 720.72 1.236 0.012 3.43E-001 6.9E-003
 722.02 1.235 0.012 3.42E-001 6.8E-003
 723.33 1.234 0.012 3.40E-001 6.8E-003
 724.64 1.232 0.012 3.39E-001 6.8E-003
 725.95 1.232 0.012 3.38E-001 6.8E-003
 727.27 1.230 0.012 3.37E-001 6.7E-003
 728.60 1.228 0.012 3.36E-001 6.7E-003
 729.93 1.227 0.012 3.34E-001 6.7E-003
 731.26 1.226 0.012 3.33E-001 6.7E-003
 732.60 1.224 0.012 3.32E-001 6.6E-003
 733.94 1.222 0.012 3.30E-001 6.6E-003
 735.29 1.221 0.012 3.29E-001 6.6E-003
 736.65 1.220 0.012 3.27E-001 6.5E-003
 738.01 1.218 0.012 3.26E-001 6.5E-003
 739.37 1.217 0.012 3.24E-001 6.5E-003
 740.74 1.216 0.012 3.23E-001 6.5E-003
 742.11 1.214 0.012 3.22E-001 6.4E-003
 743.49 1.213 0.012 3.20E-001 6.4E-003
 744.88 1.212 0.012 3.18E-001 6.4E-003
 746.27 1.211 0.012 3.17E-001 6.3E-003
 747.66 1.209 0.012 3.15E-001 6.3E-003
 749.06 1.207 0.012 3.14E-001 6.3E-003
 750.47 1.207 0.012 3.12E-001 6.2E-003
 751.88 1.205 0.012 3.10E-001 6.2E-003
 753.30 1.204 0.012 3.09E-001 6.2E-003
 754.72 1.203 0.012 3.08E-001 6.2E-003
 756.14 1.201 0.012 3.06E-001 6.1E-003
 757.58 1.200 0.012 3.04E-001 6.1E-003
 759.01 1.199 0.012 3.03E-001 6.1E-003
 760.46 1.197 0.012 3.02E-001 6.0E-003
 761.90 1.195 0.012 2.99E-001 6.0E-003
 763.36 1.193 0.012 2.97E-001 5.9E-003
 764.82 1.192 0.012 2.94E-001 5.9E-003
 766.28 1.191 0.012 2.92E-001 5.8E-003
 767.75 1.190 0.012 2.90E-001 5.8E-003
 769.23 1.190 0.012 2.87E-001 5.7E-003
 770.71 1.189 0.012 2.85E-001 5.7E-003
 772.20 1.188 0.012 2.84E-001 5.7E-003
 773.69 1.187 0.012 2.82E-001 5.6E-003
 775.19 1.186 0.012 2.80E-001 5.6E-003
 776.70 1.184 0.012 2.79E-001 5.6E-003
 778.21 1.183 0.012 2.77E-001 5.5E-003
 779.73 1.182 0.012 2.75E-001 5.5E-003
 781.25 1.181 0.012 2.72E-001 5.4E-003
 782.78 1.180 0.012 2.69E-001 5.4E-003
 784.31 1.179 0.012 2.67E-001 5.3E-003
 785.85 1.179 0.012 2.65E-001 5.3E-003
 787.40 1.179 0.012 2.63E-001 5.3E-003
 788.95 1.177 0.012 2.62E-001 5.2E-003
 790.51 1.176 0.012 2.59E-001 5.2E-003
 792.08 1.175 0.012 2.57E-001 5.1E-003
 793.65 1.174 0.012 2.55E-001 5.1E-003
 795.23 1.174 0.012 2.52E-001 5.0E-003
 796.81 1.173 0.012 2.50E-001 5.0E-003
 798.40 1.172 0.012 2.48E-001 5.0E-003
 800.00 1.171 0.012 2.46E-001 4.9E-003
 801.60 1.170 0.012 2.43E-001 4.9E-003
 803.21 1.169 0.012 2.40E-001 4.8E-003
 804.83 1.169 0.012 2.38E-001 4.8E-003
 806.45 1.169 0.012 2.36E-001 4.7E-003
 808.08 1.168 0.012 2.33E-001 4.7E-003
 809.72 1.168 0.012 2.30E-001 4.6E-003
 811.36 1.167 0.012 2.28E-001 4.6E-003
 813.01 1.167 0.012 2.26E-001 4.5E-003
 814.66 1.166 0.012 2.23E-001 4.5E-003
 816.33 1.165 0.012 2.21E-001 4.4E-003
 818.00 1.165 0.012 2.18E-001 4.4E-003
 819.67 1.165 0.012 2.16E-001 4.3E-003
 821.36 1.165 0.012 2.14E-001 4.3E-003
 823.05 1.165 0.012 2.12E-001 4.2E-003
 824.74 1.164 0.012 2.09E-001 4.2E-003
 826.45 1.164 0.012 2.07E-001 4.1E-003
 828.16 1.163 0.012 2.05E-001 4.1E-003
 829.88 1.161 0.012 2.02E-001 4.0E-003
 831.60 1.160 0.012 1.99E-001 4.0E-003
 833.33 1.160 0.012 1.95E-001 3.9E-003
 835.07 1.160 0.012 1.91E-001 3.8E-003
 836.82 1.160 0.012 1.89E-001 3.8E-003
 838.57 1.160 0.012 1.85E-001 3.7E-003
 840.34 1.160 0.012 1.82E-001 3.6E-003
 842.11 1.161 0.012 1.78E-001 3.6E-003
 843.88 1.161 0.012 1.75E-001 3.5E-003
 845.67 1.163 0.012 1.72E-001 3.4E-003
 847.46 1.163 0.012 1.69E-001 3.4E-003
 849.26 1.164 0.012 1.66E-001 3.3E-003
 851.06 1.165 0.012 1.63E-001 3.3E-003
 852.88 1.166 0.012 1.60E-001 3.2E-003
 854.70 1.167 0.012 1.57E-001 3.1E-003
 856.53 1.169 0.012 1.55E-001 3.1E-003
 858.37 1.170 0.012 1.53E-001 3.1E-003
 860.22 1.171 0.012 1.50E-001 3.0E-003
 862.07 1.172 0.012 1.48E-001 3.0E-003
 863.93 1.174 0.012 1.46E-001 2.9E-003
 865.80 1.175 0.012 1.44E-001 2.9E-003
 867.68 1.176 0.012 1.42E-001 2.8E-003
 869.57 1.177 0.012 1.39E-001 2.8E-003
 871.46 1.178 0.012 1.37E-001 2.7E-003
 873.36 1.180 0.012 1.36E-001 2.7E-003
 875.27 1.180 0.012 1.33E-001 2.7E-003
 877.19 1.182 0.012 1.31E-001 2.6E-003
 879.12 1.183 0.012 1.29E-001 2.6E-003
 881.06 1.184 0.012 1.27E-001 2.5E-003
 883.00 1.185 0.012 1.25E-001 2.5E-003
 884.96 1.186 0.012 1.23E-001 2.5E-003
 886.92 1.187 0.012 1.21E-001 2.4E-003
 888.89 1.189 0.012 1.18E-001 2.4E-003
 890.87 1.191 0.012 1.17E-001 2.3E-003
 892.86 1.193 0.012 1.15E-001 2.3E-003
 894.85 1.194 0.012 1.14E-001 2.3E-003
 896.86 1.195 0.012 1.13E-001 2.3E-003
 898.88 1.196 0.012 1.10E-001 2.2E-003
 900.90 1.198 0.012 1.08E-001 2.2E-003
 902.93 1.199 0.012 1.06E-001 2.1E-003
 904.98 1.201 0.012 1.05E-001 2.1E-003
 907.03 1.203 0.012 1.04E-001 2.1E-003
 909.09 1.204 0.012 1.03E-001 2.1E-003
 911.16 1.206 0.012 1.02E-001 2.0E-003
 913.24 1.207 0.012 1.00E-001 2.0E-003
 915.33 1.208 0.012 9.90E-002 2.0E-003
 917.43 1.209 0.012 9.70E-002 1.9E-003
 919.54 1.210 0.012 9.60E-002 1.9E-003
 921.66 1.212 0.012 9.50E-002 1.9E-003
 923.79 1.213 0.012 9.30E-002 1.9E-003
 925.93 1.214 0.012 9.10E-002 1.8E-003
 928.07 1.216 0.012 9.00E-002 1.8E-003
 930.23 1.217 0.012 8.90E-002 1.8E-003
 932.40 1.219 0.012 8.70E-002 1.7E-003
 934.58 1.220 0.012 8.60E-002 1.7E-003
 936.77 1.222 0.012 8.50E-002 1.7E-003
 938.97 1.224 0.012 8.40E-002 1.7E-003
 941.18 1.225 0.012 8.30E-002 1.7E-003
 943.40 1.226 0.012 8.10E-002 1.6E-003
 945.63 1.228 0.012 8.00E-002 1.6E-003
 947.87 1.230 0.012 7.90E-002 1.6E-003
 950.12 1.231 0.012 7.80E-002 1.6E-003
 952.38 1.232 0.012 7.70E-002 1.5E-003
 954.65 1.234 0.012 7.70E-002 1.5E-003
 956.94 1.236 0.012 7.60E-002 1.5E-003
 959.23 1.237 0.012 7.50E-002 1.5E-003
 961.54 1.238 0.012 7.40E-002 1.5E-003
 963.86 1.240 0.012 7.30E-002 1.5E-003
 966.18 1.241 0.012 7.20E-002 1.4E-003
 968.52 1.243 0.012 7.10E-002 1.4E-003
 970.87 1.244 0.012 7.10E-002 1.4E-003
 973.24 1.246 0.012 7.00E-002 1.4E-003
 975.61 1.247 0.012 6.90E-002 1.4E-003
 978.00 1.249 0.012 6.80E-002 1.4E-003
 980.39 1.251 0.013 6.80E-002 1.4E-003
 982.80 1.252 0.013 6.70E-002 1.3E-003
 985.22 1.254 0.013 6.70E-002 1.3E-003
 987.65 1.256 0.013 6.60E-002 1.3E-003
 990.10 1.257 0.013 6.60E-002 1.3E-003
 992.56 1.258 0.013 6.60E-002 1.3E-003
 995.02 1.260 0.013 6.60E-002 1.3E-003
 997.51 1.261 0.013 6.50E-002 1.3E-003
1000.00 1.263 0.013 6.50E-002 1.3E-003
1001.00 1.263 0.013 6.50E-002 1.3E-003
1002.00 1.263 0.013 6.50E-002 1.3E-003
1003.01 1.264 0.013 6.50E-002 1.3E-003
1004.02 1.264 0.013 6.50E-002 1.3E-003
1005.03 1.264 0.013 6.50E-002 1.3E-003
1006.04 1.265 0.013 6.50E-002 1.3E-003
1007.05 1.265 0.013 6.40E-002 1.3E-003
1008.06 1.266 0.013 6.40E-002 1.3E-003
1009.08 1.266 0.013 6.40E-002 1.3E-003
1010.10 1.267 0.013 6.40E-002 1.3E-003
1011.12 1.267 0.013 6.40E-002 1.3E-003
1012.15 1.267 0.013 6.40E-002 1.3E-003
1013.17 1.267 0.013 6.40E-002 1.3E-003
1014.20 1.268 0.013 6.30E-002 1.3E-003
1015.23 1.269 0.013 6.30E-002 1.3E-003
1016.26 1.269 0.013 6.30E-002 1.3E-003
1017.29 1.269 0.013 6.30E-002 1.3E-003
1018.33 1.270 0.013 6.30E-002 1.3E-003
1019.37 1.270 0.013 6.20E-002 1.2E-003
1020.41 1.271 0.013 6.20E-002 1.2E-003
1021.45 1.271 0.013 6.20E-002 1.2E-003
1022.49 1.272 0.013 6.20E-002 1.2E-003
1023.54 1.273 0.013 6.20E-002 1.2E-003
1024.59 1.273 0.013 6.20E-002 1.2E-003
1025.64 1.274 0.013 6.20E-002 1.2E-003
1026.69 1.274 0.013 6.20E-002 1.2E-003
1027.75 1.275 0.013 6.10E-002 1.2E-003
1028.81 1.276 0.013 6.20E-002 1.2E-003
1029.87 1.276 0.013 6.20E-002 1.2E-003
1030.93 1.277 0.013 6.20E-002 1.2E-003
1031.99 1.277 0.013 6.20E-002 1.2E-003
1033.06 1.277 0.013 6.20E-002 1.2E-003
1034.13 1.277 0.013 6.20E-002 1.2E-003
1035.20 1.278 0.013 6.20E-002 1.2E-003
1036.27 1.278 0.013 6.20E-002 1.2E-003
1037.34 1.278 0.013 6.20E-002 1.2E-003
1038.42 1.279 0.013 6.20E-002 1.2E-003
1039.50 1.279 0.013 6.20E-002 1.2E-003
1040.58 1.280 0.013 6.20E-002 1.2E-003
1041.67 1.280 0.013 6.20E-002 1.2E-003
1042.75 1.280 0.013 6.20E-002 1.2E-003
1043.84 1.281 0.013 6.20E-002 1.2E-003
1044.93 1.281 0.013 6.20E-002 1.2E-003
1046.03 1.281 0.013 6.20E-002 1.2E-003
1047.12 1.281 0.013 6.20E-002 1.2E-003
1048.22 1.281 0.013 6.20E-002 1.2E-003
1049.32 1.281 0.013 6.20E-002 1.2E-003
1050.42 1.281 0.013 6.10E-002 1.2E-003
1051.52 1.282 0.013 6.10E-002 1.2E-003
1052.63 1.282 0.013 6.10E-002 1.2E-003
1053.74 1.282 0.013 6.00E-002 1.2E-003
1054.85 1.283 0.013 6.00E-002 1.2E-003
1055.97 1.283 0.013 6.00E-002 1.2E-003
1057.08 1.284 0.013 6.00E-002 1.2E-003
1058.20 1.285 0.013 6.00E-002 1.2E-003
1059.32 1.285 0.013 6.00E-002 1.2E-003
1060.45 1.286 0.013 6.00E-002 1.2E-003
1061.57 1.286 0.013 6.00E-002 1.2E-003
1062.70 1.286 0.013 6.00E-002 1.2E-003
1063.83 1.287 0.013 6.00E-002 1.2E-003
1064.96 1.287 0.013 6.00E-002 1.2E-003
1066.10 1.288 0.013 6.00E-002 1.2E-003
1067.24 1.288 0.013 6.00E-002 1.2E-003
1068.38 1.289 0.013 6.00E-002 1.2E-003
1069.52 1.289 0.013 6.00E-002 1.2E-003
1070.66 1.290 0.013 6.00E-002 1.2E-003
1071.81 1.290 0.013 6.00E-002 1.2E-003
1072.96 1.290 0.013 6.00E-002 1.2E-003
1074.11 1.290 0.013 6.00E-002 1.2E-003
1075.27 1.290 0.013 6.00E-002 1.2E-003
1076.43 1.290 0.013 6.00E-002 1.2E-003
1077.59 1.290 0.013 6.00E-002 1.2E-003
1078.75 1.291 0.013 6.00E-002 1.2E-003
1079.91 1.291 0.013 6.00E-002 1.2E-003
1081.08 1.292 0.013 6.00E-002 1.2E-003
1082.25 1.292 0.013 6.00E-002 1.2E-003
1083.42 1.292 0.013 6.00E-002 1.2E-003
1084.60 1.293 0.013 6.00E-002 1.2E-003
1085.78 1.293 0.013 6.00E-002 1.2E-003
1086.96 1.293 0.013 6.00E-002 1.2E-003
1088.14 1.293 0.013 6.00E-002 1.2E-003
1089.32 1.294 0.013 5.90E-002 1.2E-003
1090.51 1.294 0.013 6.00E-002 1.2E-003
1091.70 1.294 0.013 5.90E-002 1.2E-003
1092.90 1.295 0.013 5.90E-002 1.2E-003
1094.09 1.295 0.013 5.90E-002 1.2E-003
1095.29 1.296 0.013 5.90E-002 1.2E-003
1096.49 1.296 0.013 6.00E-002 1.2E-003
1097.69 1.296 0.013 6.00E-002 1.2E-003
1098.90 1.296 0.013 6.00E-002 1.2E-003
1100.11 1.296 0.013 5.90E-002 1.2E-003
1101.32 1.297 0.013 5.90E-002 1.2E-003
1102.54 1.297 0.013 5.90E-002 1.2E-003
1103.75 1.297 0.013 5.90E-002 1.2E-003
1104.97 1.298 0.013 5.90E-002 1.2E-003
1106.19 1.298 0.013 6.00E-002 1.2E-003
1107.42 1.298 0.013 6.00E-002 1.2E-003
1108.65 1.298 0.013 6.00E-002 1.2E-003
1109.88 1.298 0.013 5.90E-002 1.2E-003
1111.11 1.298 0.013 5.90E-002 1.2E-003
1112.35 1.298 0.013 5.90E-002 1.2E-003
1113.59 1.298 0.013 5.90E-002 1.2E-003
1114.83 1.298 0.013 5.90E-002 1.2E-003
1116.07 1.299 0.013 5.80E-002 1.2E-003
1117.32 1.299 0.013 5.80E-002 1.2E-003
1118.57 1.299 0.013 5.80E-002 1.2E-003
1119.82 1.300 0.013 5.80E-002 1.2E-003
1121.08 1.300 0.013 5.80E-002 1.2E-003
1122.33 1.300 0.013 5.80E-002 1.2E-003
1123.60 1.301 0.013 5.80E-002 1.2E-003
1124.86 1.301 0.013 5.80E-002 1.2E-003
1126.13 1.301 0.013 5.80E-002 1.2E-003
1127.40 1.302 0.013 5.70E-002 1.1E-003
1128.67 1.302 0.013 5.70E-002 1.1E-003
1129.94 1.302 0.013 5.70E-002 1.1E-003
1131.22 1.303 0.013 5.70E-002 1.1E-003
1132.50 1.303 0.013 5.70E-002 1.1E-003
1133.79 1.303 0.013 5.70E-002 1.1E-003
1135.07 1.303 0.013 5.70E-002 1.1E-003
1136.36 1.304 0.013 5.70E-002 1.1E-003
1137.66 1.304 0.013 5.70E-002 1.1E-003
1138.95 1.304 0.013 5.70E-002 1.1E-003
1140.25 1.304 0.013 5.60E-002 1.1E-003
1141.55 1.305 0.013 5.60E-002 1.1E-003
1142.86 1.305 0.013 5.60E-002 1.1E-003
1144.16 1.305 0.013 5.60E-002 1.1E-003
1145.48 1.306 0.013 5.60E-002 1.1E-003
1146.79 1.306 0.013 5.60E-002 1.1E-003
1148.11 1.306 0.013 5.60E-002 1.1E-003
1149.43 1.307 0.013 5.60E-002 1.1E-003
1150.75 1.307 0.013 5.60E-002 1.1E-003
1152.07 1.307 0.013 5.60E-002 1.1E-003
1153.40 1.307 0.013 5.60E-002 1.1E-003
1154.73 1.307 0.013 5.60E-002 1.1E-003
1156.07 1.308 0.013 5.60E-002 1.1E-003
1157.41 1.308 0.013 5.60E-002 1.1E-003
1158.75 1.308 0.013 5.60E-002 1.1E-003
1160.09 1.309 0.013 5.50E-002 1.1E-003
1161.44 1.309 0.013 5.50E-002 1.1E-003
1162.79 1.309 0.013 5.50E-002 1.1E-003
1164.14 1.310 0.013 5.50E-002 1.1E-003
1165.50 1.310 0.013 5.50E-002 1.1E-003
1166.86 1.310 0.013 5.50E-002 1.1E-003
1168.22 1.310 0.013 5.50E-002 1.1E-003
1169.59 1.311 0.013 5.50E-002 1.1E-003
1170.96 1.311 0.013 5.50E-002 1.1E-003
1172.33 1.311 0.013 5.50E-002 1.1E-003
1173.71 1.312 0.013 5.50E-002 1.1E-003
1175.09 1.312 0.013 5.50E-002 1.1E-003
1176.47 1.312 0.013 5.50E-002 1.1E-003
1177.86 1.313 0.013 5.50E-002 1.1E-003
1179.25 1.313 0.013 5.50E-002 1.1E-003
1180.64 1.313 0.013 5.50E-002 1.1E-003
1182.03 1.313 0.013 5.50E-002 1.1E-003
1183.43 1.313 0.013 5.40E-002 1.1E-003
1184.83 1.313 0.013 5.40E-002 1.1E-003
1186.24 1.314 0.013 5.40E-002 1.1E-003
1187.65 1.314 0.013 5.40E-002 1.1E-003
1189.06 1.314 0.013 5.40E-002 1.1E-003
1190.48 1.315 0.013 5.30E-002 1.1E-003
1191.90 1.315 0.013 5.30E-002 1.1E-003
1193.32 1.316 0.013 5.30E-002 1.1E-003
1194.74 1.316 0.013 5.30E-002 1.1E-003
1196.17 1.316 0.013 5.40E-002 1.1E-003
1197.60 1.317 0.013 5.30E-002 1.1E-003
1199.04 1.317 0.013 5.30E-002 1.1E-003
1200.48 1.317 0.013 5.30E-002 1.1E-003
1201.92 1.318 0.013 5.30E-002 1.1E-003
1203.37 1.318 0.013 5.30E-002 1.1E-003
1204.82 1.318 0.013 5.30E-002 1.1E-003
1206.27 1.319 0.013 5.30E-002 1.1E-003
1207.73 1.319 0.013 5.30E-002 1.1E-003
1209.19 1.319 0.013 5.30E-002 1.1E-003
1210.65 1.319 0.013 5.30E-002 1.1E-003
1212.12 1.319 0.013 5.30E-002 1.1E-003
1213.59 1.320 0.013 5.30E-002 1.1E-003
1215.07 1.320 0.013 5.30E-002 1.1E-003
1216.54 1.321 0.013 5.30E-002 1.1E-003
1218.03 1.321 0.013 5.30E-002 1.1E-003
1219.51 1.321 0.013 5.20E-002 1.0E-003
1221.00 1.321 0.013 5.20E-002 1.0E-003
1222.49 1.322 0.013 5.20E-002 1.0E-003
1223.99 1.322 0.013 5.20E-002 1.0E-003
1225.49 1.323 0.013 5.20E-002 1.0E-003
1226.99 1.323 0.013 5.20E-002 1.0E-003
1228.50 1.323 0.013 5.20E-002 1.0E-003
1230.01 1.324 0.013 5.20E-002 1.0E-003
1231.53 1.324 0.013 5.20E-002 1.0E-003
1233.05 1.325 0.013 5.20E-002 1.0E-003
1234.57 1.325 0.013 5.20E-002 1.0E-003
1236.09 1.325 0.013 5.20E-002 1.0E-003
1237.62 1.326 0.013 5.10E-002 1.0E-003
1239.16 1.326 0.013 5.10E-002 1.0E-003
1240.69 1.326 0.013 5.10E-002 1.0E-003
1242.24 1.327 0.013 5.10E-002 1.0E-003
1243.78 1.327 0.013 5.10E-002 1.0E-003
1245.33 1.328 0.013 5.10E-002 1.0E-003
1246.88 1.328 0.013 5.10E-002 1.0E-003
1248.44 1.328 0.013 5.10E-002 1.0E-003
1250.00 1.329 0.013 5.00E-002 1.0E-003
1251.56 1.330 0.013 5.00E-002 1.0E-003
1253.13 1.330 0.013 5.00E-002 1.0E-003
1254.71 1.331 0.013 4.90E-002 9.8E-003
1256.28 1.332 0.013 4.90E-002 9.8E-003
1257.86 1.333 0.013 4.90E-002 9.8E-003
1259.45 1.334 0.013 4.90E-002 9.8E-003
1261.03 1.335 0.013 4.90E-002 9.8E-003
1262.63 1.335 0.013 5.00E-002 1.0E-003
1264.22 1.336 0.013 5.00E-002 1.0E-003
1265.82 1.337 0.013 5.00E-002 1.0E-003
1267.43 1.338 0.013 5.00E-002 1.0E-003
1269.04 1.338 0.013 5.10E-002 1.0E-003
1270.65 1.339 0.013 5.10E-002 1.0E-003
1272.26 1.340 0.013 5.10E-002 1.0E-003
1273.89 1.341 0.013 5.20E-002 1.0E-003
1275.51 1.342 0.013 5.20E-002 1.0E-003
1277.14 1.342 0.013 5.20E-002 1.0E-003
1278.77 1.343 0.013 5.30E-002 1.1E-003
1280.41 1.344 0.013 5.30E-002 1.1E-003
1282.05 1.345 0.013 5.40E-002 1.1E-003
1283.70 1.345 0.013 5.40E-002 1.1E-003
1285.35 1.346 0.013 5.50E-002 1.1E-003
1287.00 1.347 0.013 5.50E-002 1.1E-003
1288.66 1.348 0.013 5.60E-002 1.1E-003
1290.32 1.348 0.013 5.70E-002 1.1E-003
1291.99 1.349 0.013 5.70E-002 1.1E-003
1293.66 1.350 0.014 5.80E-002 1.2E-003
1295.34 1.351 0.014 5.90E-002 1.2E-003
1297.02 1.351 0.014 6.00E-002 1.2E-003
1298.70 1.352 0.014 6.10E-002 1.2E-003
1300.39 1.353 0.014 6.10E-002 1.2E-003
1302.08 1.353 0.014 6.20E-002 1.2E-003
1303.78 1.354 0.014 6.30E-002 1.3E-003
1305.48 1.355 0.014 6.40E-002 1.3E-003
1307.19 1.356 0.014 6.60E-002 1.3E-003
1308.90 1.357 0.014 6.70E-002 1.3E-003
1310.62 1.358 0.014 6.90E-002 1.4E-003
1312.34 1.358 0.014 7.00E-002 1.4E-003
1314.06 1.358 0.014 7.20E-002 1.4E-003
1315.79 1.358 0.014 7.40E-002 1.5E-003
1317.52 1.358 0.014 7.50E-002 1.5E-003
1319.26 1.358 0.014 7.70E-002 1.5E-003
1321.00 1.358 0.014 7.90E-002 1.6E-003
1322.75 1.359 0.014 8.10E-002 1.6E-003
1324.50 1.358 0.014 8.30E-002 1.7E-003
1326.26 1.357 0.014 8.50E-002 1.7E-003
1328.02 1.357 0.014 8.70E-002 1.7E-003
1329.79 1.356 0.014 8.90E-002 1.8E-003
1331.56 1.354 0.014 9.10E-002 1.8E-003
1333.33 1.353 0.014 9.30E-002 1.9E-003
1335.11 1.351 0.014 9.40E-002 1.9E-003
1336.90 1.349 0.013 9.60E-002 1.9E-003
1338.69 1.347 0.013 9.80E-002 2.0E-003
1340.48 1.344 0.013 9.80E-002 2.0E-003
1342.28 1.343 0.013 9.80E-002 2.0E-003
1344.09 1.341 0.013 9.90E-002 2.0E-003
1345.90 1.339 0.013 9.80E-002 2.0E-003
1347.71 1.338 0.013 9.90E-002 2.0E-003
1349.53 1.336 0.013 9.90E-002 2.0E-003
1351.35 1.334 0.013 9.90E-002 2.0E-003
1353.18 1.332 0.013 9.90E-002 2.0E-003
1355.01 1.331 0.013 9.80E-002 2.0E-003
1356.85 1.330 0.013 9.80E-002 2.0E-003
1358.70 1.328 0.013 9.90E-002 2.0E-003
1360.54 1.326 0.013 9.80E-002 2.0E-003
1362.40 1.325 0.013 9.70E-002 1.9E-003
1364.26 1.324 0.013 9.60E-002 1.9E-003
1366.12 1.323 0.013 9.50E-002 1.9E-003
1367.99 1.323 0.013 9.50E-002 1.9E-003
1369.86 1.322 0.013 9.50E-002 1.9E-003
1371.74 1.321 0.013 9.40E-002 1.9E-003
1373.63 1.320 0.013 9.40E-002 1.9E-003
1375.52 1.319 0.013 9.40E-002 1.9E-003
1377.41 1.318 0.013 9.30E-002 1.9E-003
1379.31 1.318 0.013 9.30E-002 1.9E-003
1381.22 1.316 0.013 9.20E-002 1.8E-003
1383.13 1.316 0.013 9.20E-002 1.8E-003
1385.04 1.315 0.013 9.10E-002 1.8E-003
1386.96 1.315 0.013 9.20E-002 1.8E-003
1388.89 1.313 0.013 9.10E-002 1.8E-003
1390.82 1.312 0.013 9.10E-002 1.8E-003
1392.76 1.312 0.013 9.00E-002 1.8E-003
1394.70 1.310 0.013 9.10E-002 1.8E-003
1396.65 1.308 0.013 9.00E-002 1.8E-003
1398.60 1.307 0.013 8.90E-002 1.8E-003
1400.56 1.305 0.013 8.80E-002 1.8E-003
1402.52 1.304 0.013 8.60E-002 1.7E-003
1404.49 1.303 0.013 8.50E-002 1.7E-003
1406.47 1.302 0.013 8.40E-002 1.7E-003
1408.45 1.302 0.013 8.20E-002 1.6E-003
1410.44 1.301 0.013 8.10E-002 1.6E-003
1412.43 1.300 0.013 8.00E-002 1.6E-003
1414.43 1.300 0.013 7.80E-002 1.6E-003
1416.43 1.300 0.013 7.70E-002 1.5E-003
1418.44 1.298 0.013 7.60E-002 1.5E-003
1420.45 1.297 0.013 7.40E-002 1.5E-003
1422.48 1.297 0.013 7.20E-002 1.4E-003
1424.50 1.296 0.013 6.90E-002 1.4E-003
1426.53 1.297 0.013 6.70E-002 1.3E-003
1428.57 1.298 0.013 6.60E-002 1.3E-003
1430.62 1.297 0.013 6.40E-002 1.3E-003
1432.66 1.298 0.013 6.20E-002 1.2E-003
1434.72 1.299 0.013 6.10E-002 1.2E-003
1436.78 1.299 0.013 6.00E-002 1.2E-003
1438.85 1.300 0.013 5.80E-002 1.2E-003
1440.92 1.300 0.013 5.70E-002 1.1E-003
1443.00 1.301 0.013 5.50E-002 1.1E-003
1445.09 1.302 0.013 5.30E-002 1.1E-003
1447.18 1.303 0.013 5.20E-002 1.0E-003
1449.28 1.304 0.013 5.10E-002 1.0E-003
1451.38 1.305 0.013 5.00E-002 1.0E-003
1453.49 1.306 0.013 4.90E-002 9.8E-003
1455.60 1.308 0.013 4.80E-002 9.6E-003
1457.73 1.309 0.013 4.70E-002 9.4E-003
1459.85 1.311 0.013 4.70E-002 9.4E-003
1461.99 1.311 0.013 4.70E-002 9.4E-003
1464.13 1.312 0.013 4.60E-002 9.2E-003
1466.28 1.313 0.013 4.60E-002 9.2E-003
1468.43 1.314 0.013 4.60E-002 9.2E-003
1470.59 1.315 0.013 4.50E-002 9.0E-003
1472.75 1.316 0.013 4.50E-002 9.0E-003
1474.93 1.317 0.013 4.40E-002 8.8E-003
1477.10 1.317 0.013 4.40E-002 8.8E-003
1479.29 1.318 0.013 4.30E-002 8.6E-003
1481.48 1.319 0.013 4.30E-002 8.6E-003
1483.68 1.320 0.013 4.30E-002 8.6E-003
1485.88 1.321 0.013 4.20E-002 8.4E-003
1488.10 1.322 0.013 4.20E-002 8.4E-003
1490.31 1.323 0.013 4.20E-002 8.4E-003
1492.54 1.324 0.013 4.20E-002 8.4E-003
1494.77 1.325 0.013 4.10E-002 8.2E-003
1497.01 1.326 0.013 4.10E-002 8.2E-003
1499.25 1.327 0.013 4.10E-002 8.2E-003
1501.50 1.328 0.013 4.10E-002 8.2E-003
1503.76 1.329 0.013 4.10E-002 8.2E-003
1506.02 1.330 0.013 4.10E-002 8.2E-003
1508.30 1.331 0.013 4.10E-002 8.2E-003
1510.57 1.332 0.013 4.10E-002 8.2E-003
1512.86 1.333 0.013 4.10E-002 8.2E-003
1515.15 1.334 0.013 4.10E-002 8.2E-003
1517.45 1.335 0.013 4.10E-002 8.2E-003
1519.76 1.336 0.013 4.10E-002 8.2E-003
1522.07 1.337 0.013 4.10E-002 8.2E-003
1524.39 1.338 0.013 4.10E-002 8.2E-003
1526.72 1.339 0.013 4.20E-002 8.4E-003
1529.05 1.340 0.013 4.20E-002 8.4E-003
1531.39 1.341 0.013 4.20E-002 8.4E-003
1533.74 1.342 0.013 4.20E-002 8.4E-003
1536.10 1.343 0.013 4.30E-002 8.6E-003
1538.46 1.344 0.013 4.30E-002 8.6E-003
1540.83 1.346 0.013 4.30E-002 8.6E-003
1543.21 1.347 0.013 4.40E-002 8.8E-003
1545.60 1.348 0.013 4.40E-002 8.8E-003
1547.99 1.349 0.013 4.40E-002 8.8E-003
1550.39 1.350 0.014 4.50E-002 9.0E-003
1552.80 1.351 0.014 4.60E-002 9.2E-003
1555.21 1.352 0.014 4.60E-002 9.2E-003
1557.63 1.354 0.014 4.70E-002 9.4E-003
1560.06 1.355 0.014 4.80E-002 9.6E-003
1562.50 1.356 0.014 4.90E-002 9.8E-003
1564.95 1.357 0.014 4.90E-002 9.8E-003
1567.40 1.359 0.014 5.00E-002 1.0E-003
1569.86 1.360 0.014 5.10E-002 1.0E-003
1572.33 1.362 0.014 5.20E-002 1.0E-003
1574.80 1.363 0.014 5.40E-002 1.1E-003
1577.29 1.364 0.014 5.50E-002 1.1E-003
1579.78 1.366 0.014 5.70E-002 1.1E-003
1582.28 1.367 0.014 5.80E-002 1.2E-003
1584.79 1.369 0.014 6.00E-002 1.2E-003
1587.30 1.370 0.014 6.20E-002 1.2E-003
1589.83 1.372 0.014 6.40E-002 1.3E-003
1592.36 1.373 0.014 6.70E-002 1.3E-003
1594.90 1.375 0.014 6.90E-002 1.4E-003
1597.44 1.376 0.014 7.20E-002 1.4E-003
1600.00 1.377 0.014 7.60E-002 1.5E-003
1602.56 1.378 0.014 7.90E-002 1.6E-003
1605.14 1.379 0.014 8.20E-002 1.6E-003
1607.72 1.380 0.014 8.60E-002 1.7E-003
1610.31 1.380 0.014 9.10E-002 1.8E-003
1612.90 1.381 0.014 9.60E-002 1.9E-003
1615.51 1.381 0.014 1.02E-001 2.0E-003
1618.12 1.380 0.014 1.09E-001 2.2E-003
1620.75 1.377 0.014 1.15E-001 2.3E-003
1623.38 1.373 0.014 1.22E-001 2.4E-003
1626.02 1.368 0.014 1.28E-001 2.6E-003
1628.66 1.362 0.014 1.32E-001 2.6E-003
1631.32 1.355 0.014 1.36E-001 2.7E-003
1633.99 1.348 0.013 1.39E-001 2.8E-003
1636.66 1.341 0.013 1.41E-001 2.8E-003
1639.34 1.334 0.013 1.42E-001 2.8E-003
1642.04 1.327 0.013 1.43E-001 2.9E-003
1644.74 1.320 0.013 1.42E-001 2.8E-003
1647.45 1.313 0.013 1.41E-001 2.8E-003
1650.17 1.307 0.013 1.38E-001 2.8E-003
1652.89 1.301 0.013 1.36E-001 2.7E-003
1655.63 1.296 0.013 1.33E-001 2.7E-003
1658.37 1.291 0.013 1.30E-001 2.6E-003
1661.13 1.286 0.013 1.26E-001 2.5E-003
1663.89 1.282 0.013 1.22E-001 2.4E-003
1666.67 1.278 0.013 1.18E-001 2.4E-003
1669.45 1.276 0.013 1.14E-001 2.3E-003
1672.24 1.273 0.013 1.10E-001 2.2E-003
1675.04 1.271 0.013 1.06E-001 2.1E-003
1677.85 1.268 0.013 1.02E-001 2.0E-003
1680.67 1.267 0.013 9.70E-002 1.9E-003
1683.50 1.266 0.013 9.30E-002 1.9E-003
1686.34 1.264 0.013 8.90E-002 1.8E-003
1689.19 1.263 0.013 8.40E-002 1.7E-003
1692.05 1.263 0.013 7.90E-002 1.6E-003
1694.92 1.264 0.013 7.40E-002 1.5E-003
1697.79 1.265 0.013 7.10E-002 1.4E-003
1700.68 1.265 0.013 6.70E-002 1.3E-003
1703.58 1.267 0.013 6.30E-002 1.3E-003
1706.48 1.268 0.013 6.00E-002 1.2E-003
1709.40 1.270 0.013 5.70E-002 1.1E-003
1712.33 1.273 0.013 5.50E-002 1.1E-003
1715.27 1.274 0.013 5.40E-002 1.1E-003
1718.21 1.275 0.013 5.20E-002 1.0E-003
1721.17 1.276 0.013 5.00E-002 1.0E-003
1724.14 1.278 0.013 4.90E-002 9.8E-003
1727.12 1.279 0.013 4.70E-002 9.4E-003
1730.10 1.280 0.013 4.60E-002 9.2E-003
1733.10 1.282 0.013 4.50E-002 9.0E-003
1736.11 1.282 0.013 4.40E-002 8.8E-003
1739.13 1.283 0.013 4.20E-002 8.4E-003
1742.16 1.284 0.013 4.10E-002 8.2E-003
1745.20 1.285 0.013 3.90E-002 7.8E-003
1748.25 1.287 0.013 3.80E-002 7.6E-003
1751.31 1.288 0.013 3.80E-002 7.6E-003
1754.39 1.289 0.013 3.80E-002 7.6E-003
1757.47 1.289 0.013 3.70E-002 7.4E-003
1760.56 1.290 0.013 3.60E-002 7.2E-003
1763.67 1.291 0.013 3.50E-002 7.0E-003
1766.78 1.292 0.013 3.40E-002 6.8E-003
1769.91 1.293 0.013 3.40E-002 6.8E-003
1773.05 1.294 0.013 3.30E-002 6.6E-003
1776.20 1.294 0.013 3.20E-002 6.4E-003
1779.36 1.295 0.013 3.10E-002 6.2E-003
1782.53 1.296 0.013 3.10E-002 6.2E-003
1785.71 1.297 0.013 3.00E-002 6.0E-003
1788.91 1.298 0.013 3.00E-002 6.0E-003
1792.11 1.299 0.013 2.90E-002 5.8E-003
1795.33 1.300 0.013 2.90E-002 5.8E-003
1798.56 1.300 0.013 2.80E-002 5.6E-003
1801.80 1.301 0.013 2.80E-002 5.6E-003
1805.05 1.302 0.013 2.70E-002 5.4E-003
1808.32 1.303 0.013 2.70E-002 5.4E-003
1811.59 1.303 0.013 2.60E-002 5.2E-003
1814.88 1.304 0.013 2.60E-002 5.2E-003
1818.18 1.305 0.013 2.60E-002 5.2E-003
1821.49 1.306 0.013 2.50E-002 5.0E-003
1824.82 1.307 0.013 2.50E-002 5.0E-003
1828.15 1.307 0.013 2.50E-002 5.0E-003
1831.50 1.308 0.013 2.50E-002 5.0E-003
1834.86 1.308 0.013 2.40E-002 4.8E-003
1838.24 1.309 0.013 2.40E-002 4.8E-003
1841.62 1.310 0.013 2.30E-002 4.6E-003
1845.02 1.310 0.013 2.30E-002 4.6E-003
1848.43 1.311 0.013 2.30E-002 4.6E-003
1851.85 1.311 0.013 2.30E-002 4.6E-003
1855.29 1.312 0.013 2.20E-002 4.4E-003
1858.74 1.313 0.013 2.20E-002 4.4E-003
1862.20 1.314 0.013 2.20E-002 4.4E-003
1865.67 1.314 0.013 2.20E-002 4.4E-003
1869.16 1.314 0.013 2.20E-002 4.4E-003
1872.66 1.315 0.013 2.10E-002 4.2E-003
1876.17 1.315 0.013 2.10E-002 4.2E-003
1879.70 1.316 0.013 2.10E-002 4.2E-003
1883.24 1.317 0.013 2.00E-002 4.0E-003
1886.79 1.318 0.013 2.00E-002 4.0E-003
1890.36 1.318 0.013 2.00E-002 4.0E-003
1893.94 1.319 0.013 2.00E-002 4.0E-003
1897.53 1.319 0.013 2.00E-002 4.0E-003
1901.14 1.319 0.013 2.00E-002 4.0E-003
1904.76 1.320 0.013 2.00E-002 4.0E-003
1908.40 1.321 0.013 1.90E-002 3.8E-003
1912.05 1.321 0.013 1.90E-002 3.8E-003
1915.71 1.322 0.013 1.90E-002 3.8E-003
1919.39 1.323 0.013 1.90E-002 3.8E-003
1923.08 1.323 0.013 1.90E-002 3.8E-003
1926.78 1.324 0.013 1.90E-002 3.8E-003
1930.50 1.324 0.013 1.90E-002 3.8E-003
1934.24 1.324 0.013 1.90E-002 3.8E-003
1937.98 1.325 0.013 1.90E-002 3.8E-003
1941.75 1.326 0.013 1.90E-002 3.8E-003
1945.53 1.326 0.013 1.90E-002 3.8E-003
1949.32 1.326 0.013 1.90E-002 3.8E-003
1953.13 1.327 0.013 1.90E-002 3.8E-003
1956.95 1.327 0.013 1.90E-002 3.8E-003
1960.78 1.328 0.013 1.90E-002 3.8E-003
1964.64 1.328 0.013 1.90E-002 3.8E-003
1968.50 1.328 0.013 1.90E-002 3.8E-003
1972.39 1.329 0.013 1.90E-002 3.8E-003
1976.28 1.329 0.013 1.90E-002 3.8E-003
1980.20 1.330 0.013 1.90E-002 3.8E-003
1984.13 1.330 0.013 1.90E-002 3.8E-003
1988.07 1.330 0.013 1.90E-002 3.8E-003
1992.03 1.331 0.013 1.90E-002 3.8E-003
1996.01 1.331 0.013 1.90E-002 3.8E-003
2000.00 1.332 0.013 1.90E-002 3.8E-003
2004.01 1.332 0.013 1.90E-002 3.8E-003
2008.03 1.332 0.013 1.90E-002 3.8E-003
2012.07 1.332 0.013 1.90E-002 3.8E-003
2016.13 1.333 0.013 1.90E-002 3.8E-003
2020.20 1.333 0.013 1.90E-002 3.8E-003
2024.29 1.333 0.013 1.90E-002 3.8E-003
2028.40 1.333 0.013 1.90E-002 3.8E-003
2032.52 1.334 0.013 1.90E-002 3.8E-003
2036.66 1.334 0.013 1.90E-002 3.8E-003
2040.82 1.335 0.013 1.90E-002 3.8E-003
2044.99 1.335 0.013 1.90E-002 3.8E-003
2049.18 1.335 0.013 1.90E-002 3.8E-003
2053.39 1.336 0.013 1.90E-002 3.8E-003
2057.61 1.336 0.013 2.00E-002 4.0E-003
2061.86 1.336 0.013 2.00E-002 4.0E-003
2066.12 1.336 0.013 2.00E-002 4.0E-003
2070.39 1.337 0.013 2.00E-002 4.0E-003
2074.69 1.337 0.013 2.00E-002 4.0E-003
2079.00 1.337 0.013 2.00E-002 4.0E-003
2083.33 1.337 0.013 2.00E-002 4.0E-003
2087.68 1.337 0.013 2.00E-002 4.0E-003
2092.05 1.337 0.013 2.00E-002 4.0E-003
2096.44 1.337 0.013 2.00E-002 4.0E-003
2100.84 1.338 0.013 2.00E-002 4.0E-003
2105.26 1.338 0.013 2.00E-002 4.0E-003
2109.70 1.338 0.013 2.00E-002 4.0E-003
2114.16 1.338 0.013 2.00E-002 4.0E-003
2118.64 1.338 0.013 2.00E-002 4.0E-003
2123.14 1.338 0.013 2.00E-002 4.0E-003
2127.66 1.338 0.013 2.00E-002 4.0E-003
2132.20 1.338 0.013 2.00E-002 4.0E-003
2136.75 1.338 0.013 2.00E-002 4.0E-003
2141.33 1.338 0.013 2.00E-002 4.0E-003
2145.92 1.338 0.013 2.00E-002 4.0E-003
2150.54 1.338 0.013 1.90E-002 3.8E-003
2155.17 1.338 0.013 1.90E-002 3.8E-003
2159.83 1.339 0.013 1.90E-002 3.8E-003
2164.50 1.339 0.013 1.90E-002 3.8E-003
2169.20 1.339 0.013 1.90E-002 3.8E-003
2173.91 1.339 0.013 1.90E-002 3.8E-003
2178.65 1.339 0.013 1.80E-002 3.6E-003
2183.41 1.339 0.013 1.80E-002 3.6E-003
2188.18 1.339 0.013 1.80E-002 3.6E-003
2192.98 1.339 0.013 1.80E-002 3.6E-003
2197.80 1.339 0.013 1.70E-002 3.4E-003
2202.64 1.339 0.013 1.70E-002 3.4E-003
2207.51 1.340 0.013 1.60E-002 3.2E-003
2212.39 1.340 0.013 1.60E-002 3.2E-003
2217.29 1.341 0.013 1.60E-002 3.2E-003
2222.22 1.341 0.013 1.60E-002 3.2E-003
2227.17 1.341 0.013 1.60E-002 3.2E-003
2232.14 1.342 0.013 1.50E-002 3.0E-003
2237.14 1.342 0.013 1.50E-002 3.0E-003
2242.15 1.342 0.013 1.50E-002 3.0E-003
2247.19 1.342 0.013 1.50E-002 3.0E-003
2252.25 1.343 0.013 1.40E-002 2.8E-003
2257.34 1.343 0.013 1.40E-002 2.8E-003
2262.44 1.343 0.013 1.40E-002 2.8E-003
2267.57 1.344 0.013 1.40E-002 2.8E-003
2272.73 1.344 0.013 1.40E-002 2.8E-003
2277.90 1.344 0.013 1.30E-002 2.6E-003
2283.10 1.344 0.013 1.30E-002 2.6E-003
2288.33 1.345 0.013 1.30E-002 2.6E-003
2293.58 1.345 0.013 1.30E-002 2.6E-003
2298.85 1.346 0.013 1.20E-002 2.4E-003
2304.15 1.346 0.013 1.20E-002 2.4E-003
2309.47 1.346 0.013 1.20E-002 2.4E-003
2314.81 1.347 0.013 1.20E-002 2.4E-003
2320.19 1.347 0.013 1.20E-002 2.4E-003
2325.58 1.348 0.013 1.20E-002 2.4E-003
2331.00 1.348 0.013 1.10E-002 2.2E-003
2336.45 1.349 0.013 1.10E-002 2.2E-003
2341.92 1.349 0.013 1.10E-002 2.2E-003
2347.42 1.349 0.013 1.10E-002 2.2E-003
2352.94 1.350 0.014 1.10E-002 2.2E-003
2358.49 1.350 0.014 1.10E-002 2.2E-003
2364.07 1.351 0.014 1.10E-002 2.2E-003
2369.67 1.351 0.014 1.00E-002 2.0E-003
2375.30 1.352 0.014 1.00E-002 2.0E-003
2380.95 1.352 0.014 1.00E-002 2.0E-003
2386.63 1.352 0.014 1.00E-002 2.0E-003
2392.34 1.352 0.014 1.00E-002 2.0E-003
2398.08 1.353 0.014 1.00E-002 2.0E-003
2403.85 1.353 0.014 1.00E-002 2.0E-003
2409.64 1.354 0.014 1.00E-002 2.0E-003
2415.46 1.354 0.014 1.00E-002 2.0E-003
2421.31 1.354 0.014 9.00E-003 9.0E-003
2427.18 1.355 0.014 9.00E-003 9.0E-003
2433.09 1.355 0.014 9.00E-003 9.0E-003
2439.02 1.356 0.014 9.00E-003 9.0E-003
2444.99 1.356 0.014 9.00E-003 9.0E-003
2450.98 1.356 0.014 8.00E-003 8.0E-003
2457.00 1.357 0.014 8.00E-003 8.0E-003
2463.05 1.357 0.014 8.00E-003 8.0E-003
2469.14 1.358 0.014 7.00E-003 7.0E-003
2475.25 1.359 0.014 7.00E-003 7.0E-003
2481.39 1.360 0.014 7.00E-003 7.0E-003
2487.56 1.360 0.014 7.00E-003 7.0E-003
2493.77 1.361 0.014 7.00E-003 7.0E-003
2500.00 1.361 0.014 6.00E-003 6.0E-003
2503.13 1.362 0.014 6.00E-003 6.0E-003
2506.27 1.362 0.014 6.00E-003 6.0E-003
2509.41 1.362 0.014 6.00E-003 6.0E-003
2512.56 1.363 0.014 6.00E-003 6.0E-003
2515.72 1.363 0.014 6.00E-003 6.0E-003
2518.89 1.364 0.014 6.00E-003 6.0E-003
2522.07 1.364 0.014 6.00E-003 6.0E-003
2525.25 1.364 0.014 6.00E-003 6.0E-003
2528.45 1.364 0.014 6.00E-003 6.0E-003
2531.65 1.365 0.014 6.00E-003 6.0E-003
2534.85 1.365 0.014 6.00E-003 6.0E-003
2538.07 1.366 0.014 6.00E-003 6.0E-003
2541.30 1.366 0.014 6.00E-003 6.0E-003
2544.53 1.366 0.014 6.00E-003 6.0E-003
2547.77 1.366 0.014 6.00E-003 6.0E-003
2551.02 1.367 0.014 6.00E-003 6.0E-003
2554.28 1.367 0.014 6.00E-003 6.0E-003
2557.54 1.368 0.014 6.00E-003 6.0E-003
2560.82 1.368 0.014 6.00E-003 6.0E-003
2564.10 1.369 0.014 6.00E-003 6.0E-003
2567.39 1.369 0.014 6.00E-003 6.0E-003
2570.69 1.369 0.014 6.00E-003 6.0E-003
2574.00 1.370 0.014 6.00E-003 6.0E-003
2577.32 1.370 0.014 6.00E-003 6.0E-003
2580.65 1.370 0.014 6.00E-003 6.0E-003
2583.98 1.371 0.014 6.00E-003 6.0E-003
2587.32 1.371 0.014 6.00E-003 6.0E-003
2590.67 1.371 0.014 6.00E-003 6.0E-003
2594.03 1.372 0.014 6.00E-003 6.0E-003
2597.40 1.372 0.014 6.00E-003 6.0E-003
2600.78 1.372 0.014 6.00E-003 6.0E-003
2604.17 1.373 0.014 6.00E-003 6.0E-003
2607.56 1.373 0.014 6.00E-003 6.0E-003
2610.97 1.373 0.014 6.00E-003 6.0E-003
2614.38 1.374 0.014 6.00E-003 6.0E-003
2617.80 1.374 0.014 6.00E-003 6.0E-003
2621.23 1.375 0.014 6.00E-003 6.0E-003
2624.67 1.375 0.014 6.00E-003 6.0E-003
2628.12 1.375 0.014 6.00E-003 6.0E-003
2631.58 1.376 0.014 6.00E-003 6.0E-003
2635.05 1.376 0.014 6.00E-003 6.0E-003
2638.52 1.377 0.014 6.00E-003 6.0E-003
2642.01 1.377 0.014 6.00E-003 6.0E-003
2645.50 1.378 0.014 6.00E-003 6.0E-003
2649.01 1.378 0.014 7.00E-003 7.0E-003
2652.52 1.378 0.014 7.00E-003 7.0E-003
2656.04 1.379 0.014 6.00E-003 6.0E-003
2659.57 1.380 0.014 7.00E-003 7.0E-003
2663.12 1.380 0.014 7.00E-003 7.0E-003
2666.67 1.380 0.014 7.00E-003 7.0E-003
2670.23 1.380 0.014 7.00E-003 7.0E-003
2673.80 1.381 0.014 7.00E-003 7.0E-003
2677.38 1.381 0.014 7.00E-003 7.0E-003
2680.97 1.381 0.014 7.00E-003 7.0E-003
2684.56 1.382 0.014 7.00E-003 7.0E-003
2688.17 1.383 0.014 7.00E-003 7.0E-003
2691.79 1.383 0.014 7.00E-003 7.0E-003
2695.42 1.384 0.014 7.00E-003 7.0E-003
2699.06 1.384 0.014 7.00E-003 7.0E-003
2702.70 1.384 0.014 8.00E-003 8.0E-003
2706.36 1.385 0.014 8.00E-003 8.0E-003
2710.03 1.385 0.014 8.00E-003 8.0E-003
2713.70 1.386 0.014 7.00E-003 7.0E-003
2717.39 1.387 0.014 8.00E-003 8.0E-003
2721.09 1.387 0.014 8.00E-003 8.0E-003
2724.80 1.387 0.014 8.00E-003 8.0E-003
2728.51 1.388 0.014 8.00E-003 8.0E-003
2732.24 1.388 0.014 8.00E-003 8.0E-003
2735.98 1.389 0.014 8.00E-003 8.0E-003
2739.73 1.389 0.014 8.00E-003 8.0E-003
2743.48 1.390 0.014 8.00E-003 8.0E-003
2747.25 1.390 0.014 8.00E-003 8.0E-003
2751.03 1.391 0.014 8.00E-003 8.0E-003
2754.82 1.392 0.014 8.00E-003 8.0E-003
2758.62 1.392 0.014 8.00E-003 8.0E-003
2762.43 1.394 0.014 8.00E-003 8.0E-003
2766.25 1.394 0.014 9.00E-003 9.0E-003
2770.08 1.394 0.014 9.00E-003 9.0E-003
2773.93 1.395 0.014 9.00E-003 9.0E-003
2777.78 1.396 0.014 9.00E-003 9.0E-003
2781.64 1.396 0.014 1.00E-002 2.0E-003
2785.52 1.397 0.014 1.00E-002 2.0E-003
2789.40 1.397 0.014 1.00E-002 2.0E-003
2793.30 1.398 0.014 1.00E-002 2.0E-003
2797.20 1.398 0.014 1.00E-002 2.0E-003
2801.12 1.399 0.014 1.10E-002 2.2E-003
2805.05 1.399 0.014 1.00E-002 2.0E-003
2808.99 1.400 0.014 1.10E-002 2.2E-003
2812.94 1.401 0.014 1.10E-002 2.2E-003
2816.90 1.402 0.014 1.10E-002 2.2E-003
2820.87 1.403 0.014 1.10E-002 2.2E-003
2824.86 1.403 0.014 1.10E-002 2.2E-003
2828.85 1.404 0.014 1.20E-002 2.4E-003
2832.86 1.405 0.014 1.20E-002 2.4E-003
2836.88 1.406 0.014 1.20E-002 2.4E-003
2840.91 1.406 0.014 1.30E-002 2.6E-003
2844.95 1.407 0.014 1.30E-002 2.6E-003
2849.00 1.408 0.014 1.30E-002 2.6E-003
2853.07 1.409 0.014 1.40E-002 2.8E-003
2857.14 1.409 0.014 1.40E-002 2.8E-003
2861.23 1.410 0.014 1.40E-002 2.8E-003
2865.33 1.411 0.014 1.40E-002 2.8E-003
2869.44 1.412 0.014 1.50E-002 3.0E-003
2873.56 1.413 0.014 1.50E-002 3.0E-003
2877.70 1.414 0.014 1.60E-002 3.2E-003
2881.84 1.414 0.014 1.60E-002 3.2E-003
2886.00 1.415 0.014 1.60E-002 3.2E-003
2890.17 1.416 0.014 1.70E-002 3.4E-003
2894.36 1.417 0.014 1.70E-002 3.4E-003
2898.55 1.418 0.014 1.80E-002 3.6E-003
2902.76 1.419 0.014 1.80E-002 3.6E-003
2906.98 1.420 0.014 1.90E-002 3.8E-003
2911.21 1.421 0.014 1.90E-002 3.8E-003
2915.45 1.422 0.014 2.00E-002 4.0E-003
2919.71 1.423 0.014 2.00E-002 4.0E-003
2923.98 1.424 0.014 2.10E-002 4.2E-003
2928.26 1.425 0.014 2.20E-002 4.4E-003
2932.55 1.426 0.014 2.20E-002 4.4E-003
2936.86 1.427 0.014 2.30E-002 4.6E-003
2941.18 1.428 0.014 2.40E-002 4.8E-003
2945.51 1.428 0.014 2.50E-002 5.0E-003
2949.85 1.429 0.014 2.50E-002 5.0E-003
2954.21 1.430 0.014 2.60E-002 5.2E-003
2958.58 1.431 0.014 2.70E-002 5.4E-003
2962.96 1.431 0.014 2.70E-002 5.4E-003
2967.36 1.433 0.014 2.80E-002 5.6E-003
2971.77 1.434 0.014 2.80E-002 5.6E-003
2976.19 1.435 0.014 2.90E-002 5.8E-003
2980.63 1.436 0.014 3.00E-002 6.0E-003
2985.07 1.437 0.014 3.00E-002 6.0E-003
2989.54 1.439 0.014 3.10E-002 6.2E-003
2994.01 1.440 0.014 3.20E-002 6.4E-003
2998.50 1.442 0.014 3.30E-002 6.6E-003
3003.00 1.443 0.014 3.40E-002 6.8E-003
3007.52 1.445 0.014 3.40E-002 6.8E-003
3012.05 1.446 0.014 3.50E-002 7.0E-003
3016.59 1.448 0.014 3.70E-002 7.4E-003
3021.15 1.450 0.015 3.70E-002 7.4E-003
3025.72 1.452 0.015 3.90E-002 7.8E-003
3030.30 1.454 0.015 4.10E-002 8.2E-003
3034.90 1.456 0.015 4.30E-002 8.6E-003
3039.51 1.458 0.015 4.50E-002 9.0E-003
3044.14 1.460 0.015 4.70E-002 9.4E-003
3048.78 1.461 0.015 4.90E-002 9.8E-003
3053.44 1.463 0.015 5.20E-002 1.0E-003
3058.10 1.464 0.015 5.40E-002 1.1E-003
3062.79 1.466 0.015 5.60E-002 1.1E-003
3067.48 1.467 0.015 5.90E-002 1.2E-003
3072.20 1.468 0.015 6.20E-002 1.2E-003
3076.92 1.469 0.015 6.40E-002 1.3E-003
3081.66 1.470 0.015 6.70E-002 1.3E-003
3086.42 1.471 0.015 7.00E-002 1.4E-003
3091.19 1.472 0.015 7.20E-002 1.4E-003
3095.98 1.473 0.015 7.50E-002 1.5E-003
3100.78 1.474 0.015 7.80E-002 1.6E-003
3105.59 1.475 0.015 8.10E-002 1.6E-003
3110.42 1.476 0.015 8.30E-002 1.7E-003
3115.26 1.477 0.015 8.70E-002 1.7E-003
3120.13 1.477 0.015 9.00E-002 1.8E-003
3125.00 1.478 0.015 9.30E-002 1.9E-003
3129.89 1.479 0.015 9.60E-002 1.9E-003
3134.80 1.480 0.015 1.00E-001 2.0E-003
3139.72 1.480 0.015 1.03E-001 2.1E-003
3144.65 1.481 0.015 1.07E-001 2.1E-003
3149.61 1.481 0.015 1.10E-001 2.2E-003
3154.57 1.482 0.015 1.14E-001 2.3E-003
3159.56 1.482 0.015 1.18E-001 2.4E-003
3164.56 1.483 0.015 1.22E-001 2.4E-003
3169.57 1.483 0.015 1.26E-001 2.5E-003
3174.60 1.483 0.015 1.31E-001 2.6E-003
3179.65 1.483 0.015 1.35E-001 2.7E-003
3184.71 1.483 0.015 1.40E-001 2.8E-003
3189.79 1.483 0.015 1.45E-001 2.9E-003
3194.89 1.482 0.015 1.51E-001 3.0E-003
3200.00 1.481 0.015 1.56E-001 3.1E-003
3205.13 1.479 0.015 1.62E-001 3.2E-003
3210.27 1.477 0.015 1.67E-001 3.3E-003
3215.43 1.475 0.015 1.72E-001 3.4E-003
3220.61 1.473 0.015 1.77E-001 3.5E-003
3225.81 1.470 0.015 1.82E-001 3.6E-003
3231.02 1.467 0.015 1.87E-001 3.7E-003
3236.25 1.464 0.015 1.92E-001 3.8E-003
3241.49 1.461 0.015 1.96E-001 3.9E-003
3241.49 1.461 0.015 1.96E-001 3.9E-003
3246.75 1.458 0.015 2.01E-001 4.0E-003
3252.03 1.454 0.015 2.06E-001 4.1E-003
3257.33 1.450 0.015 2.10E-001 4.2E-003
3262.64 1.446 0.014 2.14E-001 4.3E-003
3267.97 1.442 0.014 2.18E-001 4.4E-003
3273.32 1.438 0.014 2.22E-001 4.4E-003
3278.69 1.434 0.014 2.27E-001 4.5E-003
3284.07 1.429 0.014 2.31E-001 4.6E-003
3289.47 1.425 0.014 2.36E-001 4.7E-003
3294.89 1.420 0.014 2.40E-001 4.8E-003
3300.33 1.414 0.014 2.44E-001 4.9E-003
3305.78 1.408 0.014 2.48E-001 5.0E-003
3311.26 1.401 0.014 2.51E-001 5.0E-003
3316.75 1.394 0.014 2.54E-001 5.1E-003
3322.26 1.387 0.014 2.56E-001 5.1E-003
3327.79 1.380 0.014 2.57E-001 5.1E-003
3333.33 1.373 0.014 2.58E-001 5.2E-003
3338.90 1.366 0.014 2.58E-001 5.2E-003
3344.48 1.361 0.014 2.57E-001 5.1E-003
3350.08 1.357 0.014 2.58E-001 5.2E-003
3355.70 1.352 0.014 2.60E-001 5.2E-003
3361.34 1.347 0.013 2.62E-001 5.2E-003
3367.00 1.341 0.013 2.64E-001 5.3E-003
3372.68 1.334 0.013 2.66E-001 5.3E-003
3378.38 1.327 0.013 2.69E-001 5.4E-003
3384.09 1.318 0.013 2.69E-001 5.4E-003
3389.83 1.310 0.013 2.68E-001 5.4E-003
3395.59 1.303 0.013 2.68E-001 5.4E-003
3401.36 1.296 0.013 2.67E-001 5.3E-003
3407.16 1.288 0.013 2.67E-001 5.3E-003
3412.97 1.280 0.013 2.66E-001 5.3E-003
3418.80 1.272 0.013 2.64E-001 5.3E-003
3424.66 1.265 0.013 2.62E-001 5.2E-003
3430.53 1.257 0.013 2.59E-001 5.2E-003
3436.43 1.249 0.012 2.56E-001 5.1E-003
3442.34 1.241 0.012 2.52E-001 5.0E-003
3448.28 1.234 0.012 2.48E-001 5.0E-003
3454.23 1.227 0.012 2.44E-001 4.9E-003
3460.21 1.220 0.012 2.40E-001 4.8E-003
3466.20 1.213 0.012 2.34E-001 4.7E-003
3472.22 1.208 0.012 2.28E-001 4.6E-003
3478.26 1.202 0.012 2.23E-001 4.5E-003
3484.32 1.197 0.012 2.18E-001 4.4E-003
3490.40 1.191 0.012 2.12E-001 4.2E-003
3496.50 1.185 0.012 2.06E-001 4.1E-003
3502.63 1.180 0.012 1.98E-001 4.0E-003
3508.77 1.176 0.012 1.92E-001 3.8E-003
3514.94 1.171 0.012 1.84E-001 3.7E-003
3521.13 1.168 0.012 1.76E-001 3.5E-003
3527.34 1.166 0.012 1.68E-001 3.4E-003
3533.57 1.163 0.012 1.60E-001 3.2E-003
3539.82 1.162 0.012 1.52E-001 3.0E-003
3546.10 1.162 0.012 1.45E-001 2.9E-003
3552.40 1.161 0.012 1.38E-001 2.8E-003
3558.72 1.161 0.012 1.32E-001 2.6E-003
3565.06 1.161 0.012 1.26E-001 2.5E-003
3571.43 1.161 0.012 1.21E-001 2.4E-003
3577.82 1.160 0.012 1.16E-001 2.3E-003
3584.23 1.159 0.012 1.09E-001 2.2E-003
3590.66 1.159 0.012 1.02E-001 2.0E-003
3597.12 1.159 0.012 9.60E-002 1.9E-003
3603.60 1.160 0.012 9.10E-002 1.8E-003
3610.11 1.160 0.012 8.40E-002 1.7E-003
3616.64 1.160 0.012 7.80E-002 1.6E-003
3623.19 1.160 0.012 7.10E-002 1.4E-003
3629.76 1.162 0.012 6.40E-002 1.3E-003
3636.36 1.163 0.012 5.70E-002 1.1E-003
3642.99 1.166 0.012 5.00E-002 1.0E-003
3649.64 1.169 0.012 4.40E-002 8.8E-003
3656.31 1.172 0.012 3.90E-002 7.8E-003
3663.00 1.175 0.012 3.30E-002 6.6E-003
3669.72 1.180 0.012 2.50E-002 5.0E-003
3676.47 1.187 0.012 2.00E-002 4.0E-003
3683.24 1.194 0.012 1.70E-002 3.4E-003
3690.04 1.199 0.012 1.60E-002 3.2E-003
3696.86 1.203 0.012 1.50E-002 3.0E-003
3703.70 1.207 0.012 1.30E-002 2.6E-003
3710.58 1.211 0.012 1.30E-002 2.6E-003
3717.47 1.213 0.012 1.10E-002 2.2E-003
3724.39 1.216 0.012 1.00E-002 2.0E-003
3731.34 1.219 0.012 8.00E-003 8.0E-003
3738.32 1.222 0.012 7.00E-003 7.0E-003
3745.32 1.225 0.012 5.00E-003 5.0E-003
3752.35 1.229 0.012 4.00E-003 4.0E-003
3759.40 1.232 0.012 4.00E-003 4.0E-003
3766.48 1.235 0.012 3.00E-003 3.0E-003
3773.58 1.237 0.012 3.00E-003 3.0E-003
3780.72 1.240 0.012 2.00E-003 2.0E-003
3787.88 1.242 0.012 2.00E-003 2.0E-003
3795.07 1.244 0.012 2.00E-003 2.0E-003
3802.28 1.246 0.012 1.00E-003 1.0E-003
3809.52 1.248 0.012 1.00E-003 1.0E-003
3816.79 1.250 0.012 0.00E+000 0.0E+000
3824.09 1.252 0.013 0.00E+000 0.0E+000
3831.42 1.254 0.013 0.00E+000 0.0E+000
3838.77 1.255 0.013 0.00E+000 0.0E+000
3846.15 1.257 0.013 0.00E+000 0.0E+000
3853.56 1.259 0.013 0.00E+000 0.0E+000
3861.00 1.261 0.013 0.00E+000 0.0E+000
3868.47 1.262 0.013 0.00E+000 0.0E+000
3875.97 1.263 0.013 0.00E+000 0.0E+000
3883.50 1.264 0.013 0.00E+000 0.0E+000
3891.05 1.265 0.013 0.00E+000 0.0E+000
3898.64 1.267 0.013 0.00E+000 0.0E+000
3906.25 1.268 0.013 0.00E+000 0.0E+000
3913.89 1.269 0.013 0.00E+000 0.0E+000
3921.57 1.270 0.013 0.00E+000 0.0E+000
3929.27 1.272 0.013 0.00E+000 0.0E+000
3937.01 1.273 0.013 0.00E+000 0.0E+000
3944.77 1.274 0.013 0.00E+000 0.0E+000
3952.57 1.275 0.013 0.00E+000 0.0E+000
3960.40 1.276 0.013 0.00E+000 0.0E+000
3968.25 1.277 0.013 0.00E+000 0.0E+000
3976.14 1.278 0.013 0.00E+000 0.0E+000
3984.06 1.278 0.013 0.00E+000 0.0E+000
3992.02 1.279 0.013 0.00E+000 0.0E+000
4000.00 1.280 0.013 0.00E+000 0.0E+000
4008.02 1.281 0.013 0.00E+000 0.0E+000
4016.06 1.282 0.013 0.00E+000 0.0E+000
4024.15 1.283 0.013 0.00E+000 0.0E+000
4032.26 1.284 0.013 0.00E+000 0.0E+000
4040.40 1.284 0.013 0.00E+000 0.0E+000
4048.58 1.285 0.013 0.00E+000 0.0E+000
4056.80 1.286 0.013 0.00E+000 0.0E+000
4065.04 1.287 0.013 0.00E+000 0.0E+000
4073.32 1.288 0.013 0.00E+000 0.0E+000
4081.63 1.289 0.013 0.00E+000 0.0E+000
4089.98 1.289 0.013 0.00E+000 0.0E+000
4098.36 1.290 0.013 0.00E+000 0.0E+000
4106.78 1.291 0.013 0.00E+000 0.0E+000
4115.23 1.291 0.013 0.00E+000 0.0E+000
4123.71 1.292 0.013 0.00E+000 0.0E+000
4132.23 1.292 0.013 0.00E+000 0.0E+000
4140.79 1.293 0.013 0.00E+000 0.0E+000
4149.38 1.294 0.013 0.00E+000 0.0E+000
4158.00 1.294 0.013 0.00E+000 0.0E+000
4166.67 1.294 0.013 0.00E+000 0.0E+000
4175.37 1.295 0.013 0.00E+000 0.0E+000
4184.10 1.296 0.013 0.00E+000 0.0E+000
4192.87 1.297 0.013 0.00E+000 0.0E+000
4201.68 1.298 0.013 0.00E+000 0.0E+000
4210.53 1.298 0.013 0.00E+000 0.0E+000
4219.41 1.298 0.013 0.00E+000 0.0E+000
4228.33 1.299 0.013 0.00E+000 0.0E+000
4237.29 1.299 0.013 0.00E+000 0.0E+000
4246.28 1.300 0.013 0.00E+000 0.0E+000
4255.32 1.301 0.013 0.00E+000 0.0E+000
4264.39 1.301 0.013 0.00E+000 0.0E+000
4273.50 1.302 0.013 0.00E+000 0.0E+000
4282.66 1.303 0.013 0.00E+000 0.0E+000
4291.85 1.303 0.013 0.00E+000 0.0E+000
4301.08 1.304 0.013 0.00E+000 0.0E+000
4310.34 1.304 0.013 0.00E+000 0.0E+000
4319.65 1.305 0.013 0.00E+000 0.0E+000
4329.00 1.305 0.013 0.00E+000 0.0E+000
4338.39 1.305 0.013 0.00E+000 0.0E+000
4347.83 1.306 0.013 0.00E+000 0.0E+000
4357.30 1.306 0.013 0.00E+000 0.0E+000
4366.81 1.307 0.013 0.00E+000 0.0E+000
4376.37 1.307 0.013 0.00E+000 0.0E+000
4385.96 1.307 0.013 0.00E+000 0.0E+000
4395.60 1.308 0.013 0.00E+000 0.0E+000
4405.29 1.308 0.013 0.00E+000 0.0E+000
4415.01 1.309 0.013 0.00E+000 0.0E+000
4424.78 1.309 0.013 0.00E+000 0.0E+000
4434.59 1.309 0.013 0.00E+000 0.0E+000
4444.44 1.310 0.013 0.00E+000 0.0E+000
4454.34 1.310 0.013 0.00E+000 0.0E+000
4464.29 1.311 0.013 0.00E+000 0.0E+000
4474.27 1.311 0.013 0.00E+000 0.0E+000
4484.30 1.311 0.013 0.00E+000 0.0E+000
4494.38 1.312 0.013 0.00E+000 0.0E+000
4504.50 1.312 0.013 0.00E+000 0.0E+000
4514.67 1.312 0.013 0.00E+000 0.0E+000
4524.89 1.313 0.013 0.00E+000 0.0E+000
4535.15 1.313 0.013 0.00E+000 0.0E+000
4545.45 1.314 0.013 0.00E+000 0.0E+000
4555.81 1.314 0.013 0.00E+000 0.0E+000
4566.21 1.314 0.013 0.00E+000 0.0E+000
4576.66 1.315 0.013 0.00E+000 0.0E+000
4587.16 1.315 0.013 0.00E+000 0.0E+000
4597.70 1.315 0.013 0.00E+000 0.0E+000
4608.29 1.316 0.013 0.00E+000 0.0E+000
4618.94 1.316 0.013 0.00E+000 0.0E+000
4629.63 1.316 0.013 0.00E+000 0.0E+000
4640.37 1.317 0.013 0.00E+000 0.0E+000
4651.16 1.317 0.013 0.00E+000 0.0E+000
4662.00 1.317 0.013 0.00E+000 0.0E+000
4672.90 1.317 0.013 0.00E+000 0.0E+000
4683.84 1.318 0.013 0.00E+000 0.0E+000
4694.84 1.318 0.013 0.00E+000 0.0E+000
4705.88 1.318 0.013 0.00E+000 0.0E+000
4716.98 1.318 0.013 0.00E+000 0.0E+000
4728.13 1.318 0.013 0.00E+000 0.0E+000
4739.34 1.318 0.013 0.00E+000 0.0E+000
4750.59 1.319 0.013 0.00E+000 0.0E+000
4761.90 1.319 0.013 0.00E+000 0.0E+000
4773.27 1.319 0.013 0.00E+000 0.0E+000
4784.69 1.320 0.013 0.00E+000 0.0E+000
4796.16 1.320 0.013 0.00E+000 0.0E+000
4807.69 1.320 0.013 0.00E+000 0.0E+000
4819.28 1.320 0.013 0.00E+000 0.0E+000
4830.92 1.321 0.013 0.00E+000 0.0E+000
4842.61 1.321 0.013 0.00E+000 0.0E+000
4854.37 1.321 0.013 0.00E+000 0.0E+000
4866.18 1.321 0.013 0.00E+000 0.0E+000
4878.05 1.322 0.013 0.00E+000 0.0E+000
4889.98 1.322 0.013 0.00E+000 0.0E+000
4901.96 1.322 0.013 0.00E+000 0.0E+000
4914.00 1.323 0.013 0.00E+000 0.0E+000
4926.11 1.323 0.013 0.00E+000 0.0E+000
4938.27 1.323 0.013 0.00E+000 0.0E+000
4950.50 1.323 0.013 0.00E+000 0.0E+000
4962.78 1.323 0.013 0.00E+000 0.0E+000
4975.12 1.323 0.013 0.00E+000 0.0E+000
4987.53 1.324 0.013 0.00E+000 0.0E+000