#SUBSTANCE=Sulphuric acid
#DESCRIPTION=Refractive indices of 76 wt% sulphuric acid from 400 to 7500 cm-1 at 273 K
#TEMPERATURE=273 K
#CONCENTRATION=76 wt%
#DOI=10.1021/jp026576n
#REFERENCE=Spectroscopic Study of Aqueous H2SO4 at Different Temperatures and Compositions:  Variations in Dissociation and Optical Properties
##Cathrine E. Lund Myhre,†, Daniel H. Christensen,‡, Flemming M. Nicolaisen,‡ and, and Claus J. Nielsen*,†
##The Journal of Physical Chemistry A 2003 107 (12), 1979-1991 
#FORMAT=WAVN N K
7498.52083	1.40669	0.01424
7497.02072	1.40672	0.01423
7495.52061	1.40674	0.0142
7494.0205	1.40674	0.01419
7492.52039	1.40672	0.01417
7491.02027	1.40669	0.01417
7489.52016	1.40667	0.01417
7488.02005	1.40664	0.01418
7486.51994	1.40664	0.01419
7485.01983	1.40663	0.01419
7483.51971	1.40663	0.0142
7482.0196	1.40664	0.0142
7480.51949	1.40665	0.01421
7479.01938	1.40667	0.01421
7477.51927	1.40668	0.01421
7476.01916	1.40669	0.0142
7474.51904	1.40669	0.01419
7473.01893	1.40667	0.01419
7471.51882	1.40665	0.01419
7470.01871	1.40664	0.0142
7468.5186	1.40662	0.01421
7467.01848	1.40662	0.01421
7465.51837	1.40662	0.01423
7464.01826	1.40662	0.01424
7462.51815	1.40665	0.01425
7461.01804	1.40668	0.01426
7459.51793	1.40672	0.01426
7458.01781	1.40675	0.01426
7456.5177	1.40678	0.01423
7455.01759	1.4068	0.01421
7453.51748	1.40681	0.01419
7452.01737	1.40683	0.01415
7450.51725	1.40684	0.01412
7449.01714	1.40683	0.01408
7447.51703	1.4068	0.01405
7446.01692	1.40677	0.01403
7444.51681	1.40673	0.01401
7443.0167	1.4067	0.01401
7441.51658	1.40666	0.01401
7440.01647	1.40662	0.01402
7438.51636	1.40658	0.01404
7437.01625	1.40657	0.01406
7435.51614	1.40657	0.01408
7434.01602	1.40659	0.0141
7432.51591	1.40662	0.01411
7431.0158	1.40665	0.01411
7429.51569	1.40668	0.01411
7428.01558	1.40671	0.01409
7426.51547	1.40673	0.01408
7425.01535	1.40673	0.01405
7423.51524	1.40671	0.01403
7422.01513	1.40668	0.01401
7420.51502	1.40664	0.01401
7419.01491	1.40659	0.01401
7417.51479	1.40655	0.01402
7416.01468	1.40652	0.01405
7414.51457	1.40651	0.01407
7413.01446	1.40651	0.0141
7411.51435	1.40654	0.01414
7410.01424	1.40657	0.01415
7408.51412	1.40662	0.01416
7407.01401	1.40666	0.01417
7405.5139	1.40671	0.01416
7404.01379	1.40674	0.01414
7402.51368	1.40676	0.01413
7401.01356	1.40677	0.0141
7399.51345	1.40677	0.01408
7398.01334	1.40676	0.01405
7396.51323	1.40674	0.01403
7395.01312	1.40672	0.01401
7393.51301	1.40672	0.014
7392.01289	1.4067	0.014
7390.51278	1.4067	0.01399
7389.01267	1.40669	0.01399
7387.51256	1.40669	0.01398
7386.01245	1.40668	0.01398
7384.51233	1.40666	0.01399
7383.01222	1.40666	0.01399
7381.51211	1.40665	0.014
7380.012	1.40665	0.01402
7378.51189	1.40666	0.01402
7377.01178	1.40667	0.01403
7375.51166	1.40668	0.01403
7374.01155	1.40671	0.01403
7372.51144	1.40673	0.01403
7371.01133	1.40677	0.01402
7369.51122	1.40679	0.01401
7368.0111	1.40681	0.01399
7366.51099	1.40681	0.01398
7365.01088	1.40682	0.01396
7363.51077	1.40684	0.01393
7362.01066	1.40685	0.01391
7360.51055	1.40686	0.01388
7359.01043	1.40687	0.01385
7357.51032	1.40687	0.01381
7356.01021	1.40687	0.01378
7354.5101	1.40687	0.01375
7353.00999	1.40687	0.01372
7351.50987	1.40687	0.01367
7350.00976	1.40685	0.01363
7348.50965	1.40681	0.0136
7347.00954	1.40676	0.01357
7345.50943	1.40671	0.01356
7344.00932	1.40667	0.01355
7342.5092	1.40662	0.01354
7341.00909	1.40657	0.01353
7339.50898	1.40653	0.01353
7338.00887	1.40649	0.01354
7336.50876	1.40646	0.01356
7335.00864	1.40644	0.01358
7333.50853	1.40642	0.0136
7332.00842	1.4064	0.01362
7330.50831	1.40636	0.01364
7329.0082	1.40633	0.01367
7327.50809	1.4063	0.01371
7326.00797	1.40628	0.01374
7324.50786	1.40628	0.01379
7323.00775	1.4063	0.01383
7321.50764	1.40633	0.01386
7320.00753	1.40638	0.01388
7318.50741	1.40643	0.01388
7317.0073	1.40647	0.0139
7315.50719	1.4065	0.0139
7314.00708	1.40653	0.01391
7312.50697	1.40654	0.01391
7311.00686	1.40655	0.0139
7309.50674	1.40655	0.0139
7308.00663	1.40655	0.01389
7306.50652	1.40657	0.01388
7305.00641	1.40662	0.01388
7303.5063	1.40668	0.01385
7302.00619	1.40674	0.01382
7300.50607	1.40679	0.01378
7299.00596	1.40682	0.01373
7297.50585	1.40684	0.01367
7296.00574	1.40684	0.01361
7294.50563	1.40679	0.01355
7293.00551	1.40672	0.01351
7291.5054	1.40664	0.01348
7290.00529	1.40656	0.01346
7288.50518	1.40649	0.01346
7287.00507	1.40644	0.01348
7285.50496	1.4064	0.01349
7284.00484	1.40638	0.01352
7282.50473	1.40638	0.01355
7281.00462	1.40639	0.01358
7279.50451	1.40642	0.0136
7278.0044	1.40644	0.0136
7276.50428	1.40646	0.0136
7275.00417	1.40646	0.0136
7273.50406	1.40645	0.0136
7272.00395	1.40644	0.01361
7270.50384	1.40643	0.01361
7269.00373	1.40642	0.01361
7267.50361	1.40641	0.01362
7266.0035	1.40641	0.01363
7264.50339	1.40641	0.01364
7263.00328	1.40643	0.01365
7261.50317	1.40645	0.01366
7260.00305	1.40648	0.01367
7258.50294	1.40651	0.01367
7257.00283	1.40654	0.01366
7255.50272	1.40659	0.01363
7254.00261	1.40662	0.0136
7252.5025	1.40665	0.01357
7251.00238	1.40665	0.01353
7249.50227	1.40664	0.0135
7248.00216	1.40664	0.01348
7246.50205	1.40663	0.01344
7245.00194	1.40662	0.01338
7243.50182	1.40659	0.01334
7242.00171	1.40655	0.01331
7240.5016	1.40652	0.0133
7239.00149	1.40647	0.0133
7237.50138	1.40646	0.0133
7236.00127	1.40643	0.01329
7234.50115	1.4064	0.01328
7233.00104	1.40634	0.01327
7231.50093	1.4063	0.01329
7230.00082	1.40627	0.01332
7228.50071	1.40626	0.01335
7227.00059	1.40627	0.01338
7225.50048	1.40629	0.0134
7224.00037	1.40631	0.0134
7222.50026	1.40634	0.01339
7221.00015	1.40637	0.01339
7219.50004	1.4064	0.01338
7217.99992	1.40642	0.01337
7216.49981	1.40645	0.01334
7214.9997	1.40644	0.0133
7213.49959	1.40643	0.01327
7211.99948	1.4064	0.01323
7210.49936	1.40636	0.01321
7208.99925	1.40633	0.01319
7207.49914	1.4063	0.01318
7205.99903	1.40626	0.01317
7204.49892	1.40621	0.01317
7202.99881	1.40618	0.01318
7201.49869	1.40615	0.01321
7199.99858	1.40615	0.01322
7198.49847	1.40616	0.01323
7196.99836	1.40616	0.01323
7195.49825	1.40618	0.01322
7193.99813	1.40619	0.01322
7192.49802	1.4062	0.0132
7190.99791	1.4062	0.0132
7189.4978	1.40618	0.01319
7187.99769	1.40615	0.01318
7186.49758	1.40612	0.01317
7184.99746	1.40608	0.01317
7183.49735	1.40604	0.01317
7181.99724	1.40601	0.01317
7180.49713	1.406	0.01318
7178.99702	1.406	0.0132
7177.4969	1.40601	0.01321
7175.99679	1.40602	0.01321
7174.49668	1.40602	0.01321
7172.99657	1.40602	0.01321
7171.49646	1.406	0.01321
7169.99635	1.40596	0.01321
7168.49623	1.40591	0.01323
7166.99612	1.40588	0.01326
7165.49601	1.40586	0.01329
7163.9959	1.40586	0.01331
7162.49579	1.40587	0.01333
7160.99567	1.40589	0.01335
7159.49556	1.40594	0.01337
7157.99545	1.40598	0.01338
7156.49534	1.40604	0.01338
7154.99523	1.40609	0.01336
7153.49512	1.40611	0.01334
7151.995	1.40611	0.0133
7150.49489	1.4061	0.01328
7148.99478	1.40608	0.01326
7147.49467	1.40606	0.01323
7145.99456	1.40604	0.01322
7144.49444	1.406	0.01321
7142.99433	1.40599	0.0132
7141.49422	1.40597	0.0132
7139.99411	1.40596	0.0132
7138.494	1.40597	0.0132
7136.99389	1.40598	0.0132
7135.49377	1.40599	0.01319
7133.99366	1.406	0.01317
7132.49355	1.40601	0.01315
7130.99344	1.40601	0.01312
7129.49333	1.40599	0.01309
7127.99321	1.40595	0.01307
7126.4931	1.4059	0.01307
7124.99299	1.40584	0.01307
7123.49288	1.40579	0.01307
7121.99277	1.40574	0.01308
7120.49266	1.40569	0.0131
7118.99254	1.40566	0.01312
7117.49243	1.40563	0.01316
7115.99232	1.40563	0.01321
7114.49221	1.40565	0.01325
7112.9921	1.40568	0.01327
7111.49198	1.4057	0.0133
7109.99187	1.40573	0.0133
7108.49176	1.40574	0.01331
7106.99165	1.40576	0.01331
7105.49154	1.40577	0.01331
7103.99143	1.40578	0.01331
7102.49131	1.40578	0.01332
7100.9912	1.40578	0.01332
7099.49109	1.40578	0.01332
7097.99098	1.40579	0.01331
7096.49087	1.40579	0.01331
7094.99076	1.4058	0.01331
7093.49064	1.40582	0.01331
7091.99053	1.40583	0.01331
7090.49042	1.40586	0.0133
7088.99031	1.40587	0.01329
7087.4902	1.4059	0.01327
7085.99008	1.40591	0.01324
7084.48997	1.40592	0.0132
7082.98986	1.40592	0.01317
7081.48975	1.4059	0.01314
7079.98964	1.40587	0.01311
7078.48953	1.40583	0.0131
7076.98941	1.40579	0.01309
7075.4893	1.40575	0.01308
7073.98919	1.40569	0.01308
7072.48908	1.40566	0.01309
7070.98897	1.40563	0.01311
7069.48885	1.40561	0.01314
7067.98874	1.40562	0.01316
7066.48863	1.40563	0.01319
7064.98852	1.40564	0.01319
7063.48841	1.40566	0.0132
7061.9883	1.40567	0.0132
7060.48818	1.40569	0.0132
7058.98807	1.4057	0.01319
7057.48796	1.4057	0.01318
7055.98785	1.40569	0.01318
7054.48774	1.40567	0.01316
7052.98762	1.40565	0.01316
7051.48751	1.40564	0.01315
7049.9874	1.40562	0.01315
7048.48729	1.4056	0.01315
7046.98718	1.40558	0.01316
7045.48707	1.40557	0.01317
7043.98695	1.40556	0.0132
7042.48684	1.40555	0.01322
7040.98673	1.40555	0.01323
7039.48662	1.40556	0.01325
7037.98651	1.40557	0.01326
7036.48639	1.40559	0.01327
7034.98628	1.40562	0.01327
7033.48617	1.40565	0.01327
7031.98606	1.40567	0.01327
7030.48595	1.40569	0.01325
7028.98584	1.40571	0.01324
7027.48572	1.40571	0.01321
7025.98561	1.4057	0.01319
7024.4855	1.4057	0.01318
7022.98539	1.40567	0.01316
7021.48528	1.40566	0.01315
7019.98516	1.40564	0.01314
7018.48505	1.40564	0.01314
7016.98494	1.40562	0.01313
7015.48483	1.40561	0.01313
7013.98472	1.4056	0.01313
7012.48461	1.40559	0.01314
7010.98449	1.40559	0.01314
7009.48438	1.4056	0.01314
7007.98427	1.4056	0.01314
7006.48416	1.40559	0.01313
7004.98405	1.40559	0.01313
7003.48393	1.40559	0.01314
7001.98382	1.4056	0.01313
7000.48371	1.4056	0.01313
6998.9836	1.40561	0.01311
6997.48349	1.4056	0.01311
6995.98338	1.4056	0.01309
6994.48326	1.4056	0.01308
6992.98315	1.40559	0.01307
6991.48304	1.40559	0.01307
6989.98293	1.40557	0.01305
6988.48282	1.40556	0.01303
6986.9827	1.40554	0.01303
6985.48259	1.40551	0.01303
6983.98248	1.40549	0.01303
6982.48237	1.40546	0.01305
6980.98226	1.40546	0.01305
6979.48215	1.40545	0.01306
6977.98203	1.40545	0.01307
6976.48192	1.40544	0.01308
6974.98181	1.40544	0.01309
6973.4817	1.40546	0.0131
6971.98159	1.40549	0.0131
6970.48147	1.4055	0.01309
6968.98136	1.40551	0.01308
6967.48125	1.40551	0.01307
6965.98114	1.4055	0.01305
6964.48103	1.4055	0.01305
6962.98092	1.40549	0.01304
6961.4808	1.40548	0.01303
6959.98069	1.40547	0.01302
6958.48058	1.40545	0.013
6956.98047	1.40545	0.013
6955.48036	1.40544	0.01299
6953.98024	1.40544	0.01299
6952.48013	1.40542	0.01299
6950.98002	1.40541	0.01299
6949.47991	1.40538	0.01299
6947.9798	1.40537	0.01298
6946.47969	1.40534	0.01299
6944.97957	1.40532	0.013
6943.47946	1.4053	0.01301
6941.97935	1.40529	0.01303
6940.47924	1.4053	0.01304
6938.97913	1.40531	0.01306
6937.47901	1.40531	0.01307
6935.9789	1.40532	0.01308
6934.47879	1.40533	0.01309
6932.97868	1.40534	0.01309
6931.47857	1.40536	0.0131
6929.97846	1.40536	0.01309
6928.47834	1.40537	0.01309
6926.97823	1.40537	0.01309
6925.47812	1.40538	0.01308
6923.97801	1.40538	0.01308
6922.4779	1.40539	0.01308
6920.97778	1.40541	0.01307
6919.47767	1.40542	0.01307
6917.97756	1.40544	0.01305
6916.47745	1.40545	0.01304
6914.97734	1.40547	0.01302
6913.47723	1.40549	0.01299
6911.97711	1.40551	0.01296
6910.477	1.40551	0.01293
6908.97689	1.40551	0.01289
6907.47678	1.4055	0.01285
6905.97667	1.40547	0.01282
6904.47656	1.40543	0.01279
6902.97644	1.40538	0.01277
6901.47633	1.40533	0.01275
6899.97622	1.40527	0.01275
6898.47611	1.40521	0.01275
6896.976	1.40517	0.01276
6895.47588	1.40513	0.01279
6893.97577	1.40511	0.01281
6892.47566	1.40509	0.01284
6890.97555	1.40508	0.01287
6889.47544	1.40509	0.0129
6887.97533	1.40511	0.01293
6886.47521	1.40513	0.01294
6884.9751	1.40516	0.01295
6883.47499	1.40517	0.01295
6881.97488	1.40519	0.01294
6880.47477	1.4052	0.01293
6878.97465	1.4052	0.01293
6877.47454	1.4052	0.01292
6875.97443	1.4052	0.01291
6874.47432	1.40518	0.0129
6872.97421	1.40518	0.01289
6871.4741	1.40516	0.01289
6869.97398	1.40516	0.01289
6868.47387	1.40517	0.01288
6866.97376	1.40518	0.01287
6865.47365	1.40519	0.01286
6863.97354	1.40519	0.01284
6862.47342	1.40519	0.01282
6860.97331	1.40517	0.01279
6859.4732	1.40516	0.01277
6857.97309	1.40513	0.01275
6856.47298	1.4051	0.01274
6854.97287	1.40505	0.01272
6853.47275	1.40499	0.01272
6851.97264	1.40494	0.01273
6850.47253	1.40488	0.01276
6848.97242	1.40483	0.01279
6847.47231	1.4048	0.01283
6845.97219	1.40479	0.01286
6844.47208	1.40477	0.01291
6842.97197	1.40477	0.01295
6841.47186	1.40479	0.013
6839.97175	1.40482	0.01304
6838.47164	1.40485	0.01306
6836.97152	1.40489	0.01309
6835.47141	1.40491	0.0131
6833.9713	1.40495	0.01311
6832.47119	1.40497	0.01312
6830.97108	1.40501	0.01313
6829.47096	1.40504	0.01313
6827.97085	1.40506	0.01312
6826.47074	1.40509	0.0131
6824.97063	1.40512	0.01309
6823.47052	1.40515	0.01307
6821.97041	1.40518	0.01304
6820.47029	1.40522	0.01301
6818.97018	1.40523	0.01298
6817.47007	1.40524	0.01293
6815.96996	1.40523	0.0129
6814.46985	1.40521	0.01286
6812.96973	1.40518	0.01283
6811.46962	1.40514	0.0128
6809.96951	1.40509	0.01278
6808.4694	1.40504	0.01278
6806.96929	1.40499	0.01279
6805.46918	1.40496	0.0128
6803.96906	1.40495	0.01282
6802.46895	1.40494	0.01283
6800.96884	1.40495	0.01285
6799.46873	1.40496	0.01287
6797.96862	1.40496	0.01287
6796.4685	1.40499	0.01288
6794.96839	1.405	0.01288
6793.46828	1.40502	0.01287
6791.96817	1.40503	0.01286
6790.46806	1.40503	0.01284
6788.96795	1.40503	0.01283
6787.46783	1.40502	0.01281
6785.96772	1.40501	0.0128
6784.46761	1.405	0.01279
6782.9675	1.40497	0.01278
6781.46739	1.40495	0.01278
6779.96727	1.40493	0.01278
6778.46716	1.40492	0.01278
6776.96705	1.4049	0.01279
6775.46694	1.40488	0.01279
6773.96683	1.40488	0.01281
6772.46672	1.40489	0.01282
6770.9666	1.4049	0.01283
6769.46649	1.4049	0.01283
6767.96638	1.4049	0.01284
6766.46627	1.40491	0.01284
6764.96616	1.40491	0.01284
6763.46604	1.40493	0.01284
6761.96593	1.40493	0.01284
6760.46582	1.40495	0.01283
6758.96571	1.40496	0.01283
6757.4656	1.40497	0.0128
6755.96549	1.40499	0.01278
6754.46537	1.40499	0.01277
6752.96526	1.40499	0.01274
6751.46515	1.40499	0.01272
6749.96504	1.40497	0.0127
6748.46493	1.40494	0.01268
6746.96481	1.40491	0.01268
6745.4647	1.40488	0.01267
6743.96459	1.40485	0.01267
6742.46448	1.40483	0.01268
6740.96437	1.40481	0.01268
6739.46426	1.40481	0.0127
6737.96414	1.40481	0.0127
6736.46403	1.40482	0.01271
6734.96392	1.40482	0.01271
6733.46381	1.40483	0.01271
6731.9637	1.40484	0.01271
6730.46358	1.40484	0.0127
6728.96347	1.40483	0.0127
6727.46336	1.40482	0.01269
6725.96325	1.4048	0.01269
6724.46314	1.40479	0.01269
6722.96303	1.40479	0.0127
6721.46291	1.40479	0.01269
6719.9628	1.40479	0.01269
6718.46269	1.40478	0.01269
6716.96258	1.40479	0.01269
6715.46247	1.40479	0.0127
6713.96236	1.4048	0.0127
6712.46224	1.4048	0.01269
6710.96213	1.40479	0.01268
6709.46202	1.40478	0.01268
6707.96191	1.40477	0.01267
6706.4618	1.40477	0.01268
6704.96168	1.40477	0.01268
6703.46157	1.40478	0.01267
6701.96146	1.40478	0.01266
6700.46135	1.40478	0.01266
6698.96124	1.40477	0.01266
6697.46113	1.40477	0.01266
6695.96101	1.40478	0.01266
6694.4609	1.40478	0.01265
6692.96079	1.40478	0.01264
6691.46068	1.40478	0.01262
6689.96057	1.40478	0.01262
6688.46045	1.40478	0.01261
6686.96034	1.40479	0.0126
6685.46023	1.40479	0.01258
6683.96012	1.40478	0.01257
6682.46001	1.40476	0.01256
6680.9599	1.40473	0.01255
6679.45978	1.40472	0.01255
6677.95967	1.4047	0.01255
6676.45956	1.40469	0.01255
6674.95945	1.40467	0.01255
6673.45934	1.40467	0.01255
6671.95922	1.40467	0.01256
6670.45911	1.40467	0.01256
6668.959	1.40467	0.01257
6667.45889	1.40468	0.01257
6665.95878	1.40468	0.01257
6664.45867	1.40468	0.01256
6662.95855	1.40468	0.01256
6661.45844	1.40469	0.01255
6659.95833	1.40469	0.01255
6658.45822	1.4047	0.01254
6656.95811	1.4047	0.01253
6655.45799	1.40469	0.01251
6653.95788	1.40468	0.01251
6652.45777	1.40468	0.01249
6650.95766	1.40466	0.01249
6649.45755	1.40465	0.01249
6647.95744	1.40464	0.01249
6646.45732	1.40463	0.01248
6644.95721	1.40462	0.01248
6643.4571	1.40463	0.01248
6641.95699	1.40463	0.01247
6640.45688	1.40464	0.01246
6638.95676	1.40464	0.01246
6637.45665	1.40464	0.01245
6635.95654	1.40464	0.01244
6634.45643	1.40462	0.01243
6632.95632	1.4046	0.01243
6631.45621	1.40457	0.01243
6629.95609	1.40455	0.01243
6628.45598	1.40454	0.01245
6626.95587	1.40453	0.01247
6625.45576	1.40453	0.01247
6623.95565	1.40455	0.01249
6622.45553	1.40456	0.01249
6620.95542	1.4046	0.01249
6619.45531	1.40465	0.01249
6617.9552	1.40469	0.01246
6616.45509	1.40471	0.01244
6614.95498	1.40473	0.01241
6613.45486	1.40473	0.01237
6611.95475	1.40472	0.01233
6610.45464	1.4047	0.0123
6608.95453	1.40467	0.01227
6607.45442	1.40463	0.01224
6605.9543	1.40458	0.01223
6604.45419	1.40454	0.01223
6602.95408	1.4045	0.01223
6601.45397	1.40448	0.01224
6599.95386	1.40446	0.01226
6598.45375	1.40445	0.01226
6596.95363	1.40445	0.01228
6595.45352	1.40446	0.01229
6593.95341	1.40448	0.0123
6592.4533	1.40449	0.0123
6590.95319	1.40452	0.0123
6589.45307	1.40453	0.01229
6587.95296	1.40454	0.01227
6586.45285	1.40454	0.01225
6584.95274	1.40454	0.01223
6583.45263	1.40452	0.01222
6581.95252	1.40452	0.01221
6580.4524	1.40451	0.01219
6578.95229	1.4045	0.01218
6577.45218	1.40448	0.01216
6575.95207	1.40447	0.01215
6574.45196	1.40446	0.01214
6572.95184	1.40445	0.01213
6571.45173	1.40444	0.01212
6569.95162	1.40443	0.01211
6568.45151	1.40441	0.01211
6566.9514	1.40438	0.0121
6565.45129	1.40436	0.0121
6563.95117	1.40434	0.0121
6562.45106	1.40433	0.01211
6560.95095	1.40431	0.01212
6559.45084	1.4043	0.01213
6557.95073	1.40429	0.01214
6556.45061	1.4043	0.01216
6554.9505	1.40431	0.01216
6553.45039	1.40433	0.01217
6551.95028	1.40434	0.01217
6550.45017	1.40436	0.01216
6548.95006	1.40437	0.01215
6547.44994	1.40439	0.01214
6545.94983	1.4044	0.01213
6544.44972	1.4044	0.01212
6542.94961	1.40441	0.0121
6541.4495	1.40441	0.01208
6539.94938	1.40442	0.01205
6538.44927	1.40441	0.01203
6536.94916	1.40441	0.01201
6535.44905	1.40441	0.01199
6533.94894	1.40441	0.01197
6532.44883	1.4044	0.01194
6530.94871	1.40438	0.01192
6529.4486	1.40436	0.0119
6527.94849	1.40434	0.01188
6526.44838	1.40431	0.01186
6524.94827	1.40429	0.01185
6523.44816	1.40427	0.01184
6521.94804	1.40425	0.01184
6520.44793	1.40422	0.01183
6518.94782	1.4042	0.01182
6517.44771	1.40419	0.01182
6515.9476	1.40418	0.01182
6514.44748	1.40417	0.01182
6512.94737	1.40416	0.01182
6511.44726	1.40415	0.01182
6509.94715	1.40415	0.01182
6508.44704	1.40414	0.01181
6506.94693	1.40413	0.0118
6505.44681	1.40411	0.0118
6503.9467	1.4041	0.01179
6502.44659	1.40409	0.01179
6500.94648	1.40408	0.01179
6499.44637	1.40406	0.01179
6497.94625	1.40405	0.01179
6496.44614	1.40403	0.0118
6494.94603	1.40403	0.0118
6493.44592	1.40403	0.01181
6491.94581	1.40403	0.01181
6490.4457	1.40405	0.0118
6488.94558	1.40407	0.01179
6487.44547	1.40407	0.01178
6485.94536	1.40408	0.01176
6484.44525	1.40408	0.01175
6482.94514	1.40407	0.01173
6481.44502	1.40406	0.01172
6479.94491	1.40404	0.0117
6478.4448	1.40402	0.01168
6476.94469	1.404	0.01168
6475.44458	1.40398	0.01167
6473.94447	1.40397	0.01167
6472.44435	1.40398	0.01166
6470.94424	1.40399	0.01166
6469.44413	1.40399	0.01164
6467.94402	1.40399	0.01163
6466.44391	1.40398	0.01161
6464.94379	1.40397	0.0116
6463.44368	1.40396	0.01157
6461.94357	1.40394	0.01155
6460.44346	1.40392	0.01154
6458.94335	1.40388	0.01152
6457.44324	1.40387	0.01151
6455.94312	1.40385	0.0115
6454.44301	1.40384	0.0115
6452.9429	1.40382	0.01149
6451.44279	1.40379	0.01148
6449.94268	1.40378	0.01148
6448.44256	1.40377	0.01147
6446.94245	1.40377	0.01146
6445.44234	1.40375	0.01145
6443.94223	1.40373	0.01144
6442.44212	1.40371	0.01142
6440.94201	1.4037	0.01142
6439.44189	1.40367	0.0114
6437.94178	1.40364	0.0114
6436.44167	1.4036	0.0114
6434.94156	1.40355	0.01141
6433.44145	1.40352	0.01142
6431.94133	1.40349	0.01144
6430.44122	1.40347	0.01145
6428.94111	1.40345	0.01147
6427.441	1.40345	0.0115
6425.94089	1.40345	0.01151
6424.44078	1.40347	0.01153
6422.94066	1.40349	0.01154
6421.44055	1.40351	0.01154
6419.94044	1.40352	0.01153
6418.44033	1.40353	0.01152
6416.94022	1.40353	0.01151
6415.4401	1.40354	0.01149
6413.93999	1.40353	0.01148
6412.43988	1.40352	0.01146
6410.93977	1.40351	0.01144
6409.43966	1.40351	0.01142
6407.93955	1.40349	0.0114
6406.43943	1.40347	0.01139
6404.93932	1.40344	0.01138
6403.43921	1.40341	0.01138
6401.9391	1.40339	0.01137
6400.43899	1.40336	0.01137
6398.93887	1.40333	0.01137
6397.43876	1.40331	0.01138
6395.93865	1.40329	0.01139
6394.43854	1.40327	0.0114
6392.93843	1.40327	0.01141
6391.43832	1.40327	0.01142
6389.9382	1.40327	0.01143
6388.43809	1.40327	0.01143
6386.93798	1.40327	0.01143
6385.43787	1.40328	0.01143
6383.93776	1.40328	0.01142
6382.43764	1.40328	0.01142
6380.93753	1.40327	0.01141
6379.43742	1.40326	0.01141
6377.93731	1.40325	0.0114
6376.4372	1.40325	0.0114
6374.93709	1.40323	0.01139
6373.43697	1.40323	0.01138
6371.93686	1.40322	0.01138
6370.43675	1.40322	0.01137
6368.93664	1.40322	0.01137
6367.43653	1.40321	0.01136
6365.93641	1.4032	0.01135
6364.4363	1.40319	0.01134
6362.93619	1.40318	0.01134
6361.43608	1.40316	0.01134
6359.93597	1.40314	0.01133
6358.43586	1.40314	0.01133
6356.93574	1.40313	0.01132
6355.43563	1.40313	0.01132
6353.93552	1.40313	0.01131
6352.43541	1.40313	0.0113
6350.9353	1.40312	0.01129
6349.43518	1.40312	0.01128
6347.93507	1.4031	0.01126
6346.43496	1.40308	0.01124
6344.93485	1.40305	0.01124
6343.43474	1.40301	0.01124
6341.93463	1.40298	0.01124
6340.43451	1.40296	0.01125
6338.9344	1.40294	0.01126
6337.43429	1.40292	0.01127
6335.93418	1.40292	0.01128
6334.43407	1.40292	0.01129
6332.93395	1.40292	0.0113
6331.43384	1.40295	0.0113
6329.93373	1.40297	0.0113
6328.43362	1.40298	0.01129
6326.93351	1.40298	0.01127
6325.4334	1.40298	0.01126
6323.93328	1.40297	0.01123
6322.43317	1.40296	0.01122
6320.93306	1.40294	0.0112
6319.43295	1.40291	0.01119
6317.93284	1.40289	0.01118
6316.43273	1.40286	0.01117
6314.93261	1.40284	0.01117
6313.4325	1.40282	0.01118
6311.93239	1.40281	0.01118
6310.43228	1.4028	0.01118
6308.93217	1.4028	0.01118
6307.43205	1.4028	0.01118
6305.93194	1.4028	0.01118
6304.43183	1.4028	0.01117
6302.93172	1.40279	0.01116
6301.43161	1.40279	0.01116
6299.9315	1.40279	0.01114
6298.43138	1.40278	0.01113
6296.93127	1.40276	0.01111
6295.43116	1.40275	0.01109
6293.93105	1.40272	0.01108
6292.43094	1.4027	0.01106
6290.93082	1.40266	0.01106
6289.43071	1.40263	0.01106
6287.9306	1.4026	0.01106
6286.43049	1.40257	0.01107
6284.93038	1.40253	0.01107
6283.43027	1.40251	0.01109
6281.93015	1.4025	0.0111
6280.43004	1.40249	0.01112
6278.92993	1.40249	0.01114
6277.42982	1.4025	0.01114
6275.92971	1.4025	0.01115
6274.42959	1.40251	0.01115
6272.92948	1.40251	0.01115
6271.42937	1.40251	0.01114
6269.92926	1.40251	0.01114
6268.42915	1.4025	0.01113
6266.92904	1.40248	0.01113
6265.42892	1.40246	0.01112
6263.92881	1.40245	0.01112
6262.4287	1.40243	0.01113
6260.92859	1.40242	0.01113
6259.42848	1.40241	0.01114
6257.92836	1.40241	0.01114
6256.42825	1.40241	0.01114
6254.92814	1.40241	0.01114
6253.42803	1.40242	0.01114
6251.92792	1.40242	0.01113
6250.42781	1.40242	0.01113
6248.92769	1.40241	0.01112
6247.42758	1.40241	0.01112
6245.92747	1.40239	0.01111
6244.42736	1.40239	0.0111
6242.92725	1.40237	0.0111
6241.42713	1.40236	0.0111
6239.92702	1.40235	0.01109
6238.42691	1.40233	0.0111
6236.9268	1.40233	0.0111
6235.42669	1.40232	0.0111
6233.92658	1.40231	0.0111
6232.42646	1.40231	0.01111
6230.92635	1.40231	0.01111
6229.42624	1.40232	0.01111
6227.92613	1.40233	0.0111
6226.42602	1.40234	0.0111
6224.9259	1.40235	0.01108
6223.42579	1.40236	0.01108
6221.92568	1.40237	0.01106
6220.42557	1.40237	0.01104
6218.92546	1.40238	0.01102
6217.42535	1.40238	0.01098
6215.92523	1.40237	0.01095
6214.42512	1.40237	0.01092
6212.92501	1.40235	0.01089
6211.4249	1.40233	0.01086
6209.92479	1.4023	0.01083
6208.42467	1.40226	0.0108
6206.92456	1.4022	0.01078
6205.42445	1.40215	0.01077
6203.92434	1.40209	0.01077
6202.42423	1.40204	0.01078
6200.92412	1.40198	0.01079
6199.424	1.40193	0.01082
6197.92389	1.4019	0.01085
6196.42378	1.40188	0.01088
6194.92367	1.40187	0.01092
6193.42356	1.40187	0.01095
6191.92344	1.40189	0.01099
6190.42333	1.40191	0.011
6188.92322	1.40194	0.01101
6187.42311	1.40197	0.01101
6185.923	1.40199	0.01101
6184.42289	1.40201	0.011
6182.92277	1.40201	0.01099
6181.42266	1.40202	0.01097
6179.92255	1.40202	0.01095
6178.42244	1.402	0.01093
6176.92233	1.40197	0.01092
6175.42221	1.40195	0.01091
6173.9221	1.40193	0.01091
6172.42199	1.40191	0.01092
6170.92188	1.4019	0.01092
6169.42177	1.40189	0.01093
6167.92166	1.40189	0.01093
6166.42154	1.40189	0.01093
6164.92143	1.40191	0.01093
6163.42132	1.40192	0.01093
6161.92121	1.40195	0.01092
6160.4211	1.40196	0.01091
6158.92098	1.40198	0.01088
6157.42087	1.40199	0.01085
6155.92076	1.40199	0.01082
6154.42065	1.40198	0.01078
6152.92054	1.40196	0.01075
6151.42043	1.40193	0.01071
6149.92031	1.40188	0.0107
6148.4202	1.40183	0.01068
6146.92009	1.40179	0.01067
6145.41998	1.40173	0.01067
6143.91987	1.40169	0.01068
6142.41975	1.40166	0.01068
6140.91964	1.40163	0.0107
6139.41953	1.40162	0.01072
6137.91942	1.40161	0.01074
6136.41931	1.40161	0.01075
6134.9192	1.40162	0.01076
6133.41908	1.40162	0.01077
6131.91897	1.40164	0.01077
6130.41886	1.40164	0.01076
6128.91875	1.40164	0.01075
6127.41864	1.40163	0.01074
6125.91853	1.40163	0.01074
6124.41841	1.40161	0.01073
6122.9183	1.4016	0.01072
6121.41819	1.40158	0.01071
6119.91808	1.40157	0.0107
6118.41797	1.40155	0.0107
6116.91785	1.40153	0.0107
6115.41774	1.40152	0.0107
6113.91763	1.40152	0.0107
6112.41752	1.40152	0.01069
6110.91741	1.40151	0.01068
6109.4173	1.4015	0.01068
6107.91718	1.40149	0.01067
6106.41707	1.40148	0.01067
6104.91696	1.40146	0.01067
6103.41685	1.40145	0.01066
6101.91674	1.40142	0.01066
6100.41662	1.4014	0.01066
6098.91651	1.40138	0.01066
6097.4164	1.40135	0.01067
6095.91629	1.40135	0.01068
6094.41618	1.40134	0.01069
6092.91607	1.40133	0.01069
6091.41595	1.40133	0.0107
6089.91584	1.40134	0.01071
6088.41573	1.40134	0.01071
6086.91562	1.40137	0.01071
6085.41551	1.40138	0.0107
6083.91539	1.40139	0.01067
6082.41528	1.40139	0.01066
6080.91517	1.40138	0.01064
6079.41506	1.40136	0.01063
6077.91495	1.40133	0.01062
6076.41484	1.4013	0.01061
6074.91472	1.40127	0.01061
6073.41461	1.40124	0.01062
6071.9145	1.40121	0.01063
6070.41439	1.40121	0.01065
6068.91428	1.40122	0.01066
6067.41416	1.40125	0.01067
6065.91405	1.40128	0.01066
6064.41394	1.40132	0.01065
6062.91383	1.40134	0.01062
6061.41372	1.40136	0.0106
6059.91361	1.40136	0.01057
6058.41349	1.40135	0.01054
6056.91338	1.40131	0.0105
6055.41327	1.40128	0.01047
6053.91316	1.40123	0.01045
6052.41305	1.40119	0.01044
6050.91293	1.40114	0.01044
6049.41282	1.40111	0.01044
6047.91271	1.40109	0.01046
6046.4126	1.40107	0.01047
6044.91249	1.40107	0.01048
6043.41238	1.40108	0.01048
6041.91226	1.40108	0.01048
6040.41215	1.40108	0.01048
6038.91204	1.40108	0.01048
6037.41193	1.40108	0.01048
6035.91182	1.40108	0.01047
6034.4117	1.40108	0.01046
6032.91159	1.40106	0.01044
6031.41148	1.40105	0.01043
6029.91137	1.40103	0.01042
6028.41126	1.40102	0.01042
6026.91115	1.40101	0.01042
6025.41103	1.401	0.01042
6023.91092	1.40099	0.01041
6022.41081	1.40098	0.01041
6020.9107	1.40098	0.0104
6019.41059	1.40097	0.0104
6017.91047	1.40097	0.01039
6016.41036	1.40096	0.01039
6014.91025	1.40096	0.01039
6013.41014	1.40096	0.01038
6011.91003	1.40096	0.01038
6010.40992	1.40096	0.01036
6008.9098	1.40096	0.01034
6007.40969	1.40096	0.01033
6005.90958	1.40096	0.01032
6004.40947	1.40096	0.01031
6002.90936	1.40096	0.01029
6001.40924	1.40095	0.01027
5999.90913	1.40094	0.01024
5998.40902	1.40094	0.01022
5996.90891	1.40092	0.0102
5995.4088	1.40091	0.01017
5993.90869	1.4009	0.01016
5992.40857	1.40088	0.01013
5990.90846	1.40087	0.01011
5989.40835	1.40085	0.01008
5987.90824	1.40083	0.01006
5986.40813	1.4008	0.01004
5984.90801	1.40077	0.01001
5983.4079	1.40073	0.01
5981.90779	1.4007	0.00999
5980.40768	1.40066	0.00999
5978.90757	1.40063	0.00998
5977.40746	1.40059	0.00998
5975.90734	1.40055	0.00999
5974.40723	1.40053	0.00999
5972.90712	1.4005	0.01
5971.40701	1.40049	0.01001
5969.9069	1.40048	0.01003
5968.40678	1.40048	0.01003
5966.90667	1.40048	0.01003
5965.40656	1.40048	0.01003
5963.90645	1.40048	0.01003
5962.40634	1.40047	0.01002
5960.90623	1.40047	0.01002
5959.40611	1.40046	0.01001
5957.906	1.40045	0.01
5956.40589	1.40044	0.00999
5954.90578	1.40043	0.00997
5953.40567	1.40042	0.00996
5951.90555	1.40041	0.00994
5950.40544	1.4004	0.00993
5948.90533	1.40039	0.00992
5947.40522	1.40038	0.00991
5945.90511	1.40036	0.00989
5944.405	1.40035	0.00988
5942.90488	1.40032	0.00986
5941.40477	1.4003	0.00985
5939.90466	1.40028	0.00984
5938.40455	1.40026	0.00982
5936.90444	1.40024	0.00982
5935.40433	1.40022	0.0098
5933.90421	1.40021	0.00979
5932.4041	1.40019	0.00978
5930.90399	1.40017	0.00976
5929.40388	1.40014	0.00976
5927.90377	1.40012	0.00974
5926.40365	1.40008	0.00974
5924.90354	1.40004	0.00974
5923.40343	1.40001	0.00974
5921.90332	1.39997	0.00975
5920.40321	1.39995	0.00976
5918.9031	1.39993	0.00977
5917.40298	1.39993	0.00978
5915.90287	1.39993	0.00978
5914.40276	1.39994	0.00978
5912.90265	1.39994	0.00978
5911.40254	1.39995	0.00977
5909.90242	1.39995	0.00976
5908.40231	1.39995	0.00973
5906.9022	1.39994	0.00971
5905.40209	1.39991	0.00968
5903.90198	1.39988	0.00966
5902.40187	1.39984	0.00965
5900.90175	1.3998	0.00964
5899.40164	1.39977	0.00963
5897.90153	1.39973	0.00963
5896.40142	1.3997	0.00963
5894.90131	1.39966	0.00963
5893.40119	1.39964	0.00964
5891.90108	1.39962	0.00965
5890.40097	1.3996	0.00965
5888.90086	1.3996	0.00966
5887.40075	1.39959	0.00966
5885.90064	1.39958	0.00966
5884.40052	1.39956	0.00966
5882.90041	1.39955	0.00966
5881.4003	1.39953	0.00966
5879.90019	1.39952	0.00966
5878.40008	1.39951	0.00966
5876.89996	1.3995	0.00965
5875.39985	1.39948	0.00964
5873.89974	1.39947	0.00964
5872.39963	1.39946	0.00963
5870.89952	1.39945	0.00962
5869.39941	1.39944	0.00961
5867.89929	1.39941	0.0096
5866.39918	1.39938	0.00959
5864.89907	1.39935	0.00959
5863.39896	1.39932	0.00959
5861.89885	1.39929	0.00959
5860.39873	1.39926	0.0096
5858.89862	1.39923	0.0096
5857.39851	1.39921	0.00961
5855.8984	1.39919	0.00962
5854.39829	1.39917	0.00964
5852.89818	1.39917	0.00965
5851.39806	1.39917	0.00967
5849.89795	1.39917	0.00967
5848.39784	1.39918	0.00968
5846.89773	1.39918	0.00968
5845.39762	1.39918	0.00967
5843.8975	1.39918	0.00967
5842.39739	1.39918	0.00967
5840.89728	1.39919	0.00965
5839.39717	1.39919	0.00964
5837.89706	1.39918	0.00962
5836.39695	1.39917	0.00961
5834.89683	1.39917	0.00959
5833.39672	1.39916	0.00957
5831.89661	1.39915	0.00955
5830.3965	1.39913	0.00953
5828.89639	1.39912	0.00951
5827.39627	1.3991	0.00948
5825.89616	1.39908	0.00947
5824.39605	1.39905	0.00944
5822.89594	1.39901	0.00942
5821.39583	1.39897	0.00942
5819.89572	1.39893	0.00941
5818.3956	1.3989	0.0094
5816.89549	1.39886	0.0094
5815.39538	1.39882	0.0094
5813.89527	1.39878	0.00941
5812.39516	1.39875	0.00942
5810.89504	1.39873	0.00943
5809.39493	1.3987	0.00944
5807.89482	1.39869	0.00946
5806.39471	1.39867	0.00947
5804.8946	1.39867	0.00948
5803.39449	1.39865	0.00949
5801.89437	1.39865	0.0095
5800.39426	1.39865	0.00951
5798.89415	1.39865	0.00951
5797.39404	1.39864	0.00951
5795.89393	1.39864	0.00951
5794.39381	1.39864	0.0095
5792.8937	1.39863	0.00949
5791.39359	1.39863	0.00949
5789.89348	1.39864	0.00948
5788.39337	1.39864	0.00946
5786.89326	1.39864	0.00944
5785.39314	1.39863	0.00941
5783.89303	1.39862	0.00938
5782.39292	1.39861	0.00936
5780.89281	1.39859	0.00933
5779.3927	1.39855	0.0093
5777.89258	1.3985	0.00928
5776.39247	1.39844	0.00927
5774.89236	1.39839	0.00926
5773.39225	1.39833	0.00926
5771.89214	1.39827	0.00927
5770.39203	1.39822	0.0093
5768.89191	1.39819	0.00932
5767.3918	1.39816	0.00934
5765.89169	1.39815	0.00937
5764.39158	1.39815	0.00938
5762.89147	1.39815	0.0094
5761.39135	1.39816	0.00941
5759.89124	1.39817	0.00942
5758.39113	1.39817	0.00942
5756.89102	1.39817	0.00941
5755.39091	1.39815	0.00941
5753.8908	1.39813	0.0094
5752.39068	1.3981	0.00941
5750.89057	1.39808	0.00941
5749.39046	1.39805	0.00942
5747.89035	1.39804	0.00942
5746.39024	1.39803	0.00942
5744.89013	1.39802	0.00943
5743.39001	1.39802	0.00943
5741.8899	1.39802	0.00944
5740.38979	1.39802	0.00944
5738.88968	1.39802	0.00944
5737.38957	1.39802	0.00944
5735.88945	1.39802	0.00943
5734.38934	1.39802	0.00942
5732.88923	1.39802	0.0094
5731.38912	1.39802	0.00939
5729.88901	1.39802	0.00936
5728.3889	1.398	0.00935
5726.88878	1.39799	0.00932
5725.38867	1.39797	0.0093
5723.88856	1.39795	0.00927
5722.38845	1.39792	0.00924
5720.88834	1.39787	0.00923
5719.38822	1.39782	0.00921
5717.88811	1.39777	0.00921
5716.388	1.39772	0.00922
5714.88789	1.39766	0.00922
5713.38778	1.39762	0.00924
5711.88767	1.39757	0.00927
5710.38755	1.39754	0.0093
5708.88744	1.3975	0.00933
5707.38733	1.39749	0.00938
5705.88722	1.3975	0.00942
5704.38711	1.39751	0.00944
5702.88699	1.39754	0.00946
5701.38688	1.39757	0.00948
5699.88677	1.3976	0.00948
5698.38666	1.39763	0.00947
5696.88655	1.39766	0.00947
5695.38644	1.39769	0.00944
5693.88632	1.39769	0.00941
5692.38621	1.39768	0.00939
5690.8861	1.39767	0.00936
5689.38599	1.39765	0.00933
5687.88588	1.39763	0.00931
5686.38576	1.3976	0.00929
5684.88565	1.39757	0.00927
5683.38554	1.39755	0.00926
5681.88543	1.39752	0.00925
5680.38532	1.3975	0.00925
5678.88521	1.39747	0.00924
5677.38509	1.39745	0.00924
5675.88498	1.39742	0.00924
5674.38487	1.3974	0.00925
5672.88476	1.39739	0.00925
5671.38465	1.39737	0.00925
5669.88453	1.39736	0.00925
5668.38442	1.39735	0.00925
5666.88431	1.39735	0.00925
5665.3842	1.39736	0.00925
5663.88409	1.39736	0.00924
5662.38398	1.39737	0.00922
5660.88386	1.39736	0.00921
5659.38375	1.39735	0.00918
5657.88364	1.39733	0.00916
5656.38353	1.39731	0.00915
5654.88342	1.39728	0.00913
5653.3833	1.39725	0.00912
5651.88319	1.39722	0.0091
5650.38308	1.39719	0.00909
5648.88297	1.39716	0.00908
5647.38286	1.39714	0.00907
5645.88275	1.39711	0.00907
5644.38263	1.39708	0.00907
5642.88252	1.39705	0.00907
5641.38241	1.39701	0.00908
5639.8823	1.39699	0.00908
5638.38219	1.39696	0.00909
5636.88207	1.39695	0.00909
5635.38196	1.39693	0.0091
5633.88185	1.39692	0.00911
5632.38174	1.39691	0.00911
5630.88163	1.39692	0.00911
5629.38152	1.39692	0.0091
5627.8814	1.39691	0.00909
5626.38129	1.39689	0.00908
5624.88118	1.39687	0.00907
5623.38107	1.39684	0.00907
5621.88096	1.3968	0.00907
5620.38084	1.39676	0.00907
5618.88073	1.39673	0.00908
5617.38062	1.39669	0.0091
5615.88051	1.39666	0.00911
5614.3804	1.39665	0.00914
5612.88029	1.39665	0.00916
5611.38017	1.39667	0.00918
5609.88006	1.39669	0.00919
5608.37995	1.39673	0.00919
5606.87984	1.39676	0.00917
5605.37973	1.39678	0.00916
5603.87961	1.39681	0.00913
5602.3795	1.39681	0.0091
5600.87939	1.3968	0.00906
5599.37928	1.39677	0.00902
5597.87917	1.39673	0.00899
5596.37906	1.39668	0.00896
5594.87894	1.39663	0.00895
5593.37883	1.39657	0.00894
5591.87872	1.39653	0.00894
5590.37861	1.39649	0.00895
5588.8785	1.39647	0.00896
5587.37838	1.39645	0.00897
5585.87827	1.39644	0.00898
5584.37816	1.39643	0.00899
5582.87805	1.39643	0.009
5581.37794	1.39642	0.009
5579.87783	1.39641	0.00901
5578.37771	1.3964	0.00901
5576.8776	1.39639	0.009
5575.37749	1.39637	0.00901
5573.87738	1.39636	0.00901
5572.37727	1.39635	0.00901
5570.87715	1.39635	0.009
5569.37704	1.39635	0.009
5567.87693	1.39635	0.00899
5566.37682	1.39635	0.00897
5564.87671	1.39635	0.00896
5563.3766	1.39635	0.00894
5561.87648	1.39635	0.00892
5560.37637	1.39632	0.0089
5558.87626	1.39629	0.00889
5557.37615	1.39625	0.00887
5555.87604	1.39621	0.00887
5554.37592	1.39618	0.00887
5552.87581	1.39614	0.00887
5551.3757	1.39612	0.00888
5549.87559	1.39609	0.00889
5548.37548	1.39608	0.0089
5546.87537	1.39609	0.00891
5545.37525	1.3961	0.00891
5543.87514	1.39611	0.00891
5542.37503	1.39612	0.00891
5540.87492	1.39612	0.00889
5539.37481	1.39612	0.00887
5537.8747	1.39612	0.00886
5536.37458	1.39611	0.00884
5534.87447	1.39609	0.00882
5533.37436	1.39605	0.0088
5531.87425	1.39603	0.00879
5530.37414	1.396	0.00878
5528.87402	1.39598	0.00878
5527.37391	1.39595	0.00878
5525.8738	1.39593	0.00878
5524.37369	1.39592	0.00878
5522.87358	1.39591	0.00878
5521.37347	1.39592	0.00878
5519.87335	1.39593	0.00877
5518.37324	1.39594	0.00875
5516.87313	1.39594	0.00873
5515.37302	1.39594	0.00872
5513.87291	1.39592	0.00869
5512.37279	1.3959	0.00868
5510.87268	1.39588	0.00865
5509.37257	1.39584	0.00863
5507.87246	1.39581	0.00862
5506.37235	1.39577	0.0086
5504.87224	1.39575	0.0086
5503.37212	1.39573	0.00859
5501.87201	1.39572	0.00859
5500.3719	1.3957	0.00859
5498.87179	1.39567	0.00859
5497.37168	1.39566	0.00859
5495.87156	1.39564	0.00859
5494.37145	1.39563	0.00859
5492.87134	1.39562	0.00859
5491.37123	1.39561	0.00859
5489.87112	1.39563	0.00857
5488.37101	1.39564	0.00855
5486.87089	1.39566	0.00852
5485.37078	1.39567	0.00849
5483.87067	1.39567	0.00846
5482.37056	1.39565	0.00843
5480.87045	1.39562	0.00838
5479.37033	1.39558	0.00835
5477.87022	1.39552	0.00832
5476.37011	1.39545	0.00829
5474.87	1.39538	0.00828
5473.36989	1.39533	0.00829
5471.86978	1.39529	0.0083
5470.36966	1.39527	0.0083
5468.86955	1.39524	0.00831
5467.36944	1.39522	0.00832
5465.86933	1.39518	0.00834
5464.36922	1.39517	0.00835
5462.8691	1.39516	0.00837
5461.36899	1.39515	0.00837
5459.86888	1.39514	0.00838
5458.36877	1.39513	0.00839
5456.86866	1.39514	0.00839
5455.36855	1.39515	0.00838
5453.86843	1.39516	0.00838
5452.36832	1.39517	0.00837
5450.86821	1.39517	0.00836
5449.3681	1.39517	0.00834
5447.86799	1.39516	0.00832
5446.36787	1.39515	0.0083
5444.86776	1.39515	0.00827
5443.36765	1.39514	0.00824
5441.86754	1.39512	0.00822
5440.36743	1.39511	0.00819
5438.86732	1.3951	0.00816
5437.3672	1.39507	0.00814
5435.86709	1.39504	0.00812
5434.36698	1.395	0.00811
5432.86687	1.39496	0.00809
5431.36676	1.39493	0.00808
5429.86664	1.39491	0.00808
5428.36653	1.39489	0.00807
5426.86642	1.39489	0.00806
5425.36631	1.3949	0.00803
5423.8662	1.39491	0.008
5422.36609	1.39492	0.00797
5420.86597	1.39491	0.00794
5419.36586	1.39487	0.00791
5417.86575	1.39483	0.00788
5416.36564	1.39477	0.00785
5414.86553	1.39471	0.00782
5413.36541	1.39463	0.00781
5411.8653	1.39457	0.00782
5410.36519	1.39452	0.00782
5408.86508	1.39451	0.00783
5407.36497	1.39451	0.00783
5405.86486	1.39452	0.00782
5404.36474	1.3945	0.00781
5402.86463	1.39448	0.00781
5401.36452	1.39446	0.00781
5399.86441	1.39444	0.00781
5398.3643	1.39441	0.00779
5396.86418	1.39437	0.00778
5395.36407	1.39433	0.00776
5393.86396	1.39429	0.00776
5392.36385	1.39427	0.00777
5390.86374	1.39429	0.00778
5389.36363	1.39431	0.00776
5387.86351	1.39432	0.00773
5386.3634	1.39431	0.00769
5384.86329	1.39427	0.00767
5383.36318	1.39423	0.00766
5381.86307	1.39419	0.00766
5380.36295	1.39416	0.00765
5378.86284	1.39412	0.00763
5377.36273	1.39406	0.00761
5375.86262	1.39402	0.00761
5374.36251	1.39399	0.00762
5372.8624	1.39399	0.00763
5371.36228	1.39401	0.00765
5369.86217	1.39403	0.00764
5368.36206	1.39405	0.0076
5366.86195	1.39406	0.00756
5365.36184	1.39406	0.00751
5363.86172	1.39405	0.00747
5362.36161	1.39401	0.00744
5360.8615	1.39395	0.00741
5359.36139	1.39389	0.00738
5357.86128	1.39383	0.00735
5356.36117	1.39375	0.00732
5354.86105	1.39367	0.00732
5353.36094	1.3936	0.00733
5351.86083	1.39356	0.00736
5350.36072	1.39355	0.00738
5348.86061	1.39356	0.00739
5347.3605	1.39357	0.00739
5345.86038	1.39356	0.00738
5344.36027	1.39354	0.00738
5342.86016	1.39353	0.00738
5341.36005	1.39355	0.00737
5339.85994	1.39355	0.00735
5338.35982	1.39353	0.00732
5336.85971	1.39349	0.00729
5335.3596	1.39346	0.00727
5333.85949	1.39344	0.00725
5332.35938	1.39344	0.00724
5330.85927	1.39343	0.0072
5329.35915	1.39341	0.00717
5327.85904	1.39337	0.00714
5326.35893	1.39333	0.00711
5324.85882	1.39331	0.0071
5323.35871	1.39329	0.00707
5321.85859	1.39326	0.00704
5320.35848	1.39321	0.007
5318.85837	1.39316	0.00696
5317.35826	1.3931	0.00694
5315.85815	1.39305	0.00693
5314.35804	1.393	0.00692
5312.85792	1.39295	0.00692
5311.35781	1.39289	0.0069
5309.8577	1.39282	0.0069
5308.35759	1.39277	0.00691
5306.85748	1.39274	0.00692
5305.35736	1.39271	0.00693
5303.85725	1.3927	0.00694
5302.35714	1.3927	0.00693
5300.85703	1.39269	0.00692
5299.35692	1.39267	0.0069
5297.85681	1.39265	0.0069
5296.35669	1.39263	0.00687
5294.85658	1.3926	0.00686
5293.35647	1.39255	0.00683
5291.85636	1.3925	0.00682
5290.35625	1.39243	0.00681
5288.85613	1.39238	0.00681
5287.35602	1.39233	0.00681
5285.85591	1.39231	0.00681
5284.3558	1.39228	0.00681
5282.85569	1.39226	0.00681
5281.35558	1.39224	0.00681
5279.85546	1.39221	0.00681
5278.35535	1.3922	0.00681
5276.85524	1.39217	0.0068
5275.35513	1.39214	0.00679
5273.85502	1.39211	0.00677
5272.3549	1.39206	0.00677
5270.85479	1.39202	0.00677
5269.35468	1.39199	0.00677
5267.85457	1.39196	0.00677
5266.35446	1.39194	0.00676
5264.85435	1.39192	0.00676
5263.35423	1.39189	0.00675
5261.85412	1.39188	0.00675
5260.35401	1.39186	0.00674
5258.8539	1.39186	0.00672
5257.35379	1.39184	0.00671
5255.85367	1.3918	0.00668
5254.35356	1.39174	0.00668
5252.85345	1.39169	0.00668
5251.35334	1.39164	0.00668
5249.85323	1.39161	0.00669
5248.35312	1.39157	0.00669
5246.853	1.39154	0.00669
5245.35289	1.39152	0.0067
5243.85278	1.39152	0.00671
5242.35267	1.39154	0.00671
5240.85256	1.39156	0.0067
5239.35244	1.39157	0.00668
5237.85233	1.39158	0.00664
5236.35222	1.39156	0.00661
5234.85211	1.39154	0.00658
5233.352	1.3915	0.00655
5231.85189	1.39145	0.00652
5230.35177	1.39141	0.00651
5228.85166	1.39137	0.00648
5227.35155	1.39134	0.00646
5225.85144	1.3913	0.00644
5224.35133	1.39129	0.00643
5222.85121	1.39128	0.00641
5221.3511	1.39128	0.00639
5219.85099	1.3913	0.00634
5218.35088	1.39131	0.00629
5216.85077	1.39128	0.00624
5215.35066	1.39124	0.00617
5213.85054	1.39119	0.00611
5212.35043	1.39114	0.00605
5210.85032	1.39107	0.00599
5209.35021	1.39097	0.00593
5207.8501	1.39085	0.0059
5206.34998	1.39074	0.00587
5204.84987	1.39064	0.00586
5203.34976	1.39055	0.00586
5201.84965	1.39044	0.00587
5200.34954	1.39035	0.00589
5198.84943	1.39026	0.00593
5197.34931	1.3902	0.00597
5195.8492	1.39014	0.006
5194.34909	1.39011	0.00603
5192.84898	1.39007	0.00607
5191.34887	1.39005	0.0061
5189.84875	1.39005	0.00612
5188.34864	1.39007	0.00612
5186.84853	1.39008	0.00612
5185.34842	1.39007	0.00609
5183.84831	1.39002	0.00608
5182.3482	1.38997	0.00607
5180.84808	1.3899	0.00607
5179.34797	1.38984	0.00608
5177.84786	1.38976	0.0061
5176.34775	1.3897	0.00611
5174.84764	1.38964	0.00613
5173.34752	1.38962	0.00616
5171.84741	1.38963	0.0062
5170.3473	1.38967	0.00621
5168.84719	1.38973	0.0062
5167.34708	1.38977	0.00618
5165.84697	1.38981	0.00613
5164.34685	1.38982	0.00608
5162.84674	1.38981	0.00602
5161.34663	1.38977	0.00595
5159.84652	1.38971	0.00587
5158.34641	1.38963	0.0058
5156.8463	1.38952	0.00574
5155.34618	1.3894	0.0057
5153.84607	1.38928	0.00569
5152.34596	1.38918	0.00568
5150.84585	1.3891	0.00568
5149.34574	1.38901	0.00569
5147.84562	1.38894	0.0057
5146.34551	1.38885	0.00572
5144.8454	1.38878	0.00575
5143.34529	1.38872	0.00578
5141.84518	1.38867	0.00581
5140.34507	1.38863	0.00584
5138.84495	1.38857	0.00585
5137.34484	1.38852	0.00587
5135.84473	1.38847	0.0059
5134.34462	1.38842	0.00594
5132.84451	1.38839	0.00597
5131.34439	1.38836	0.006
5129.84428	1.38833	0.00601
5128.34417	1.3883	0.00603
5126.84406	1.38828	0.00605
5125.34395	1.38826	0.00607
5123.84384	1.38825	0.00609
5122.34372	1.38825	0.00609
5120.84361	1.38823	0.00608
5119.3435	1.38822	0.00607
5117.84339	1.38818	0.00606
5116.34328	1.38813	0.00606
5114.84316	1.38808	0.00607
5113.34305	1.38804	0.00607
5111.84294	1.38799	0.00608
5110.34283	1.38794	0.00609
5108.84272	1.3879	0.0061
5107.34261	1.38787	0.00612
5105.84249	1.38786	0.00613
5104.34238	1.38785	0.00614
5102.84227	1.38786	0.00615
5101.34216	1.38786	0.00614
5099.84205	1.38785	0.00613
5098.34193	1.38783	0.00611
5096.84182	1.38781	0.00608
5095.34171	1.38778	0.00606
5093.8416	1.38774	0.00603
5092.34149	1.38769	0.006
5090.84138	1.38764	0.00597
5089.34126	1.38757	0.00595
5087.84115	1.3875	0.00593
5086.34104	1.38743	0.00592
5084.84093	1.38735	0.00592
5083.34082	1.38726	0.00593
5081.8407	1.38718	0.00596
5080.34059	1.3871	0.00599
5078.84048	1.38703	0.00604
5077.34037	1.38697	0.00608
5075.84026	1.38692	0.00614
5074.34015	1.3869	0.0062
5072.84003	1.3869	0.00624
5071.33992	1.38693	0.00628
5069.83981	1.38696	0.00631
5068.3397	1.38699	0.00633
5066.83959	1.38703	0.00633
5065.33947	1.38706	0.00632
5063.83936	1.3871	0.00628
5062.33925	1.3871	0.00625
5060.83914	1.3871	0.0062
5059.33903	1.38709	0.00616
5057.83892	1.38706	0.0061
5056.3388	1.38701	0.00605
5054.83869	1.38697	0.00601
5053.33858	1.38691	0.00596
5051.83847	1.38685	0.00591
5050.33836	1.38679	0.00588
5048.83824	1.38671	0.00586
5047.33813	1.38663	0.00583
5045.83802	1.38656	0.00582
5044.33791	1.38649	0.0058
5042.8378	1.38641	0.00579
5041.33769	1.38633	0.00579
5039.83757	1.38626	0.0058
5038.33746	1.38618	0.00581
5036.83735	1.38611	0.00583
5035.33724	1.38605	0.00583
5033.83713	1.38598	0.00585
5032.33701	1.38592	0.00588
5030.8369	1.38586	0.00589
5029.33679	1.38582	0.00592
5027.83668	1.38579	0.00594
5026.33657	1.38576	0.00596
5024.83646	1.38572	0.00597
5023.33634	1.38568	0.00598
5021.83623	1.38564	0.00598
5020.33612	1.3856	0.00599
5018.83601	1.38556	0.00599
5017.3359	1.3855	0.00601
5015.83578	1.38544	0.00602
5014.33567	1.38536	0.00603
5012.83556	1.38529	0.00606
5011.33545	1.38523	0.0061
5009.83534	1.38519	0.00614
5008.33523	1.38514	0.00618
5006.83511	1.38512	0.00622
5005.335	1.3851	0.00626
5003.83489	1.3851	0.00629
5002.33478	1.38512	0.00632
5000.83467	1.38514	0.00633
4999.33455	1.38516	0.00632
4997.83444	1.38518	0.00631
4996.33433	1.38518	0.00627
4994.83422	1.38516	0.00624
4993.33411	1.38513	0.0062
4991.834	1.38508	0.00617
4990.33388	1.38501	0.00614
4988.83377	1.38493	0.00611
4987.33366	1.38482	0.0061
4985.83355	1.38472	0.00612
4984.33344	1.38461	0.00613
4982.83332	1.38453	0.00617
4981.33321	1.38445	0.00622
4979.8331	1.3844	0.00627
4978.33299	1.38436	0.00632
4976.83288	1.38434	0.00638
4975.33277	1.38434	0.00643
4973.83265	1.38435	0.00647
4972.33254	1.38437	0.00651
4970.83243	1.38438	0.00652
4969.33232	1.3844	0.00653
4967.83221	1.3844	0.00653
4966.3321	1.38441	0.00653
4964.83198	1.38442	0.00652
4963.33187	1.38441	0.00649
4961.83176	1.38438	0.00647
4960.33165	1.38436	0.00645
4958.83154	1.38432	0.00643
4957.33142	1.38429	0.00642
4955.83131	1.38425	0.00639
4954.3312	1.38421	0.00638
4952.83109	1.38417	0.00637
4951.33098	1.38413	0.00636
4949.83087	1.3841	0.00634
4948.33075	1.38407	0.00632
4946.83064	1.38403	0.00631
4945.33053	1.38398	0.00628
4943.83042	1.38392	0.00627
4942.33031	1.38386	0.00626
4940.83019	1.38379	0.00626
4939.33008	1.38371	0.00627
4937.82997	1.38365	0.00627
4936.32986	1.38358	0.00629
4934.82975	1.38352	0.00631
4933.32964	1.38346	0.00633
4931.82952	1.38341	0.00636
4930.32941	1.38338	0.0064
4928.8293	1.38336	0.00643
4927.32919	1.38335	0.00644
4925.82908	1.38335	0.00646
4924.32896	1.38334	0.00646
4922.82885	1.38334	0.00645
4921.32874	1.38334	0.00645
4919.82863	1.38333	0.00642
4918.32852	1.38331	0.00639
4916.82841	1.38327	0.00635
4915.32829	1.38323	0.00632
4913.82818	1.38315	0.00628
4912.32807	1.38307	0.00626
4910.82796	1.38299	0.00625
4909.32785	1.38291	0.00623
4907.82773	1.3828	0.00624
4906.32762	1.38271	0.00624
4904.82751	1.38262	0.00627
4903.3274	1.38253	0.0063
4901.82729	1.38245	0.00634
4900.32718	1.38238	0.00639
4898.82706	1.38232	0.00644
4897.32695	1.38228	0.00648
4895.82684	1.38224	0.00653
4894.32673	1.38221	0.00658
4892.82662	1.38219	0.00662
4891.3265	1.38217	0.00666
4889.82639	1.38216	0.0067
4888.32628	1.38215	0.00673
4886.82617	1.38214	0.00674
4885.32606	1.38212	0.00676
4883.82595	1.3821	0.00677
4882.32583	1.38208	0.00679
4880.82572	1.38206	0.00681
4879.32561	1.38204	0.00681
4877.8255	1.38201	0.00682
4876.32539	1.38197	0.00683
4874.82527	1.38192	0.00685
4873.32516	1.38189	0.00686
4871.82505	1.38186	0.00689
4870.32494	1.38183	0.0069
4868.82483	1.38181	0.00692
4867.32472	1.38178	0.00694
4865.8246	1.38177	0.00696
4864.32449	1.38176	0.00698
4862.82438	1.38175	0.00699
4861.32427	1.38175	0.007
4859.82416	1.38174	0.007
4858.32404	1.38172	0.00701
4856.82393	1.38171	0.00701
4855.32382	1.38169	0.007
4853.82371	1.38167	0.00699
4852.3236	1.38166	0.00698
4850.82349	1.38164	0.00696
4849.32337	1.3816	0.00695
4847.82326	1.38157	0.00693
4846.32315	1.38153	0.00693
4844.82304	1.38148	0.00692
4843.32293	1.38142	0.00691
4841.82281	1.38136	0.00691
4840.3227	1.3813	0.00692
4838.82259	1.38123	0.00694
4837.32248	1.38118	0.00696
4835.82237	1.38114	0.007
4834.32226	1.3811	0.00703
4832.82214	1.38109	0.00706
4831.32203	1.38107	0.00708
4829.82192	1.38107	0.0071
4828.32181	1.38107	0.0071
4826.8217	1.38108	0.00711
4825.32158	1.38108	0.00711
4823.82147	1.38108	0.00709
4822.32136	1.38108	0.00707
4820.82125	1.38106	0.00704
4819.32114	1.38102	0.00702
4817.82103	1.38096	0.00699
4816.32091	1.3809	0.00697
4814.8208	1.38083	0.00697
4813.32069	1.38076	0.00698
4811.82058	1.38069	0.00698
4810.32047	1.38062	0.00699
4808.82035	1.38056	0.00701
4807.32024	1.38051	0.00704
4805.82013	1.38048	0.00706
4804.32002	1.38045	0.00709
4802.81991	1.38042	0.00712
4801.3198	1.38039	0.00714
4799.81968	1.38037	0.00716
4798.31957	1.38034	0.00718
4796.81946	1.3803	0.00721
4795.31935	1.38028	0.00722
4793.81924	1.38026	0.00724
4792.31912	1.38025	0.00725
4790.81901	1.38023	0.00726
4789.3189	1.38021	0.00727
4787.81879	1.3802	0.00728
4786.31868	1.38018	0.00729
4784.81857	1.38016	0.00729
4783.31845	1.38013	0.0073
4781.81834	1.38009	0.0073
4780.31823	1.38004	0.00732
4778.81812	1.38	0.00733
4777.31801	1.37996	0.00736
4775.81789	1.37993	0.00738
4774.31778	1.37991	0.00741
4772.81767	1.3799	0.00744
4771.31756	1.37989	0.00746
4769.81745	1.37988	0.00749
4768.31734	1.37989	0.00752
4766.81722	1.37991	0.00755
4765.31711	1.37993	0.00755
4763.817	1.37995	0.00756
4762.31689	1.37997	0.00755
4760.81678	1.37998	0.00754
4759.31667	1.38	0.00752
4757.81655	1.38002	0.00751
4756.31644	1.38003	0.00748
4754.81633	1.38003	0.00744
4753.31622	1.38002	0.0074
4751.81611	1.38	0.00737
4750.31599	1.37998	0.00734
4748.81588	1.37995	0.00731
4747.31577	1.37992	0.00729
4745.81566	1.37989	0.00726
4744.31555	1.37986	0.00724
4742.81544	1.37983	0.00721
4741.31532	1.37981	0.0072
4739.81521	1.37978	0.00717
4738.3151	1.37977	0.00716
4736.81499	1.37975	0.00713
4735.31488	1.37972	0.0071
4733.81476	1.3797	0.00708
4732.31465	1.37968	0.00705
4730.81454	1.37965	0.00702
4729.31443	1.37961	0.00698
4727.81432	1.37957	0.00695
4726.31421	1.37953	0.00693
4724.81409	1.3795	0.0069
4723.31398	1.37945	0.00688
4721.81387	1.3794	0.00685
4720.31376	1.37936	0.00683
4718.81365	1.37931	0.00681
4717.31353	1.37926	0.0068
4715.81342	1.37923	0.00678
4714.31331	1.37918	0.00677
4712.8132	1.37914	0.00675
4711.31309	1.37911	0.00674
4709.81298	1.37907	0.00672
4708.31286	1.37903	0.00669
4706.81275	1.379	0.00668
4705.31264	1.37896	0.00666
4703.81253	1.37891	0.00665
4702.31242	1.37887	0.00663
4700.8123	1.37881	0.00662
4699.31219	1.37876	0.0066
4697.81208	1.37873	0.00659
4696.31197	1.37868	0.00657
4694.81186	1.37864	0.00656
4693.31175	1.3786	0.00656
4691.81163	1.37857	0.00655
4690.31152	1.37854	0.00654
4688.81141	1.3785	0.00653
4687.3113	1.37847	0.00651
4685.81119	1.37844	0.00649
4684.31107	1.37841	0.00648
4682.81096	1.37838	0.00646
4681.31085	1.37835	0.00644
4679.81074	1.37833	0.00643
4678.31063	1.3783	0.0064
4676.81052	1.37828	0.00637
4675.3104	1.37824	0.00633
4673.81029	1.3782	0.0063
4672.31018	1.37816	0.00627
4670.81007	1.37813	0.00625
4669.30996	1.3781	0.00621
4667.80984	1.37808	0.00616
4666.30973	1.37804	0.00611
4664.80962	1.378	0.00605
4663.30951	1.37795	0.006
4661.8094	1.3779	0.00596
4660.30929	1.37785	0.00591
4658.80917	1.37777	0.00585
4657.30906	1.37768	0.00581
4655.80895	1.37759	0.00576
4654.30884	1.37749	0.00572
4652.80873	1.37739	0.0057
4651.30861	1.37731	0.00568
4649.8085	1.37722	0.00567
4648.30839	1.37714	0.00566
4646.80828	1.37707	0.00566
4645.30817	1.377	0.00565
4643.80806	1.37694	0.00564
4642.30794	1.37689	0.00563
4640.80783	1.37683	0.00561
4639.30772	1.37679	0.0056
4637.80761	1.37673	0.00558
4636.3075	1.37667	0.00555
4634.80738	1.37661	0.00552
4633.30727	1.37653	0.00549
4631.80716	1.37645	0.00546
4630.30705	1.37635	0.00545
4628.80694	1.37626	0.00543
4627.30683	1.37617	0.00542
4625.80671	1.37608	0.00541
4624.3066	1.37599	0.0054
4622.80649	1.37591	0.0054
4621.30638	1.37583	0.0054
4619.80627	1.37577	0.00541
4618.30615	1.3757	0.0054
4616.80604	1.37563	0.0054
4615.30593	1.37556	0.0054
4613.80582	1.37547	0.0054
4612.30571	1.37539	0.0054
4610.8056	1.37533	0.0054
4609.30548	1.37525	0.0054
4607.80537	1.37518	0.00539
4606.30526	1.3751	0.00539
4604.80515	1.37503	0.00539
4603.30504	1.37496	0.00539
4601.80492	1.3749	0.00539
4600.30481	1.37482	0.00538
4598.8047	1.37474	0.00537
4597.30459	1.37466	0.00537
4595.80448	1.37457	0.00537
4594.30437	1.37446	0.00538
4592.80425	1.37437	0.00538
4591.30414	1.37428	0.0054
4589.80403	1.37418	0.00541
4588.30392	1.37409	0.00543
4586.80381	1.374	0.00546
4585.30369	1.3739	0.0055
4583.80358	1.37382	0.00554
4582.30347	1.37374	0.00559
4580.80336	1.37368	0.00563
4579.30325	1.37362	0.00568
4577.80314	1.37356	0.00571
4576.30302	1.37352	0.00575
4574.80291	1.37348	0.00578
4573.3028	1.37346	0.00582
4571.80269	1.37343	0.00584
4570.30258	1.3734	0.00586
4568.80247	1.37336	0.00587
4567.30235	1.37332	0.00587
4565.80224	1.37327	0.00588
4564.30213	1.37321	0.00589
4562.80202	1.37316	0.0059
4561.30191	1.37311	0.00591
4559.80179	1.37305	0.00592
4558.30168	1.373	0.00593
4556.80157	1.37296	0.00595
4555.30146	1.37291	0.00595
4553.80135	1.37288	0.00596
4552.30124	1.37285	0.00596
4550.80112	1.37281	0.00595
4549.30101	1.37277	0.00595
4547.8009	1.37271	0.00594
4546.30079	1.37266	0.00593
4544.80068	1.3726	0.00593
4543.30056	1.37254	0.00591
4541.80045	1.37247	0.00591
4540.30034	1.3724	0.0059
4538.80023	1.37232	0.0059
4537.30012	1.37225	0.00591
4535.80001	1.37218	0.00591
4534.29989	1.3721	0.00592
4532.79978	1.37203	0.00594
4531.29967	1.37195	0.00595
4529.79956	1.37189	0.00597
4528.29945	1.37181	0.00599
4526.79933	1.37175	0.00603
4525.29922	1.37169	0.00605
4523.79911	1.37163	0.00608
4522.299	1.37159	0.0061
4520.79889	1.37155	0.00612
4519.29878	1.37151	0.00614
4517.79866	1.37148	0.00615
4516.29855	1.37146	0.00616
4514.79844	1.37143	0.00616
4513.29833	1.37139	0.00616
4511.79822	1.37133	0.00616
4510.2981	1.37128	0.00616
4508.79799	1.37123	0.00616
4507.29788	1.37118	0.00615
4505.79777	1.37113	0.00613
4504.29766	1.37107	0.00612
4502.79755	1.37102	0.00611
4501.29743	1.37096	0.0061
4499.79732	1.37091	0.00608
4498.29721	1.37084	0.00607
4496.7971	1.37076	0.00605
4495.29699	1.37067	0.00604
4493.79687	1.37057	0.00604
4492.29676	1.37045	0.00604
4490.79665	1.37034	0.00607
4489.29654	1.37022	0.0061
4487.79643	1.37012	0.00615
4486.29632	1.37003	0.0062
4484.7962	1.36995	0.00625
4483.29609	1.3699	0.00632
4481.79598	1.36986	0.00638
4480.29587	1.36985	0.00643
4478.79576	1.36985	0.00647
4477.29564	1.36986	0.0065
4475.79553	1.36986	0.00651
4474.29542	1.36986	0.00651
4472.79531	1.36983	0.0065
4471.2952	1.36981	0.00649
4469.79509	1.36977	0.00648
4468.29497	1.36971	0.00647
4466.79486	1.36964	0.00645
4465.29475	1.36956	0.00644
4463.79464	1.36948	0.00644
4462.29453	1.36942	0.00645
4460.79441	1.36936	0.00645
4459.2943	1.36932	0.00646
4457.79419	1.36927	0.00647
4456.29408	1.36922	0.00648
4454.79397	1.36918	0.00648
4453.29386	1.36913	0.00648
4451.79374	1.36908	0.00648
4450.29363	1.36901	0.00649
4448.79352	1.36894	0.00649
4447.29341	1.36887	0.00649
4445.7933	1.3688	0.00651
4444.29318	1.36873	0.00652
4442.79307	1.36867	0.00654
4441.29296	1.36863	0.00655
4439.79285	1.3686	0.00657
4438.29274	1.36857	0.00657
4436.79263	1.36853	0.00657
4435.29251	1.36849	0.00657
4433.7924	1.36845	0.00657
4432.29229	1.36841	0.00657
4430.79218	1.36836	0.00656
4429.29207	1.36829	0.00655
4427.79195	1.36822	0.00654
4426.29184	1.36815	0.00653
4424.79173	1.36808	0.00653
4423.29162	1.36801	0.00654
4421.79151	1.36795	0.00654
4420.2914	1.3679	0.00654
4418.79128	1.36785	0.00654
4417.29117	1.36779	0.00654
4415.79106	1.36773	0.00654
4414.29095	1.36768	0.00654
4412.79084	1.36762	0.00654
4411.29072	1.36756	0.00653
4409.79061	1.36749	0.00653
4408.2905	1.36741	0.00653
4406.79039	1.36735	0.00653
4405.29028	1.36727	0.00653
4403.79017	1.36719	0.00653
4402.29005	1.36712	0.00654
4400.78994	1.36705	0.00654
4399.28983	1.36698	0.00656
4397.78972	1.3669	0.00658
4396.28961	1.36683	0.00659
4394.78949	1.36676	0.00662
4393.28938	1.3667	0.00663
4391.78927	1.36664	0.00665
4390.28916	1.36658	0.00666
4388.78905	1.36653	0.00669
4387.28894	1.36648	0.00671
4385.78882	1.36644	0.00671
4384.28871	1.3664	0.00672
4382.7886	1.36635	0.00673
4381.28849	1.3663	0.00673
4379.78838	1.36624	0.00673
4378.28827	1.36618	0.00674
4376.78815	1.36611	0.00675
4375.28804	1.36606	0.00676
4373.78793	1.366	0.00676
4372.28782	1.36596	0.00676
4370.78771	1.36591	0.00676
4369.28759	1.36588	0.00676
4367.78748	1.36583	0.00675
4366.28737	1.36579	0.00674
4364.78726	1.36574	0.00673
4363.28715	1.36566	0.00672
4361.78704	1.36559	0.00671
4360.28692	1.36552	0.0067
4358.78681	1.36543	0.00669
4357.2867	1.36533	0.0067
4355.78659	1.36525	0.0067
4354.28648	1.36517	0.00672
4352.78636	1.36511	0.00673
4351.28625	1.36504	0.00675
4349.78614	1.36498	0.00676
4348.28603	1.36493	0.00677
4346.78592	1.36487	0.00679
4345.28581	1.36483	0.00679
4343.78569	1.36477	0.0068
4342.28558	1.36471	0.0068
4340.78547	1.36466	0.0068
4339.28536	1.3646	0.0068
4337.78525	1.36453	0.00681
4336.28513	1.36446	0.00681
4334.78502	1.3644	0.00682
4333.28491	1.36434	0.00682
4331.7848	1.36428	0.00682
4330.28469	1.36422	0.00683
4328.78458	1.36414	0.00683
4327.28446	1.36408	0.00684
4325.78435	1.36402	0.00685
4324.28424	1.36397	0.00685
4322.78413	1.36393	0.00685
4321.28402	1.36387	0.00684
4319.7839	1.36381	0.00684
4318.28379	1.36375	0.00684
4316.78368	1.36369	0.00684
4315.28357	1.36363	0.00683
4313.78346	1.36357	0.00682
4312.28335	1.36349	0.00681
4310.78323	1.36342	0.0068
4309.28312	1.36334	0.0068
4307.78301	1.36326	0.00681
4306.2829	1.36319	0.00682
4304.78279	1.36312	0.00682
4303.28267	1.36305	0.00683
4301.78256	1.36297	0.00684
4300.28245	1.36291	0.00685
4298.78234	1.36285	0.00686
4297.28223	1.3628	0.00688
4295.78212	1.36276	0.00688
4294.282	1.36271	0.00687
4292.78189	1.36265	0.00686
4291.28178	1.3626	0.00685
4289.78167	1.36254	0.00684
4288.28156	1.36249	0.00683
4286.78144	1.36242	0.00682
4285.28133	1.36234	0.00681
4283.78122	1.36226	0.0068
4282.28111	1.36216	0.0068
4280.781	1.36208	0.0068
4279.28089	1.362	0.00681
4277.78077	1.36193	0.00682
4276.28066	1.36186	0.00683
4274.78055	1.36181	0.00683
4273.28044	1.36177	0.00683
4271.78033	1.36172	0.00683
4270.28021	1.36168	0.00683
4268.7801	1.36164	0.00682
4267.27999	1.36159	0.00679
4265.77988	1.36152	0.00676
4264.27977	1.36145	0.00674
4262.77966	1.36137	0.00671
4261.27954	1.36129	0.0067
4259.77943	1.3612	0.00667
4258.27932	1.36112	0.00665
4256.77921	1.36103	0.00663
4255.2791	1.36093	0.00662
4253.77898	1.36084	0.00661
4252.27887	1.36076	0.0066
4250.77876	1.36067	0.0066
4249.27865	1.36058	0.0066
4247.77854	1.36048	0.0066
4246.27843	1.36039	0.0066
4244.77831	1.3603	0.00661
4243.2782	1.36022	0.00662
4241.77809	1.36013	0.00662
4240.27798	1.36005	0.00664
4238.77787	1.35997	0.00666
4237.27775	1.35992	0.00666
4235.77764	1.35985	0.00667
4234.27753	1.3598	0.00667
4232.77742	1.35976	0.00665
4231.27731	1.35971	0.00664
4229.7772	1.35965	0.00661
4228.27708	1.35959	0.00658
4226.77697	1.35953	0.00655
4225.27686	1.35945	0.00651
4223.77675	1.35935	0.00648
4222.27664	1.35924	0.00644
4220.77652	1.35911	0.00642
4219.27641	1.35898	0.0064
4217.7763	1.35885	0.0064
4216.27619	1.35873	0.0064
4214.77608	1.35861	0.00641
4213.27597	1.3585	0.00642
4211.77585	1.3584	0.00644
4210.27574	1.35831	0.00645
4208.77563	1.35824	0.00647
4207.27552	1.35817	0.00648
4205.77541	1.3581	0.00649
4204.27529	1.35802	0.00649
4202.77518	1.35795	0.00649
4201.27507	1.35786	0.00649
4199.77496	1.35777	0.00648
4198.27485	1.35768	0.00647
4196.77474	1.35758	0.00647
4195.27462	1.35749	0.00646
4193.77451	1.3574	0.00646
4192.2744	1.3573	0.00645
4190.77429	1.35722	0.00645
4189.27418	1.35713	0.00644
4187.77407	1.35703	0.00643
4186.27395	1.35693	0.00642
4184.77384	1.35682	0.00642
4183.27373	1.35671	0.00642
4181.77362	1.35659	0.00642
4180.27351	1.35648	0.00643
4178.77339	1.35636	0.00644
4177.27328	1.35625	0.00645
4175.77317	1.35614	0.00647
4174.27306	1.35603	0.0065
4172.77295	1.35594	0.00651
4171.27284	1.35585	0.00654
4169.77272	1.35576	0.00656
4168.27261	1.35568	0.00658
4166.7725	1.35561	0.00659
4165.27239	1.35553	0.0066
4163.77228	1.35546	0.00661
4162.27216	1.35538	0.00661
4160.77205	1.35529	0.00661
4159.27194	1.3552	0.00661
4157.77183	1.35511	0.00661
4156.27172	1.35501	0.00661
4154.77161	1.35492	0.00661
4153.27149	1.35481	0.0066
4151.77138	1.3547	0.00661
4150.27127	1.35461	0.00661
4148.77116	1.35451	0.00663
4147.27105	1.35442	0.00663
4145.77093	1.35433	0.00664
4144.27082	1.35424	0.00664
4142.77071	1.35415	0.00664
4141.2706	1.35406	0.00665
4139.77049	1.35397	0.00665
4138.27038	1.35388	0.00665
4136.77026	1.35379	0.00664
4135.27015	1.3537	0.00663
4133.77004	1.35359	0.00663
4132.26993	1.35349	0.00662
4130.76982	1.35339	0.00662
4129.2697	1.35329	0.00661
4127.76959	1.35319	0.0066
4126.26948	1.35308	0.00659
4124.76937	1.35297	0.00658
4123.26926	1.35284	0.00658
4121.76915	1.35273	0.00659
4120.26903	1.3526	0.00659
4118.76892	1.35248	0.00659
4117.26881	1.35237	0.0066
4115.7687	1.35224	0.0066
4114.26859	1.35213	0.00662
4112.76847	1.35203	0.00662
4111.26836	1.35192	0.00663
4109.76825	1.35183	0.00663
4108.26814	1.35172	0.00663
4106.76803	1.3516	0.00663
4105.26792	1.35148	0.00664
4103.7678	1.35135	0.00665
4102.26769	1.3512	0.00666
4100.76758	1.35106	0.00668
4099.26747	1.35092	0.00669
4097.76736	1.3508	0.00673
4096.26724	1.35069	0.00675
4094.76713	1.35058	0.00678
4093.26702	1.35048	0.00679
4091.76691	1.35039	0.00681
4090.2668	1.35031	0.00683
4088.76669	1.35021	0.00683
4087.26657	1.35011	0.00683
4085.76646	1.34999	0.00683
4084.26635	1.34986	0.00683
4082.76624	1.34971	0.00683
4081.26613	1.34956	0.00684
4079.76601	1.3494	0.00686
4078.2659	1.34925	0.00689
4076.76579	1.34911	0.00692
4075.26568	1.34897	0.00695
4073.76557	1.34883	0.007
4072.26546	1.34871	0.00705
4070.76534	1.3486	0.00709
4069.26523	1.34849	0.00714
4067.76512	1.34839	0.00719
4066.26501	1.34829	0.00722
4064.7649	1.34819	0.00726
4063.26478	1.34808	0.0073
4061.76467	1.34797	0.00733
4060.26456	1.34787	0.00737
4058.76445	1.34776	0.00741
4057.26434	1.34766	0.00743
4055.76423	1.34757	0.00745
4054.26411	1.34748	0.00748
4052.764	1.34738	0.00749
4051.26389	1.34729	0.00751
4049.76378	1.34719	0.00753
4048.26367	1.34708	0.00753
4046.76355	1.34696	0.00755
4045.26344	1.34683	0.00756
4043.76333	1.34669	0.00758
4042.26322	1.34654	0.00761
4040.76311	1.3464	0.00765
4039.263	1.34626	0.00769
4037.76288	1.34614	0.00773
4036.26277	1.34602	0.00778
4034.76266	1.34592	0.00782
4033.26255	1.34583	0.00787
4031.76244	1.34576	0.00791
4030.26232	1.34568	0.00795
4028.76221	1.3456	0.00796
4027.2621	1.34552	0.00798
4025.76199	1.34542	0.00798
4024.26188	1.3453	0.00799
4022.76177	1.34517	0.008
4021.26165	1.34505	0.00801
4019.76154	1.34492	0.00803
4018.26143	1.3448	0.00804
4016.76132	1.34467	0.00805
4015.26121	1.34453	0.00808
4013.76109	1.3444	0.00811
4012.26098	1.34428	0.00814
4010.76087	1.34416	0.00817
4009.26076	1.34403	0.0082
4007.76065	1.3439	0.00822
4006.26054	1.34377	0.00825
4004.76042	1.34365	0.0083
4003.26031	1.34352	0.00833
4001.7602	1.34341	0.00836
4000.26009	1.3433	0.00839
3998.75998	1.34317	0.00841
3997.25986	1.34305	0.00844
3995.75975	1.34292	0.00847
3994.25964	1.3428	0.00849
3992.75953	1.34266	0.00852
3991.25942	1.34251	0.00857
3989.75931	1.34236	0.0086
3988.25919	1.34221	0.00865
3986.75908	1.34207	0.0087
3985.25897	1.34194	0.00875
3983.75886	1.3418	0.0088
3982.25875	1.34166	0.00886
3980.75864	1.34154	0.00892
3979.25852	1.34142	0.00898
3977.75841	1.3413	0.00904
3976.2583	1.34118	0.0091
3974.75819	1.34106	0.00915
3973.25808	1.34093	0.00921
3971.75796	1.34081	0.00926
3970.25785	1.34069	0.00932
3968.75774	1.34054	0.00939
3967.25763	1.34042	0.00946
3965.75752	1.34027	0.00955
3964.25741	1.34015	0.00964
3962.75729	1.34003	0.00973
3961.25718	1.33993	0.00982
3959.75707	1.33983	0.00991
3958.25696	1.33976	0.01
3956.75685	1.33969	0.01008
3955.25673	1.33965	0.01017
3953.75662	1.33962	0.01023
3952.25651	1.3396	0.01027
3950.7564	1.33956	0.01028
3949.25629	1.33951	0.0103
3947.75618	1.33941	0.01032
3946.25606	1.33929	0.01035
3944.75595	1.33918	0.01039
3943.25584	1.33908	0.01042
3941.75573	1.33895	0.01044
3940.25562	1.3388	0.01049
3938.7555	1.33866	0.01056
3937.25539	1.33854	0.01064
3935.75528	1.33848	0.01072
3934.25517	1.33846	0.01079
3932.75506	1.33843	0.01084
3931.25495	1.33838	0.01087
3929.75483	1.33833	0.01089
3928.25472	1.33829	0.01091
3926.75461	1.33826	0.01091
3925.2545	1.33821	0.01089
3923.75439	1.3381	0.01087
3922.25427	1.33793	0.01086
3920.75416	1.33773	0.01089
3919.25405	1.33751	0.01098
3917.75394	1.33728	0.01111
3916.25383	1.33706	0.01127
3914.75372	1.3369	0.01144
3913.2536	1.33683	0.01163
3911.75349	1.33686	0.01179
3910.25338	1.33701	0.01192
3908.75327	1.33724	0.01201
3907.25316	1.33751	0.01204
3905.75304	1.33779	0.01199
3904.25293	1.33802	0.01186
3902.75282	1.33816	0.01166
3901.25271	1.33817	0.01143
3899.7526	1.33803	0.01122
3898.25249	1.33775	0.01103
3896.75237	1.33743	0.0109
3895.25226	1.33711	0.01083
3893.75215	1.33683	0.01078
3892.25204	1.33661	0.01075
3890.75193	1.33642	0.01073
3889.25181	1.33627	0.01078
3887.7517	1.33619	0.01086
3886.25159	1.33616	0.01094
3884.75148	1.33612	0.011
3883.25137	1.33606	0.01103
3881.75126	1.336	0.01101
3880.25114	1.33592	0.01098
3878.75103	1.33581	0.01095
3877.25092	1.33573	0.01095
3875.75081	1.33571	0.01093
3874.2507	1.33571	0.01088
3872.75058	1.3357	0.01079
3871.25047	1.33565	0.0107
3869.75036	1.33551	0.01064
3868.25025	1.33529	0.01063
3866.75014	1.3351	0.01066
3865.25003	1.33501	0.01065
3863.74991	1.33498	0.01058
3862.2498	1.33495	0.01045
3860.74969	1.33491	0.01035
3859.24958	1.33489	0.01026
3857.74947	1.33491	0.01018
3856.24935	1.33497	0.01007
3854.74924	1.33501	0.00989
3853.24913	1.33488	0.00964
3851.74902	1.33456	0.0094
3850.24891	1.33416	0.00925
3848.7488	1.33381	0.00917
3847.24868	1.33355	0.00912
3845.74857	1.33336	0.00905
3844.24846	1.3332	0.00894
3842.74835	1.33307	0.0088
3841.24824	1.33296	0.00866
3839.74812	1.33288	0.00854
3838.24801	1.33275	0.00842
3836.7479	1.33251	0.00831
3835.24779	1.33214	0.00822
3833.74768	1.33171	0.00813
3832.24757	1.33127	0.00806
3830.74745	1.33087	0.00803
3829.24734	1.33053	0.00803
3827.74723	1.3303	0.00804
3826.24712	1.33017	0.00804
3824.74701	1.33011	0.00803
3823.24689	1.33008	0.00799
3821.74678	1.32999	0.00791
3820.24667	1.32978	0.00781
3818.74656	1.32947	0.0077
3817.24645	1.3291	0.00761
3815.74634	1.32867	0.00756
3814.24622	1.32819	0.00754
3812.74611	1.32776	0.00757
3811.246	1.32745	0.00762
3809.74589	1.32726	0.00765
3808.24578	1.32717	0.00765
3806.74566	1.32714	0.0076
3805.24555	1.32708	0.00751
3803.74544	1.32698	0.00737
3802.24533	1.32682	0.00719
3800.74522	1.3265	0.00699
3799.24511	1.326	0.00681
3797.74499	1.32537	0.00667
3796.24488	1.32466	0.00659
3794.74477	1.32392	0.00662
3793.24466	1.3232	0.00676
3791.74455	1.32255	0.00698
3790.24444	1.32202	0.00725
3788.74432	1.32162	0.00757
3787.24421	1.32133	0.0079
3785.7441	1.3211	0.00824
3784.24399	1.3209	0.00859
3782.74388	1.32074	0.0089
3781.24376	1.32063	0.00919
3779.74365	1.32052	0.00942
3778.24354	1.32037	0.0096
3776.74343	1.32019	0.00979
3775.24332	1.31999	0.00999
3773.74321	1.31982	0.01022
3772.24309	1.31969	0.01045
3770.74298	1.31959	0.01065
3769.24287	1.31949	0.01084
3767.74276	1.31935	0.01104
3766.24265	1.31923	0.0113
3764.74253	1.31913	0.01158
3763.24242	1.31913	0.01185
3761.74231	1.31924	0.01208
3760.2422	1.31942	0.01223
3758.74209	1.31963	0.01233
3757.24198	1.31988	0.01236
3755.74186	1.32021	0.01233
3754.24175	1.32062	0.0122
3752.74164	1.321	0.01197
3751.24153	1.32126	0.01165
3749.74142	1.32131	0.01128
3748.2413	1.32124	0.01088
3746.74119	1.32116	0.01045
3745.24108	1.32105	0.00998
3743.74097	1.32084	0.00947
3742.24086	1.3205	0.009
3740.74075	1.32008	0.00857
3739.24063	1.31969	0.0082
3737.74052	1.31936	0.00784
3736.24041	1.31901	0.00745
3734.7403	1.31853	0.00704
3733.24019	1.31788	0.00666
3731.74007	1.31715	0.00635
3730.23996	1.31637	0.00617
3728.73985	1.31561	0.00609
3727.23974	1.31481	0.00608
3725.73963	1.314	0.00611
3724.23952	1.31321	0.00617
3722.7394	1.31252	0.0063
3721.23929	1.31197	0.00647
3719.73918	1.31152	0.00667
3718.23907	1.31115	0.00689
3716.73896	1.3108	0.0071
3715.23884	1.31049	0.00725
3713.73873	1.31022	0.00733
3712.23862	1.30993	0.00734
3710.73851	1.30955	0.00732
3709.2384	1.30902	0.00732
3707.73829	1.30841	0.00739
3706.23817	1.30777	0.00755
3704.73806	1.30714	0.00776
3703.23795	1.30655	0.00798
3701.73784	1.306	0.00819
3700.23773	1.30553	0.0084
3698.73761	1.30515	0.00862
3697.2375	1.30489	0.00887
3695.73739	1.30469	0.00912
3694.23728	1.30451	0.00933
3692.73717	1.30432	0.0095
3691.23706	1.30404	0.00961
3689.73694	1.30368	0.00968
3688.23683	1.30323	0.00976
3686.73672	1.30276	0.00986
3685.23661	1.30232	0.00999
3683.7365	1.30194	0.01013
3682.23638	1.30163	0.01025
3680.73627	1.30142	0.01029
3679.23616	1.30125	0.01027
3677.73605	1.30109	0.01019
3676.23594	1.30087	0.01004
3674.73583	1.30047	0.00988
3673.23571	1.29989	0.00975
3671.7356	1.29914	0.00967
3670.23549	1.29824	0.00964
3668.73538	1.29719	0.00969
3667.23527	1.29606	0.00988
3665.73515	1.29494	0.01024
3664.23504	1.29393	0.01076
3662.73493	1.29312	0.01139
3661.23482	1.29257	0.01206
3659.73471	1.29228	0.01268
3658.2346	1.29217	0.01321
3656.73448	1.29217	0.01365
3655.23437	1.2922	0.01399
3653.73426	1.29221	0.01425
3652.23415	1.29217	0.0144
3650.73404	1.292	0.01442
3649.23392	1.29158	0.01437
3647.73381	1.29087	0.01434
3646.2337	1.28994	0.01443
3644.73359	1.28891	0.01468
3643.23348	1.2879	0.01508
3641.73337	1.28697	0.0156
3640.23325	1.28618	0.01616
3638.73314	1.28553	0.01676
3637.23303	1.28505	0.01742
3635.73292	1.28474	0.01812
3634.23281	1.28457	0.01883
3632.73269	1.28448	0.01949
3631.23258	1.28445	0.02005
3629.73247	1.2844	0.02047
3628.23236	1.28422	0.02081
3626.73225	1.28392	0.02114
3625.23214	1.28357	0.02148
3623.73202	1.28323	0.02184
3622.23191	1.28292	0.02219
3620.7318	1.28262	0.02251
3619.23169	1.28228	0.02279
3617.73158	1.28189	0.02308
3616.23146	1.28148	0.02341
3614.73135	1.28109	0.02379
3613.23124	1.28067	0.0242
3611.73113	1.28022	0.02462
3610.23102	1.27972	0.02504
3608.73091	1.27919	0.02548
3607.23079	1.27866	0.02595
3605.73068	1.27816	0.02649
3604.23057	1.27772	0.02709
3602.73046	1.27733	0.02772
3601.23035	1.27701	0.02837
3599.73024	1.27674	0.02899
3598.23012	1.27655	0.02959
3596.73001	1.2764	0.03015
3595.2299	1.27627	0.03068
3593.72979	1.27614	0.03119
3592.22968	1.276	0.03168
3590.72956	1.27584	0.03215
3589.22945	1.27568	0.03259
3587.72934	1.27545	0.03298
3586.22923	1.27514	0.03338
3584.72912	1.27475	0.03383
3583.22901	1.27432	0.03434
3581.72889	1.2739	0.03492
3580.22878	1.27354	0.03555
3578.72867	1.27324	0.03619
3577.22856	1.27301	0.03681
3575.72845	1.27286	0.03742
3574.22833	1.27279	0.03804
3572.72822	1.2728	0.03864
3571.22811	1.27287	0.0392
3569.728	1.27296	0.03971
3568.22789	1.27302	0.04013
3566.72778	1.27297	0.0405
3565.22766	1.2728	0.04084
3563.72755	1.27253	0.04122
3562.22744	1.27224	0.04164
3560.72733	1.27192	0.04209
3559.22722	1.27159	0.04259
3557.7271	1.27128	0.04311
3556.22699	1.27101	0.04365
3554.72688	1.27083	0.04421
3553.22677	1.27073	0.0448
3551.72666	1.27067	0.04538
3550.22655	1.27062	0.04595
3548.72643	1.27058	0.0465
3547.22632	1.27055	0.04701
3545.72621	1.27048	0.0475
3544.2261	1.27036	0.04798
3542.72599	1.2702	0.04847
3541.22587	1.27003	0.04898
3539.72576	1.26986	0.04951
3538.22565	1.26973	0.05005
3536.72554	1.26962	0.05061
3535.22543	1.26954	0.05115
3533.72532	1.26948	0.0517
3532.2252	1.26947	0.05224
3530.72509	1.26949	0.05278
3529.22498	1.26952	0.05329
3527.72487	1.26954	0.05378
3526.22476	1.26954	0.05425
3524.72464	1.26949	0.05472
3523.22453	1.26943	0.05518
3521.72442	1.26934	0.05565
3520.22431	1.26924	0.05613
3518.7242	1.26915	0.05663
3517.22409	1.26905	0.05715
3515.72397	1.26898	0.05768
3514.22386	1.26895	0.05822
3512.72375	1.26896	0.05876
3511.22364	1.269	0.05928
3509.72353	1.26905	0.0598
3508.22341	1.26912	0.0603
3506.7233	1.26918	0.06079
3505.22319	1.26926	0.06125
3503.72308	1.26931	0.0617
3502.22297	1.26935	0.06214
3500.72286	1.26935	0.06257
3499.22274	1.26933	0.06301
3497.72263	1.26932	0.06346
3496.22252	1.26931	0.06391
3494.72241	1.26931	0.06437
3493.2223	1.26932	0.06482
3491.72218	1.26933	0.06528
3490.22207	1.26935	0.06574
3488.72196	1.26939	0.06621
3487.22185	1.26944	0.06668
3485.72174	1.26949	0.06713
3484.22163	1.26952	0.06759
3482.72151	1.26957	0.06803
3481.2214	1.26961	0.06847
3479.72129	1.26965	0.06892
3478.22118	1.26968	0.06937
3476.72107	1.26973	0.06982
3475.22095	1.26978	0.07028
3473.72084	1.26984	0.07072
3472.22073	1.26992	0.07115
3470.72062	1.27	0.07159
3469.22051	1.27008	0.07202
3467.7204	1.27016	0.07245
3466.22028	1.27025	0.07286
3464.72017	1.27032	0.07328
3463.22006	1.27039	0.0737
3461.71995	1.27044	0.07412
3460.21984	1.27049	0.07454
3458.71972	1.27054	0.07496
3457.21961	1.27062	0.07539
3455.7195	1.2707	0.07581
3454.21939	1.27081	0.07624
3452.71928	1.27092	0.07665
3451.21917	1.27104	0.07706
3449.71905	1.27119	0.07746
3448.21894	1.27134	0.07784
3446.71883	1.27147	0.0782
3445.21872	1.27158	0.07856
3443.71861	1.27167	0.07892
3442.21849	1.27174	0.07927
3440.71838	1.2718	0.07963
3439.21827	1.27186	0.07999
3437.71816	1.27192	0.08037
3436.21805	1.27197	0.08075
3434.71794	1.27203	0.08114
3433.21782	1.27211	0.08153
3431.71771	1.27222	0.08192
3430.2176	1.27234	0.08231
3428.71749	1.27247	0.0827
3427.21738	1.27259	0.08308
3425.71726	1.27273	0.08345
3424.21715	1.27286	0.08381
3422.71704	1.27299	0.08417
3421.21693	1.27312	0.08451
3419.71682	1.27325	0.08485
3418.21671	1.27335	0.08519
3416.71659	1.27346	0.08552
3415.21648	1.27357	0.08586
3413.71637	1.27368	0.0862
3412.21626	1.2738	0.08654
3410.71615	1.27391	0.08686
3409.21604	1.27402	0.0872
3407.71592	1.27414	0.08753
3406.21581	1.27426	0.08787
3404.7157	1.27439	0.08819
3403.21559	1.27452	0.08852
3401.71548	1.27466	0.08883
3400.21536	1.27479	0.08914
3398.71525	1.27493	0.08943
3397.21514	1.27505	0.08973
3395.71503	1.27518	0.09001
3394.21492	1.2753	0.0903
3392.71481	1.27543	0.09057
3391.21469	1.27553	0.09085
3389.71458	1.27562	0.09111
3388.21447	1.27571	0.09139
3386.71436	1.27578	0.09166
3385.21425	1.27586	0.09194
3383.71413	1.27593	0.09223
3382.21402	1.27601	0.09251
3380.71391	1.27608	0.09281
3379.2138	1.27614	0.09311
3377.71369	1.27622	0.09341
3376.21358	1.2763	0.09371
3374.71346	1.27639	0.09402
3373.21335	1.2765	0.09432
3371.71324	1.27661	0.09462
3370.21313	1.27672	0.09491
3368.71302	1.27684	0.09519
3367.2129	1.27695	0.09547
3365.71279	1.27707	0.09575
3364.21268	1.27718	0.09602
3362.71257	1.27729	0.09628
3361.21246	1.27739	0.09653
3359.71235	1.27748	0.09678
3358.21223	1.27755	0.09703
3356.71212	1.27763	0.09728
3355.21201	1.2777	0.09753
3353.7119	1.27776	0.09778
3352.21179	1.27782	0.09803
3350.71167	1.27788	0.09829
3349.21156	1.27793	0.09854
3347.71145	1.27799	0.09881
3346.21134	1.27804	0.09907
3344.71123	1.2781	0.09934
3343.21112	1.27817	0.0996
3341.711	1.27823	0.09987
3340.21089	1.27828	0.10012
3338.71078	1.27833	0.10039
3337.21067	1.27838	0.10065
3335.71056	1.27842	0.10091
3334.21044	1.27846	0.10119
3332.71033	1.27849	0.10146
3331.21022	1.27853	0.10174
3329.71011	1.27856	0.10201
3328.21	1.27861	0.10229
3326.70989	1.27866	0.10257
3325.20977	1.2787	0.10285
3323.70966	1.27875	0.10313
3322.20955	1.2788	0.10341
3320.70944	1.27883	0.1037
3319.20933	1.27888	0.10398
3317.70921	1.27892	0.10426
3316.2091	1.27895	0.10454
3314.70899	1.27899	0.10483
3313.20888	1.27902	0.10511
3311.70877	1.27906	0.10541
3310.20866	1.2791	0.10569
3308.70854	1.27915	0.10599
3307.20843	1.27918	0.10629
3305.70832	1.27923	0.10657
3304.20821	1.27928	0.10687
3302.7081	1.27932	0.10715
3301.20798	1.27937	0.10744
3299.70787	1.27941	0.10773
3298.20776	1.27945	0.10801
3296.70765	1.27949	0.10829
3295.20754	1.27952	0.10858
3293.70743	1.27954	0.10887
3292.20731	1.27955	0.10916
3290.7072	1.27956	0.10946
3289.20709	1.27957	0.10977
3287.70698	1.27957	0.11008
3286.20687	1.27957	0.1104
3284.70675	1.27959	0.11073
3283.20664	1.27961	0.11107
3281.70653	1.27966	0.1114
3280.20642	1.27971	0.11173
3278.70631	1.27976	0.11206
3277.2062	1.27982	0.11239
3275.70608	1.27988	0.11272
3274.20597	1.27993	0.11304
3272.70586	1.27999	0.11335
3271.20575	1.28002	0.11367
3269.70564	1.28005	0.11398
3268.20552	1.28007	0.11431
3266.70541	1.28009	0.11463
3265.2053	1.28012	0.11496
3263.70519	1.28014	0.1153
3262.20508	1.28017	0.11565
3260.70497	1.28018	0.116
3259.20485	1.28021	0.11636
3257.70474	1.28024	0.11673
3256.20463	1.2803	0.1171
3254.70452	1.28036	0.11746
3253.20441	1.28041	0.11784
3251.70429	1.28047	0.1182
3250.20418	1.28054	0.11857
3248.70407	1.28061	0.11895
3247.20396	1.28069	0.11932
3245.70385	1.28078	0.11968
3244.20374	1.28086	0.12005
3242.70362	1.28094	0.1204
3241.20351	1.28102	0.12077
3239.7034	1.28111	0.12113
3238.20329	1.2812	0.12149
3236.70318	1.28129	0.12185
3235.20306	1.28139	0.1222
3233.70295	1.28148	0.12256
3232.20284	1.28156	0.12291
3230.70273	1.28165	0.12327
3229.20262	1.28172	0.12362
3227.70251	1.2818	0.12399
3226.20239	1.28189	0.12436
3224.70228	1.28197	0.12472
3223.20217	1.28206	0.1251
3221.70206	1.28217	0.12546
3220.20195	1.28228	0.12582
3218.70183	1.28239	0.12619
3217.20172	1.2825	0.12655
3215.70161	1.28262	0.12692
3214.2015	1.28273	0.12727
3212.70139	1.28283	0.12764
3211.20128	1.28293	0.128
3209.70116	1.28302	0.12836
3208.20105	1.28312	0.12872
3206.70094	1.28322	0.12909
3205.20083	1.28333	0.12946
3203.70072	1.28344	0.12983
3202.20061	1.28356	0.1302
3200.70049	1.28369	0.13056
3199.20038	1.28381	0.13093
3197.70027	1.28394	0.13129
3196.20016	1.28405	0.13166
3194.70005	1.28416	0.13201
3193.19993	1.28426	0.13238
3191.69982	1.28436	0.13276
3190.19971	1.28446	0.13314
3188.6996	1.28457	0.13353
3187.19949	1.28469	0.13392
3185.69938	1.28481	0.13431
3184.19926	1.28495	0.1347
3182.69915	1.28509	0.13509
3181.19904	1.28525	0.13548
3179.69893	1.28541	0.13585
3178.19882	1.28557	0.13624
3176.6987	1.28571	0.13661
3175.19859	1.28585	0.13698
3173.69848	1.28598	0.13736
3172.19837	1.28611	0.13773
3170.69826	1.28624	0.13812
3169.19815	1.28636	0.13851
3167.69803	1.2865	0.1389
3166.19792	1.28663	0.1393
3164.69781	1.28678	0.13971
3163.1977	1.28694	0.14011
3161.69759	1.28711	0.14052
3160.19747	1.28728	0.14093
3158.69736	1.28746	0.14134
3157.19725	1.28764	0.14174
3155.69714	1.28783	0.14215
3154.19703	1.28802	0.14254
3152.69692	1.2882	0.14294
3151.1968	1.28838	0.14334
3149.69669	1.28857	0.14373
3148.19658	1.28875	0.14414
3146.69647	1.28895	0.14454
3145.19636	1.28914	0.14494
3143.69624	1.28934	0.14535
3142.19613	1.28954	0.14576
3140.69602	1.28976	0.14616
3139.19591	1.28997	0.14657
3137.6958	1.29021	0.14697
3136.19569	1.29044	0.14738
3134.69557	1.29067	0.14777
3133.19546	1.29091	0.14818
3131.69535	1.29115	0.14857
3130.19524	1.2914	0.14897
3128.69513	1.29165	0.14936
3127.19501	1.2919	0.14974
3125.6949	1.29215	0.15012
3124.19479	1.29241	0.1505
3122.69468	1.29267	0.15087
3121.19457	1.29295	0.15125
3119.69446	1.29322	0.15161
3118.19434	1.2935	0.15197
3116.69423	1.29376	0.15231
3115.19412	1.29402	0.15266
3113.69401	1.29427	0.15301
3112.1939	1.29452	0.15336
3110.69378	1.29476	0.15371
3109.19367	1.29501	0.15406
3107.69356	1.29526	0.15441
3106.19345	1.29549	0.15476
3104.69334	1.29573	0.15512
3103.19323	1.29598	0.15549
3101.69311	1.29624	0.15586
3100.193	1.29649	0.15624
3098.69289	1.29675	0.15661
3097.19278	1.297	0.15698
3095.69267	1.29728	0.15736
3094.19255	1.29755	0.15774
3092.69244	1.29784	0.15812
3091.19233	1.29814	0.1585
3089.69222	1.29845	0.15887
3088.19211	1.29877	0.15923
3086.692	1.29909	0.15959
3085.19188	1.29941	0.15994
3083.69177	1.29973	0.16028
3082.19166	1.30004	0.16062
3080.69155	1.30035	0.16097
3079.19144	1.30065	0.1613
3077.69132	1.30096	0.16163
3076.19121	1.30125	0.16197
3074.6911	1.30157	0.1623
3073.19099	1.30187	0.16265
3071.69088	1.30219	0.16299
3070.19077	1.30252	0.16332
3068.69065	1.30284	0.16366
3067.19054	1.30318	0.16399
3065.69043	1.30351	0.16432
3064.19032	1.30382	0.16464
3062.69021	1.30415	0.16497
3061.19009	1.30448	0.1653
3059.68998	1.3048	0.16563
3058.18987	1.30514	0.16595
3056.68976	1.30548	0.16628
3055.18965	1.30582	0.16659
3053.68954	1.30617	0.16691
3052.18942	1.30652	0.16722
3050.68931	1.30689	0.16754
3049.1892	1.30724	0.16784
3047.68909	1.30759	0.16814
3046.18898	1.30793	0.16844
3044.68886	1.30827	0.16874
3043.18875	1.30862	0.16905
3041.68864	1.30897	0.16934
3040.18853	1.30931	0.16964
3038.68842	1.30966	0.16993
3037.18831	1.31	0.17024
3035.68819	1.31036	0.17053
3034.18808	1.31073	0.17084
3032.68797	1.31108	0.17113
3031.18786	1.31143	0.17143
3029.68775	1.31178	0.17172
3028.18763	1.31214	0.17203
3026.68752	1.31249	0.17234
3025.18741	1.31287	0.17266
3023.6873	1.31325	0.17297
3022.18719	1.31364	0.17326
3020.68708	1.31404	0.17356
3019.18696	1.31445	0.17386
3017.68685	1.31489	0.17414
3016.18674	1.31531	0.17441
3014.68663	1.31573	0.17468
3013.18652	1.31614	0.17494
3011.68641	1.31654	0.17518
3010.18629	1.31693	0.17543
3008.68618	1.31731	0.17569
3007.18607	1.31768	0.17594
3005.68596	1.31805	0.1762
3004.18585	1.31842	0.17648
3002.68573	1.31882	0.17676
3001.18562	1.31921	0.17704
2999.68551	1.31964	0.17732
2998.1854	1.32007	0.1776
2996.68529	1.32052	0.17787
2995.18518	1.32098	0.17814
2993.68506	1.32145	0.17839
2992.18495	1.32192	0.17864
2990.68484	1.32239	0.17888
2989.18473	1.32286	0.1791
2987.68462	1.32331	0.17931
2986.1845	1.32377	0.17951
2984.68439	1.32423	0.17972
2983.18428	1.32468	0.17992
2981.68417	1.32514	0.18011
2980.18406	1.3256	0.18029
2978.68395	1.32604	0.18047
2977.18383	1.32648	0.18066
2975.68372	1.32692	0.18083
2974.18361	1.32736	0.18101
2972.6835	1.32781	0.18119
2971.18339	1.32824	0.18136
2969.68327	1.32868	0.18154
2968.18316	1.32911	0.18172
2966.68305	1.32955	0.1819
2965.18294	1.32999	0.18208
2963.68283	1.33044	0.18226
2962.18272	1.3309	0.18243
2960.6826	1.33135	0.18259
2959.18249	1.3318	0.18276
2957.68238	1.33226	0.18292
2956.18227	1.33272	0.18309
2954.68216	1.33319	0.18325
2953.18204	1.33366	0.18341
2951.68193	1.33412	0.18355
2950.18182	1.33459	0.18369
2948.68171	1.33505	0.18383
2947.1816	1.33552	0.18398
2945.68149	1.33598	0.18412
2944.18137	1.33644	0.18427
2942.68126	1.3369	0.18441
2941.18115	1.33736	0.18456
2939.68104	1.33784	0.18471
2938.18093	1.33833	0.18485
2936.68081	1.33885	0.185
2935.1807	1.33937	0.18513
2933.68059	1.33992	0.18525
2932.18048	1.34048	0.18535
2930.68037	1.34105	0.18544
2929.18026	1.34162	0.1855
2927.68014	1.34218	0.18555
2926.18003	1.34274	0.18557
2924.67992	1.34328	0.18557
2923.17981	1.34382	0.18555
2921.6797	1.34434	0.18551
2920.17958	1.34484	0.18546
2918.67947	1.34531	0.18541
2917.17936	1.34577	0.18534
2915.67925	1.3462	0.18528
2914.17914	1.3466	0.18521
2912.67903	1.34698	0.18515
2911.17891	1.34734	0.18511
2909.6788	1.34767	0.18509
2908.17869	1.348	0.18508
2906.67858	1.34834	0.18509
2905.17847	1.34868	0.18511
2903.67835	1.34903	0.18516
2902.17824	1.34941	0.18521
2900.67813	1.3498	0.18528
2899.17802	1.3502	0.18534
2897.67791	1.35062	0.1854
2896.1778	1.35105	0.18545
2894.67768	1.35149	0.18551
2893.17757	1.35193	0.18556
2891.67746	1.35236	0.18559
2890.17735	1.3528	0.18564
2888.67724	1.35323	0.18567
2887.17712	1.35367	0.1857
2885.67701	1.35411	0.18573
2884.1769	1.35456	0.18574
2882.67679	1.35502	0.18577
2881.17668	1.35548	0.18578
2879.67657	1.35595	0.18579
2878.17645	1.35642	0.18579
2876.67634	1.35688	0.18578
2875.17623	1.35734	0.18577
2873.67612	1.35781	0.18576
2872.17601	1.35826	0.18573
2870.67589	1.35872	0.18572
2869.17578	1.35918	0.18569
2867.67567	1.35964	0.18567
2866.17556	1.36011	0.18565
2864.67545	1.3606	0.18561
2863.17534	1.36111	0.18556
2861.67522	1.36163	0.18549
2860.17511	1.36216	0.1854
2858.675	1.36268	0.18529
2857.17489	1.3632	0.18516
2855.67478	1.36371	0.18501
2854.17466	1.3642	0.18484
2852.67455	1.36466	0.18465
2851.17444	1.36508	0.18446
2849.67433	1.36547	0.18426
2848.17422	1.36583	0.18407
2846.67411	1.36616	0.18388
2845.17399	1.36649	0.18371
2843.67388	1.36681	0.18356
2842.17377	1.36713	0.18342
2840.67366	1.36746	0.1833
2839.17355	1.3678	0.18317
2837.67343	1.36815	0.18307
2836.17332	1.3685	0.18296
2834.67321	1.36886	0.18285
2833.1731	1.36922	0.18274
2831.67299	1.36959	0.18264
2830.17288	1.36996	0.18252
2828.67276	1.37032	0.18241
2827.17265	1.37069	0.18229
2825.67254	1.37106	0.18217
2824.17243	1.37143	0.18205
2822.67232	1.37181	0.18192
2821.17221	1.37219	0.18179
2819.67209	1.37257	0.18165
2818.17198	1.37296	0.18151
2816.67187	1.37334	0.18136
2815.17176	1.37373	0.1812
2813.67165	1.3741	0.18103
2812.17153	1.37447	0.18086
2810.67142	1.37485	0.18068
2809.17131	1.37521	0.18049
2807.6712	1.37555	0.1803
2806.17109	1.3759	0.18011
2804.67098	1.37624	0.17992
2803.17086	1.37657	0.17972
2801.67075	1.3769	0.17954
2800.17064	1.37723	0.17933
2798.67053	1.37756	0.17913
2797.17042	1.37789	0.17894
2795.6703	1.37822	0.17873
2794.17019	1.37855	0.17853
2792.67008	1.37887	0.17831
2791.16997	1.37918	0.17809
2789.66986	1.37949	0.17787
2788.16975	1.3798	0.17765
2786.66963	1.38009	0.17743
2785.16952	1.38037	0.17721
2783.66941	1.38066	0.17698
2782.1693	1.38094	0.17676
2780.66919	1.38122	0.17654
2779.16907	1.3815	0.17631
2777.66896	1.38178	0.17608
2776.16885	1.38206	0.17586
2774.66874	1.38234	0.17562
2773.16863	1.38261	0.17538
2771.66852	1.38288	0.17514
2770.1684	1.38314	0.1749
2768.66829	1.38339	0.17465
2767.16818	1.38364	0.1744
2765.66807	1.38389	0.17415
2764.16796	1.38412	0.17389
2762.66784	1.38435	0.17364
2761.16773	1.38459	0.17338
2759.66762	1.38481	0.17313
2758.16751	1.38504	0.17287
2756.6674	1.38527	0.17261
2755.16729	1.38548	0.17233
2753.66717	1.3857	0.17206
2752.16706	1.38589	0.17179
2750.66695	1.38609	0.17152
2749.16684	1.38627	0.17123
2747.66673	1.38644	0.17095
2746.16661	1.3866	0.17067
2744.6665	1.38674	0.17039
2743.16639	1.38688	0.17012
2741.66628	1.38701	0.16985
2740.16617	1.38713	0.16959
2738.66606	1.38726	0.16933
2737.16594	1.38737	0.16908
2735.66583	1.38748	0.16882
2734.16572	1.38759	0.16857
2732.66561	1.3877	0.16833
2731.1655	1.38781	0.16808
2729.66538	1.38791	0.16784
2728.16527	1.388	0.1676
2726.66516	1.38808	0.16736
2725.16505	1.38816	0.16713
2723.66494	1.38823	0.1669
2722.16483	1.3883	0.16667
2720.66471	1.38835	0.16645
2719.1646	1.3884	0.16624
2717.66449	1.38845	0.16604
2716.16438	1.38849	0.16584
2714.66427	1.38855	0.16566
2713.16415	1.3886	0.16547
2711.66404	1.38865	0.16529
2710.16393	1.38871	0.16512
2708.66382	1.38876	0.16495
2707.16371	1.38882	0.16478
2705.6636	1.38888	0.16461
2704.16348	1.38893	0.16445
2702.66337	1.38898	0.16429
2701.16326	1.38903	0.16413
2699.66315	1.38909	0.16398
2698.16304	1.38913	0.16382
2696.66292	1.38918	0.16367
2695.16281	1.38922	0.16353
2693.6627	1.38926	0.1634
2692.16259	1.38931	0.16326
2690.66248	1.38936	0.16314
2689.16237	1.38942	0.16302
2687.66225	1.38948	0.16288
2686.16214	1.38956	0.16276
2684.66203	1.38963	0.16263
2683.16192	1.38971	0.1625
2681.66181	1.3898	0.16236
2680.16169	1.38989	0.16221
2678.66158	1.38996	0.16206
2677.16147	1.39002	0.16191
2675.66136	1.39007	0.16175
2674.16125	1.39012	0.16159
2672.66114	1.39015	0.16145
2671.16102	1.39016	0.1613
2669.66091	1.39018	0.16117
2668.1608	1.3902	0.16103
2666.66069	1.39022	0.16092
2665.16058	1.39024	0.1608
2663.66046	1.39028	0.16069
2662.16035	1.39031	0.16058
2660.66024	1.39035	0.16049
2659.16013	1.3904	0.16038
2657.66002	1.39045	0.16028
2656.15991	1.3905	0.16017
2654.65979	1.39055	0.16005
2653.15968	1.39059	0.15994
2651.65957	1.39063	0.15983
2650.15946	1.39068	0.15971
2648.65935	1.39071	0.15959
2647.15923	1.39074	0.15948
2645.65912	1.39076	0.15937
2644.15901	1.39079	0.15926
2642.6589	1.39081	0.15915
2641.15879	1.39084	0.15904
2639.65868	1.39085	0.15893
2638.15856	1.39087	0.15882
2636.65845	1.39088	0.15872
2635.15834	1.39089	0.15862
2633.65823	1.39089	0.15853
2632.15812	1.39088	0.15843
2630.658	1.39088	0.15835
2629.15789	1.39087	0.15827
2627.65778	1.39087	0.15819
2626.15767	1.39087	0.15811
2624.65756	1.39087	0.15804
2623.15745	1.39086	0.15798
2621.65733	1.39086	0.15792
2620.15722	1.39085	0.15786
2618.65711	1.39084	0.15781
2617.157	1.39083	0.15777
2615.65689	1.39081	0.15772
2614.15678	1.39079	0.15769
2612.65666	1.39079	0.15766
2611.15655	1.39078	0.15764
2609.65644	1.39077	0.15763
2608.15633	1.39078	0.15762
2606.65622	1.39078	0.15762
2605.1561	1.3908	0.15762
2603.65599	1.39081	0.15762
2602.15588	1.39083	0.15763
2600.65577	1.39086	0.15764
2599.15566	1.39088	0.15765
2597.65555	1.39092	0.15767
2596.15543	1.39097	0.15768
2594.65532	1.391	0.15771
2593.15521	1.39105	0.15773
2591.6551	1.39111	0.15775
2590.15499	1.39117	0.15777
2588.65487	1.39124	0.1578
2587.15476	1.39131	0.15782
2585.65465	1.39139	0.15784
2584.15454	1.39147	0.15787
2582.65443	1.39157	0.15789
2581.15432	1.39166	0.15791
2579.6542	1.39176	0.15792
2578.15409	1.39187	0.15793
2576.65398	1.39197	0.15794
2575.15387	1.39208	0.15795
2573.65376	1.3922	0.15795
2572.15364	1.39231	0.15795
2570.65353	1.39243	0.15794
2569.15342	1.39255	0.15793
2567.65331	1.39266	0.15792
2566.1532	1.39277	0.15791
2564.65309	1.39289	0.1579
2563.15297	1.39301	0.1579
2561.65286	1.39313	0.15788
2560.15275	1.39327	0.15786
2558.65264	1.39339	0.15784
2557.15253	1.39354	0.15781
2555.65241	1.39368	0.15777
2554.1523	1.39382	0.15774
2552.65219	1.39398	0.15769
2551.15208	1.39411	0.15764
2549.65197	1.39424	0.15758
2548.15186	1.39436	0.15752
2546.65174	1.39449	0.15745
2545.15163	1.3946	0.15738
2543.65152	1.39471	0.15732
2542.15141	1.39482	0.15726
2540.6513	1.39493	0.1572
2539.15118	1.39504	0.15713
2537.65107	1.39515	0.15707
2536.15096	1.39526	0.157
2534.65085	1.39536	0.15694
2533.15074	1.39547	0.15688
2531.65063	1.39559	0.15681
2530.15051	1.3957	0.15674
2528.6504	1.39582	0.15668
2527.15029	1.39592	0.1566
2525.65018	1.39602	0.15652
2524.15007	1.39612	0.15644
2522.64995	1.39621	0.15636
2521.14984	1.3963	0.1563
2519.64973	1.39639	0.15623
2518.14962	1.39647	0.15615
2516.64951	1.39656	0.15608
2515.1494	1.39663	0.15602
2513.64928	1.39671	0.15597
2512.14917	1.3968	0.15591
2510.64906	1.39689	0.15585
2509.14895	1.39698	0.1558
2507.64884	1.39707	0.15576
2506.14872	1.39718	0.1557
2504.64861	1.39728	0.15565
2503.1485	1.3974	0.1556
2501.64839	1.39751	0.15554
2500.14828	1.39763	0.15548
2498.64817	1.39774	0.15541
2497.14805	1.39785	0.15535
2495.64794	1.39795	0.15528
2494.14783	1.39805	0.15522
2492.64772	1.39815	0.15515
2491.14761	1.39824	0.15509
2489.64749	1.39834	0.15503
2488.14738	1.39844	0.15497
2486.64727	1.39855	0.15492
2485.14716	1.39867	0.15487
2483.64705	1.3988	0.15481
2482.14694	1.39892	0.15475
2480.64682	1.39906	0.15469
2479.14671	1.3992	0.15462
2477.6466	1.39934	0.15456
2476.14649	1.39948	0.15448
2474.64638	1.39962	0.15441
2473.14626	1.39976	0.15433
2471.64615	1.3999	0.15423
2470.14604	1.40004	0.15415
2468.64593	1.40018	0.15406
2467.14582	1.40033	0.15396
2465.64571	1.40047	0.15386
2464.14559	1.40062	0.15377
2462.64548	1.40077	0.15366
2461.14537	1.40093	0.15355
2459.64526	1.40109	0.15343
2458.14515	1.40125	0.1533
2456.64503	1.40141	0.15316
2455.14492	1.40157	0.15303
2453.64481	1.40173	0.15288
2452.1447	1.40188	0.15273
2450.64459	1.40203	0.15256
2449.14448	1.40218	0.15239
2447.64436	1.40232	0.15221
2446.14425	1.40246	0.15204
2444.64414	1.40258	0.15185
2443.14403	1.40271	0.15166
2441.64392	1.40283	0.15147
2440.1438	1.40296	0.15127
2438.64369	1.40308	0.15106
2437.14358	1.40318	0.15085
2435.64347	1.40329	0.15063
2434.14336	1.40339	0.15042
2432.64325	1.40349	0.1502
2431.14313	1.40359	0.14997
2429.64302	1.40367	0.14973
2428.14291	1.40375	0.1495
2426.6428	1.40381	0.14926
2425.14269	1.40387	0.14901
2423.64258	1.40392	0.14877
2422.14246	1.40395	0.14852
2420.64235	1.40399	0.14827
2419.14224	1.40402	0.14802
2417.64213	1.40403	0.14777
2416.14202	1.40405	0.14752
2414.6419	1.40405	0.14727
2413.14179	1.40405	0.14703
2411.64168	1.40403	0.14678
2410.14157	1.40402	0.14653
2408.64146	1.40399	0.14628
2407.14135	1.40394	0.14603
2405.64123	1.40389	0.14579
2404.14112	1.40382	0.14556
2402.64101	1.40375	0.14533
2401.1409	1.40367	0.14511
2399.64079	1.40358	0.14491
2398.14067	1.4035	0.1447
2396.64056	1.40341	0.14452
2395.14045	1.40333	0.14433
2393.64034	1.40326	0.14414
2392.14023	1.40319	0.14396
2390.64012	1.40313	0.14379
2389.14	1.40307	0.14361
2387.63989	1.40302	0.14343
2386.13978	1.40297	0.14323
2384.63967	1.4029	0.14304
2383.13956	1.40282	0.14283
2381.63944	1.40273	0.14263
2380.13933	1.40264	0.14243
2378.63922	1.40254	0.14224
2377.13911	1.40242	0.14203
2375.639	1.40229	0.14184
2374.13889	1.40216	0.14165
2372.63877	1.40202	0.14147
2371.13866	1.40188	0.1413
2369.63855	1.40174	0.14113
2368.13844	1.40159	0.14097
2366.63833	1.40145	0.14082
2365.13821	1.4013	0.14066
2363.6381	1.40115	0.14051
2362.13799	1.40099	0.14037
2360.63788	1.40084	0.14023
2359.13777	1.40068	0.1401
2357.63766	1.40052	0.13997
2356.13754	1.40037	0.13984
2354.63743	1.4002	0.13972
2353.13732	1.40004	0.1396
2351.63721	1.39987	0.13949
2350.1371	1.39971	0.13938
2348.63698	1.39954	0.13927
2347.13687	1.39937	0.13916
2345.63676	1.3992	0.13906
2344.13665	1.39903	0.13897
2342.63654	1.39885	0.13888
2341.13643	1.39868	0.13878
2339.63631	1.39849	0.1387
2338.1362	1.39831	0.13862
2336.63609	1.39814	0.13854
2335.13598	1.39795	0.13846
2333.63587	1.39777	0.13839
2332.13575	1.39759	0.13833
2330.63564	1.3974	0.13826
2329.13553	1.39721	0.1382
2327.63542	1.39702	0.13815
2326.13531	1.39683	0.13809
2324.6352	1.39663	0.13804
2323.13508	1.39644	0.138
2321.63497	1.39624	0.13796
2320.13486	1.39605	0.13792
2318.63475	1.39585	0.13789
2317.13464	1.39564	0.13786
2315.63452	1.39544	0.13784
2314.13441	1.39524	0.13781
2312.6343	1.39503	0.1378
2311.13419	1.39481	0.13779
2309.63408	1.39461	0.13779
2308.13397	1.39439	0.13778
2306.63385	1.39417	0.13779
2305.13374	1.39395	0.1378
2303.63363	1.39374	0.13782
2302.13352	1.39351	0.13784
2300.63341	1.39328	0.13788
2299.13329	1.39305	0.13791
2297.63318	1.39282	0.13797
2296.13307	1.39258	0.13802
2294.63296	1.39234	0.13809
2293.13285	1.3921	0.13818
2291.63274	1.39185	0.13828
2290.13262	1.39161	0.13839
2288.63251	1.39138	0.13852
2287.1324	1.39115	0.13867
2285.63229	1.39093	0.13883
2284.13218	1.39073	0.139
2282.63206	1.39056	0.13917
2281.13195	1.3904	0.13936
2279.63184	1.39025	0.13955
2278.13173	1.39012	0.13973
2276.63162	1.39001	0.13992
2275.13151	1.38991	0.14011
2273.63139	1.3898	0.14029
2272.13128	1.38971	0.14047
2270.63117	1.38962	0.14065
2269.13106	1.38952	0.14082
2267.63095	1.38944	0.141
2266.13083	1.38935	0.14118
2264.63072	1.38926	0.14136
2263.13061	1.38919	0.14154
2261.6305	1.38911	0.14173
2260.13039	1.38904	0.14192
2258.63028	1.38898	0.14213
2257.13016	1.38892	0.14233
2255.63005	1.38889	0.14253
2254.12994	1.38885	0.14274
2252.62983	1.38883	0.14295
2251.12972	1.38882	0.14317
2249.6296	1.38882	0.14338
2248.12949	1.38883	0.14359
2246.62938	1.38886	0.14381
2245.12927	1.38889	0.14402
2243.62916	1.38895	0.14423
2242.12905	1.389	0.14443
2240.62893	1.38907	0.14462
2239.12882	1.38915	0.14482
2237.62871	1.38925	0.145
2236.1286	1.38936	0.14518
2234.62849	1.38947	0.14535
2233.12838	1.38959	0.14551
2231.62826	1.38972	0.14566
2230.12815	1.38985	0.1458
2228.62804	1.38999	0.14594
2227.12793	1.39013	0.14606
2225.62782	1.39028	0.14617
2224.1277	1.39042	0.14627
2222.62759	1.39058	0.14636
2221.12748	1.39073	0.14645
2219.62737	1.39089	0.14653
2218.12726	1.39105	0.14661
2216.62715	1.39121	0.14666
2215.12703	1.39138	0.14671
2213.62692	1.39154	0.14675
2212.12681	1.3917	0.14678
2210.6267	1.39186	0.1468
2209.12659	1.39203	0.14681
2207.62647	1.39219	0.14682
2206.12636	1.39235	0.14681
2204.62625	1.3925	0.1468
2203.12614	1.39265	0.14678
2201.62603	1.3928	0.14675
2200.12592	1.39294	0.14672
2198.6258	1.39309	0.14668
2197.12569	1.39323	0.14664
2195.62558	1.39337	0.14659
2194.12547	1.39351	0.14653
2192.62536	1.39365	0.14646
2191.12524	1.39379	0.14639
2189.62513	1.39392	0.1463
2188.12502	1.39405	0.14622
2186.62491	1.39417	0.14612
2185.1248	1.39429	0.14602
2183.62469	1.3944	0.14591
2182.12457	1.3945	0.14579
2180.62446	1.39459	0.14567
2179.12435	1.39468	0.14556
2177.62424	1.39476	0.14542
2176.12413	1.39483	0.1453
2174.62401	1.39489	0.14517
2173.1239	1.39494	0.14504
2171.62379	1.395	0.1449
2170.12368	1.39504	0.14478
2168.62357	1.39508	0.14464
2167.12346	1.39513	0.14452
2165.62334	1.39516	0.14438
2164.12323	1.39519	0.14426
2162.62312	1.39522	0.14414
2161.12301	1.39526	0.14401
2159.6229	1.39529	0.14388
2158.12278	1.39532	0.14374
2156.62267	1.39535	0.14361
2155.12256	1.39539	0.14347
2153.62245	1.39543	0.14332
2152.12234	1.39545	0.14317
2150.62223	1.39547	0.14301
2149.12211	1.39548	0.14286
2147.622	1.39549	0.1427
2146.12189	1.39549	0.14255
2144.62178	1.39549	0.14238
2143.12167	1.39548	0.14221
2141.62155	1.39548	0.14205
2140.12144	1.39547	0.14189
2138.62133	1.39546	0.14172
2137.12122	1.39546	0.14154
2135.62111	1.39544	0.14137
2134.121	1.39543	0.14119
2132.62088	1.3954	0.141
2131.12077	1.39538	0.14082
2129.62066	1.39535	0.14063
2128.12055	1.39531	0.14043
2126.62044	1.39526	0.14024
2125.12032	1.39522	0.14002
2123.62021	1.39517	0.13982
2122.1201	1.3951	0.13961
2120.61999	1.39504	0.13939
2119.11988	1.39497	0.13917
2117.61977	1.39488	0.13894
2116.11965	1.39478	0.13873
2114.61954	1.39466	0.1385
2113.11943	1.39454	0.13828
2111.61932	1.39441	0.13806
2110.11921	1.39427	0.13785
2108.61909	1.39412	0.13764
2107.11898	1.39397	0.13744
2105.61887	1.39382	0.13723
2104.11876	1.39368	0.13703
2102.61865	1.39352	0.13682
2101.11854	1.39338	0.13662
2099.61842	1.39322	0.1364
2098.11831	1.39305	0.13619
2096.6182	1.39286	0.13598
2095.11809	1.39268	0.13577
2093.61798	1.39248	0.13556
2092.11786	1.39226	0.13534
2090.61775	1.39204	0.13513
2089.11764	1.3918	0.13493
2087.61753	1.39156	0.13473
2086.11742	1.39131	0.13454
2084.61731	1.39106	0.13435
2083.11719	1.39079	0.13417
2081.61708	1.39053	0.134
2080.11697	1.39025	0.13382
2078.61686	1.38997	0.13366
2077.11675	1.38969	0.13351
2075.61663	1.38941	0.13335
2074.11652	1.38912	0.13321
2072.61641	1.38884	0.13306
2071.1163	1.38855	0.13292
2069.61619	1.38826	0.13278
2068.11608	1.38796	0.13264
2066.61596	1.38766	0.1325
2065.11585	1.38734	0.13238
2063.61574	1.38701	0.13225
2062.11563	1.38667	0.13213
2060.61552	1.38632	0.13203
2059.1154	1.38596	0.13192
2057.61529	1.38561	0.13184
2056.11518	1.38525	0.13176
2054.61507	1.38489	0.13169
2053.11496	1.38455	0.13164
2051.61485	1.38421	0.13159
2050.11473	1.38388	0.13154
2048.61462	1.38355	0.13149
2047.11451	1.38323	0.13145
2045.6144	1.38289	0.1314
2044.11429	1.38255	0.13135
2042.61418	1.38221	0.13131
2041.11406	1.38187	0.13127
2039.61395	1.38151	0.13124
2038.11384	1.38115	0.1312
2036.61373	1.38079	0.13118
2035.11362	1.38043	0.13116
2033.6135	1.38007	0.13115
2032.11339	1.37971	0.13114
2030.61328	1.37935	0.13114
2029.11317	1.379	0.13114
2027.61306	1.37865	0.13115
2026.11295	1.37831	0.13115
2024.61283	1.37797	0.13114
2023.11272	1.37763	0.13114
2021.61261	1.37728	0.13113
2020.1125	1.37693	0.13113
2018.61239	1.37657	0.13112
2017.11227	1.37621	0.1311
2015.61216	1.37582	0.13109
2014.11205	1.37541	0.13108
2012.61194	1.37499	0.13108
2011.11183	1.37456	0.1311
2009.61172	1.37413	0.13113
2008.1116	1.3737	0.13117
2006.61149	1.37325	0.13123
2005.11138	1.37281	0.13129
2003.61127	1.37239	0.13138
2002.11116	1.372	0.13146
2000.61104	1.37161	0.13155
1999.11093	1.37123	0.13162
1997.61082	1.37086	0.13169
1996.11071	1.3705	0.13176
1994.6106	1.37012	0.13182
1993.11049	1.36975	0.13187
1991.61037	1.36935	0.1319
1990.11026	1.3689	0.13194
1988.61015	1.36843	0.13198
1987.11004	1.36793	0.13204
1985.60993	1.36742	0.13211
1984.10981	1.36689	0.13222
1982.6097	1.36636	0.13234
1981.10959	1.36583	0.13248
1979.60948	1.3653	0.13264
1978.10937	1.36481	0.13283
1976.60926	1.36434	0.13301
1975.10914	1.36388	0.13321
1973.60903	1.36344	0.13342
1972.10892	1.36299	0.13362
1970.60881	1.36256	0.13382
1969.1087	1.36213	0.13402
1967.60858	1.36169	0.1342
1966.10847	1.36123	0.13438
1964.60836	1.36074	0.13456
1963.10825	1.36023	0.13476
1961.60814	1.35972	0.13498
1960.10803	1.35919	0.13522
1958.60791	1.35865	0.13548
1957.1078	1.35811	0.13577
1955.60769	1.35758	0.13607
1954.10758	1.35708	0.13638
1952.60747	1.35661	0.13671
1951.10735	1.35616	0.13704
1949.60724	1.35575	0.13737
1948.10713	1.35533	0.1377
1946.60702	1.35493	0.13803
1945.10691	1.35453	0.13834
1943.6068	1.35413	0.13864
1942.10668	1.35368	0.13892
1940.60657	1.35319	0.13921
1939.10646	1.35267	0.13953
1937.60635	1.35213	0.13988
1936.10624	1.35159	0.14028
1934.60612	1.35107	0.14068
1933.10601	1.35056	0.14111
1931.6059	1.35006	0.14156
1930.10579	1.3496	0.14202
1928.60568	1.34922	0.14249
1927.10557	1.34888	0.14297
1925.60545	1.34857	0.14343
1924.10534	1.34828	0.14388
1922.60523	1.34797	0.14429
1921.10512	1.34764	0.14467
1919.60501	1.34731	0.14505
1918.10489	1.34695	0.1454
1916.60478	1.34654	0.14574
1915.10467	1.34608	0.1461
1913.60456	1.3456	0.14648
1912.10445	1.34511	0.14689
1910.60434	1.34462	0.14732
1909.10422	1.34412	0.14776
1907.60411	1.3436	0.14824
1906.104	1.34308	0.14875
1904.60389	1.34259	0.14929
1903.10378	1.34212	0.14988
1901.60366	1.34168	0.15048
1900.10355	1.34128	0.15108
1898.60344	1.34089	0.15168
1897.10333	1.34055	0.15227
1895.60322	1.34023	0.15287
1894.10311	1.33992	0.15346
1892.60299	1.33962	0.15404
1891.10288	1.33931	0.15461
1889.60277	1.33899	0.15517
1888.10266	1.33862	0.15572
1886.60255	1.3382	0.15629
1885.10243	1.33776	0.15691
1883.60232	1.3373	0.15759
1882.10221	1.33685	0.1583
1880.6021	1.33646	0.15904
1879.10199	1.33613	0.15978
1877.60188	1.33587	0.16052
1876.10176	1.33569	0.16125
1874.60165	1.33555	0.16197
1873.10154	1.33546	0.16269
1871.60143	1.33541	0.16336
1870.10132	1.33537	0.16396
1868.6012	1.33527	0.1645
1867.10109	1.33505	0.165
1865.60098	1.33472	0.16551
1864.10087	1.33431	0.16608
1862.60076	1.33386	0.1667
1861.10065	1.33338	0.16738
1859.60053	1.3329	0.16812
1858.10042	1.33241	0.16893
1856.60031	1.33198	0.1698
1855.1002	1.33168	0.1707
1853.60009	1.3315	0.17164
1852.09997	1.33142	0.17258
1850.59986	1.3314	0.17351
1849.09975	1.33142	0.17439
1847.59964	1.33148	0.17524
1846.09953	1.33154	0.17604
1844.59942	1.33155	0.1768
1843.0993	1.33148	0.17754
1841.59919	1.33133	0.17828
1840.09908	1.33116	0.17906
1838.59897	1.33102	0.17986
1837.09886	1.3309	0.18068
1835.59875	1.33082	0.18149
1834.09863	1.33078	0.18231
1832.59852	1.33081	0.18312
1831.09841	1.33089	0.18392
1829.5983	1.331	0.1847
1828.09819	1.33107	0.18545
1826.59807	1.33106	0.18619
1825.09796	1.33099	0.18693
1823.59785	1.33085	0.1877
1822.09774	1.33066	0.18848
1820.59763	1.33045	0.18932
1819.09752	1.33026	0.1902
1817.5974	1.33008	0.19113
1816.09729	1.32996	0.19212
1814.59718	1.32989	0.19318
1813.09707	1.3299	0.19428
1811.59696	1.33	0.19539
1810.09684	1.33016	0.19648
1808.59673	1.33034	0.19757
1807.09662	1.33053	0.19867
1805.59651	1.33075	0.19979
1804.0964	1.33105	0.2009
1802.59629	1.33146	0.20196
1801.09617	1.33192	0.20294
1799.59606	1.33239	0.20386
1798.09595	1.33281	0.20475
1796.59584	1.33325	0.20564
1795.09573	1.3337	0.20651
1793.59561	1.33414	0.20737
1792.0955	1.33453	0.20815
1790.59539	1.33479	0.20889
1789.09528	1.33492	0.20968
1787.59517	1.33501	0.21058
1786.09506	1.33512	0.21161
1784.59494	1.3353	0.2127
1783.09483	1.33558	0.21382
1781.59472	1.33598	0.21493
1780.09461	1.33647	0.21601
1778.5945	1.33707	0.21709
1777.09438	1.33779	0.21818
1775.59427	1.33859	0.21928
1774.09416	1.33946	0.22028
1772.59405	1.34033	0.22118
1771.09394	1.34111	0.22195
1769.59383	1.34174	0.22266
1768.09371	1.34226	0.2234
1766.5936	1.34272	0.22419
1765.09349	1.34313	0.22509
1763.59338	1.34355	0.22607
1762.09327	1.344	0.2271
1760.59315	1.34451	0.22813
1759.09304	1.34513	0.22919
1757.59293	1.3459	0.2303
1756.09282	1.3468	0.23145
1754.59271	1.3478	0.2326
1753.0926	1.34892	0.23373
1751.59248	1.35016	0.23478
1750.09237	1.35142	0.23571
1748.59226	1.35263	0.23656
1747.09215	1.35378	0.23739
1745.59204	1.35493	0.2382
1744.09192	1.35614	0.23897
1742.59181	1.35744	0.23967
1741.0917	1.35879	0.24029
1739.59159	1.36011	0.24082
1738.09148	1.36139	0.24129
1736.59137	1.36267	0.24175
1735.09125	1.364	0.2422
1733.59114	1.36526	0.2426
1732.09103	1.3663	0.24301
1730.59092	1.36716	0.24349
1729.09081	1.36797	0.24407
1727.59069	1.36889	0.2447
1726.09058	1.36997	0.24537
1724.59047	1.37121	0.24605
1723.09036	1.37259	0.24672
1721.59025	1.37412	0.24737
1720.09014	1.37585	0.24803
1718.59002	1.37777	0.24861
1717.08991	1.37973	0.24903
1715.5898	1.38155	0.24928
1714.08969	1.38315	0.24951
1712.58958	1.38464	0.24976
1711.08946	1.38616	0.25002
1709.58935	1.38782	0.25027
1708.08924	1.38966	0.25042
1706.58913	1.39166	0.25041
1705.08902	1.39379	0.25024
1703.58891	1.39601	0.24996
1702.08879	1.39832	0.24963
1700.58868	1.40065	0.24916
1699.08857	1.40279	0.24851
1697.58846	1.40461	0.24773
1696.08835	1.4062	0.24684
1694.58823	1.40762	0.24586
1693.08812	1.40894	0.24485
1691.58801	1.41027	0.24393
1690.0879	1.41162	0.24306
1688.58779	1.413	0.24221
1687.08768	1.41451	0.24134
1685.58756	1.4162	0.24042
1684.08745	1.41789	0.23937
1682.58734	1.4194	0.23818
1681.08723	1.42075	0.23694
1679.58712	1.42203	0.2357
1678.087	1.42324	0.23444
1676.58689	1.42439	0.23313
1675.08678	1.42546	0.23175
1673.58667	1.4264	0.23028
1672.08656	1.42727	0.22881
1670.58645	1.42813	0.22738
1669.08633	1.42889	0.22607
1667.58622	1.42944	0.22493
1666.08611	1.4299	0.22392
1664.586	1.4305	0.22293
1663.08589	1.4313	0.22188
1661.58577	1.43218	0.2208
1660.08566	1.43315	0.21974
1658.58555	1.43431	0.21864
1657.08544	1.43582	0.21743
1655.58533	1.43766	0.216
1654.08522	1.43957	0.21426
1652.5851	1.44114	0.21217
1651.08499	1.44217	0.20991
1649.58488	1.44288	0.20765
1648.08477	1.44347	0.20536
1646.58466	1.44386	0.20294
1645.08455	1.4439	0.20043
1643.58443	1.44359	0.19799
1642.08432	1.44308	0.19571
1640.58421	1.44261	0.19361
1639.0841	1.44237	0.1917
1637.58399	1.44225	0.18987
1636.08387	1.44206	0.18795
1634.58376	1.44167	0.18595
1633.08365	1.44114	0.18402
1631.58354	1.44059	0.18229
1630.08343	1.44005	0.18065
1628.58332	1.43953	0.17898
1627.0832	1.43902	0.17722
1625.58309	1.43845	0.1754
1624.08298	1.43783	0.17357
1622.58287	1.43718	0.17176
1621.08276	1.4365	0.17004
1619.58264	1.43581	0.16838
1618.08253	1.43506	0.16668
1616.58242	1.43412	0.16489
1615.08231	1.43295	0.16309
1613.5822	1.43159	0.1614
1612.08209	1.43015	0.15984
1610.58197	1.42871	0.1584
1609.08186	1.42726	0.15706
1607.58175	1.42579	0.15582
1606.08164	1.42428	0.15464
1604.58153	1.42279	0.15354
1603.08141	1.42135	0.15253
1601.5813	1.41997	0.1516
1600.08119	1.4186	0.15073
1598.58108	1.4172	0.14989
1597.08097	1.41579	0.14908
1595.58086	1.41436	0.14831
1594.08074	1.4129	0.14759
1592.58063	1.41139	0.14696
1591.08052	1.40984	0.14644
1589.58041	1.40829	0.14601
1588.0803	1.40681	0.14564
1586.58018	1.40544	0.1453
1585.08007	1.40414	0.14502
1583.57996	1.40289	0.1448
1582.07985	1.40172	0.14461
1580.57974	1.40069	0.14442
1579.07963	1.39979	0.1442
1577.57951	1.39895	0.14393
1576.0794	1.39801	0.14362
1574.57929	1.39691	0.14335
1573.07918	1.3957	0.14322
1571.57907	1.39457	0.14318
1570.07895	1.39367	0.14305
1568.57884	1.39292	0.1428
1567.07873	1.39221	0.14246
1565.57862	1.39156	0.1421
1564.07851	1.39101	0.1417
1562.5784	1.39061	0.14125
1561.07828	1.39033	0.14069
1559.57817	1.38994	0.13992
1558.07806	1.38907	0.13893
1556.57795	1.38768	0.13801
1555.07784	1.38602	0.13731
1553.57772	1.38429	0.13683
1552.07761	1.38265	0.13643
1550.5775	1.38117	0.13607
1549.07739	1.37975	0.13573
1547.57728	1.37843	0.13545
1546.07717	1.37738	0.13524
1544.57705	1.37668	0.13505
1543.07694	1.37616	0.13477
1541.57683	1.37554	0.13432
1540.07672	1.3746	0.13368
1538.57661	1.37321	0.13301
1537.07649	1.37153	0.13246
1535.57638	1.36974	0.13209
1534.07627	1.36793	0.13181
1532.57616	1.3661	0.1316
1531.07605	1.3643	0.13148
1529.57594	1.36265	0.1315
1528.07582	1.36128	0.13161
1526.57571	1.36019	0.13177
1525.0756	1.35927	0.13195
1523.57549	1.35837	0.13209
1522.07538	1.3574	0.13215
1520.57526	1.35629	0.13213
1519.07515	1.35518	0.13206
1517.57504	1.35411	0.13189
1516.07493	1.35301	0.13165
1514.57482	1.35182	0.13138
1513.07471	1.35059	0.13115
1511.57459	1.34938	0.13098
1510.07448	1.34824	0.13079
1508.57437	1.34717	0.13049
1507.07426	1.34601	0.13008
1505.57415	1.3445	0.12965
1504.07403	1.3427	0.12935
1502.57392	1.34085	0.12925
1501.07381	1.33906	0.12926
1499.5737	1.33738	0.12929
1498.07359	1.33573	0.12928
1496.57348	1.33402	0.12925
1495.07336	1.33229	0.1293
1493.57325	1.33067	0.12948
1492.07314	1.32923	0.12978
1490.57303	1.32783	0.1301
1489.07292	1.3263	0.13036
1487.5728	1.3246	0.13061
1486.07269	1.32279	0.1309
1484.57258	1.32103	0.13128
1483.07247	1.31944	0.13172
1481.57236	1.31796	0.1322
1480.07225	1.31655	0.13268
1478.57213	1.31519	0.13316
1477.07202	1.31393	0.1336
1475.57191	1.31279	0.13402
1474.0718	1.31167	0.13438
1472.57169	1.31042	0.1347
1471.07157	1.30898	0.13503
1469.57146	1.30745	0.13539
1468.07135	1.30599	0.13574
1466.57124	1.30463	0.13607
1465.07113	1.30329	0.13634
1463.57102	1.30192	0.1366
1462.0709	1.30057	0.13687
1460.57079	1.2993	0.13715
1459.07068	1.29816	0.13737
1457.57057	1.297	0.13749
1456.07046	1.29562	0.13749
1454.57035	1.29394	0.13748
1453.07023	1.29207	0.13753
1451.57012	1.2901	0.13771
1450.07001	1.2881	0.138
1448.5699	1.28605	0.13834
1447.06979	1.284	0.13872
1445.56967	1.28193	0.13917
1444.06956	1.27995	0.13972
1442.56945	1.27811	0.1404
1441.06934	1.2764	0.14113
1439.56923	1.27477	0.14187
1438.06912	1.27317	0.14255
1436.569	1.27153	0.14317
1435.06889	1.2698	0.14376
1433.56878	1.268	0.14438
1432.06867	1.26618	0.14506
1430.56856	1.26437	0.14574
1429.06844	1.26257	0.1464
1427.56833	1.26075	0.14706
1426.06822	1.25892	0.14772
1424.56811	1.25711	0.14839
1423.068	1.25532	0.14908
1421.56789	1.25355	0.14978
1420.06777	1.25177	0.15047
1418.56766	1.24988	0.15112
1417.06755	1.24786	0.15176
1415.56744	1.24574	0.15245
1414.06733	1.24354	0.15322
1412.56721	1.2413	0.15408
1411.0671	1.23904	0.15502
1409.56699	1.23679	0.15602
1408.06688	1.23458	0.15709
1406.56677	1.23244	0.15818
1405.06666	1.23041	0.15931
1403.56654	1.22842	0.16044
1402.06643	1.22647	0.16161
1400.56632	1.22453	0.16276
1399.06621	1.22259	0.16388
1397.5661	1.22061	0.16494
1396.06598	1.21857	0.16596
1394.56587	1.21641	0.16696
1393.06576	1.21415	0.16797
1391.56565	1.21179	0.16904
1390.06554	1.20937	0.17017
1388.56543	1.20689	0.17137
1387.06531	1.20435	0.17261
1385.5652	1.20176	0.17391
1384.06509	1.19913	0.17528
1382.56498	1.19649	0.17674
1381.06487	1.19386	0.1783
1379.56475	1.19123	0.17992
1378.06464	1.1886	0.18162
1376.56453	1.18594	0.18338
1375.06442	1.18326	0.18519
1373.56431	1.18055	0.18706
1372.0642	1.17782	0.18899
1370.56408	1.17508	0.191
1369.06397	1.17232	0.19308
1367.56386	1.16952	0.19524
1366.06375	1.16671	0.19749
1364.56364	1.16389	0.19982
1363.06352	1.16106	0.20223
1361.56341	1.1582	0.20473
1360.0633	1.15531	0.20732
1358.56319	1.1524	0.21004
1357.06308	1.14947	0.2129
1355.56297	1.14654	0.21589
1354.06285	1.14362	0.21903
1352.56274	1.14071	0.22231
1351.06263	1.13784	0.22575
1349.56252	1.13504	0.22933
1348.06241	1.13234	0.23305
1346.56229	1.12974	0.23691
1345.06218	1.12727	0.24089
1343.56207	1.12491	0.24498
1342.06196	1.12266	0.24918
1340.56185	1.12054	0.25346
1339.06174	1.11853	0.25779
1337.56162	1.11662	0.26219
1336.06151	1.11479	0.26666
1334.5614	1.11305	0.2712
1333.06129	1.11141	0.27582
1331.56118	1.10989	0.28052
1330.06106	1.10849	0.28529
1328.56095	1.10722	0.2901
1327.06084	1.1061	0.29497
1325.56073	1.10515	0.29987
1324.06062	1.10436	0.30479
1322.56051	1.10376	0.30973
1321.06039	1.10332	0.31466
1319.56028	1.10305	0.31954
1318.06017	1.10293	0.32437
1316.56006	1.10294	0.32913
1315.05995	1.10306	0.33381
1313.55983	1.10329	0.33843
1312.05972	1.10361	0.34295
1310.55961	1.104	0.34739
1309.0595	1.10446	0.35175
1307.55939	1.10498	0.35602
1306.05928	1.10555	0.3602
1304.55916	1.10617	0.3643
1303.05905	1.10684	0.36831
1301.55894	1.10755	0.37223
1300.05883	1.10828	0.37606
1298.55872	1.10903	0.37979
1297.0586	1.10977	0.38344
1295.55849	1.11052	0.38699
1294.05838	1.11123	0.39045
1292.55827	1.11192	0.39383
1291.05816	1.11256	0.39713
1289.55805	1.11313	0.40036
1288.05793	1.11363	0.40354
1286.55782	1.11405	0.40667
1285.05771	1.11439	0.40977
1283.5576	1.11461	0.41286
1282.05749	1.11474	0.41594
1280.55737	1.11476	0.41904
1279.05726	1.11469	0.42217
1277.55715	1.11451	0.42534
1276.05704	1.11423	0.42858
1274.55693	1.11385	0.43191
1273.05682	1.11339	0.43532
1271.5567	1.11285	0.43886
1270.05659	1.11223	0.44252
1268.55648	1.11154	0.4463
1267.05637	1.1108	0.45025
1265.55626	1.11003	0.45435
1264.05615	1.10924	0.45864
1262.55603	1.10845	0.46311
1261.05592	1.10766	0.46777
1259.55581	1.10692	0.47262
1258.0557	1.10623	0.47766
1256.55559	1.1056	0.4829
1255.05547	1.10506	0.48834
1253.55536	1.10462	0.49397
1252.05525	1.10432	0.49979
1250.55514	1.10415	0.5058
1249.05503	1.10415	0.51198
1247.55492	1.10432	0.51832
1246.0548	1.10469	0.52482
1244.55469	1.10528	0.53146
1243.05458	1.1061	0.53821
1241.55447	1.10715	0.54507
1240.05436	1.10846	0.55202
1238.55424	1.11003	0.55903
1237.05413	1.11185	0.56608
1235.55402	1.11394	0.57316
1234.05391	1.11628	0.58024
1232.5538	1.11888	0.58732
1231.05369	1.12174	0.59435
1229.55357	1.12484	0.60135
1228.05346	1.12818	0.60828
1226.55335	1.13175	0.61515
1225.05324	1.13556	0.62192
1223.55313	1.13958	0.6286
1222.05301	1.14381	0.63517
1220.5529	1.14823	0.64162
1219.05279	1.15284	0.64795
1217.55268	1.15763	0.65414
1216.05257	1.16258	0.6602
1214.55246	1.16767	0.66612
1213.05234	1.17291	0.6719
1211.55223	1.17829	0.67754
1210.05212	1.18378	0.68304
1208.55201	1.18938	0.68839
1207.0519	1.1951	0.6936
1205.55178	1.20091	0.69868
1204.05167	1.2068	0.70362
1202.55156	1.2128	0.70842
1201.05145	1.21887	0.71309
1199.55134	1.22501	0.71763
1198.05123	1.23122	0.72205
1196.55111	1.23749	0.72635
1195.051	1.24383	0.73053
1193.55089	1.25022	0.73461
1192.05078	1.25668	0.73859
1190.55067	1.26318	0.74248
1189.05055	1.26975	0.74629
1187.55044	1.27639	0.75001
1186.05033	1.2831	0.75365
1184.55022	1.2899	0.75723
1183.05011	1.2968	0.76073
1181.55	1.3038	0.76416
1180.04988	1.31093	0.7675
1178.54977	1.3182	0.77076
1177.04966	1.32562	0.77393
1175.54955	1.3332	0.77698
1174.04944	1.34094	0.77991
1172.54932	1.34885	0.78268
1171.04921	1.35693	0.7853
1169.5491	1.36519	0.78775
1168.04899	1.37362	0.78999
1166.54888	1.38221	0.79202
1165.04877	1.39097	0.7938
1163.54865	1.39989	0.79533
1162.04854	1.40897	0.79658
1160.54843	1.41816	0.79754
1159.04832	1.42751	0.79816
1157.54821	1.43694	0.79846
1156.04809	1.44647	0.79839
1154.54798	1.45606	0.79794
1153.04787	1.46569	0.79711
1151.54776	1.47533	0.79587
1150.04765	1.48496	0.79421
1148.54754	1.49454	0.79212
1147.04742	1.50403	0.7896
1145.54731	1.5134	0.78664
1144.0472	1.52261	0.78325
1142.54709	1.53164	0.77943
1141.04698	1.54043	0.77519
1139.54686	1.54895	0.77055
1138.04675	1.55716	0.76551
1136.54664	1.56502	0.76012
1135.04653	1.57252	0.75438
1133.54642	1.57961	0.74833
1132.04631	1.58629	0.742
1130.54619	1.59251	0.73541
1129.04608	1.59826	0.72862
1127.54597	1.60354	0.72166
1126.04586	1.60832	0.71456
1124.54575	1.61262	0.70734
1123.04563	1.61642	0.70006
1121.54552	1.61972	0.69274
1120.04541	1.62252	0.68542
1118.5453	1.62483	0.67813
1117.04519	1.62665	0.67091
1115.54508	1.62798	0.66377
1114.04496	1.62882	0.65676
1112.54485	1.6292	0.64991
1111.04474	1.62911	0.64325
1109.54463	1.62856	0.6368
1108.04452	1.62756	0.63059
1106.5444	1.62614	0.62467
1105.04429	1.62429	0.61905
1103.54418	1.62204	0.61377
1102.04407	1.61939	0.60885
1100.54396	1.61637	0.60434
1099.04385	1.613	0.60026
1097.54373	1.60928	0.59666
1096.04362	1.60523	0.59356
1094.54351	1.6009	0.59102
1093.0434	1.5963	0.58908
1091.54329	1.59148	0.58777
1090.04317	1.58647	0.58715
1088.54306	1.58133	0.58726
1087.04295	1.57614	0.58814
1085.54284	1.57096	0.58984
1084.04273	1.56589	0.59239
1082.54262	1.56104	0.5958
1081.0425	1.55648	0.60009
1079.54239	1.55237	0.60524
1078.04228	1.54881	0.61123
1076.54217	1.54593	0.61802
1075.04206	1.54384	0.62555
1073.54194	1.54267	0.63374
1072.04183	1.54249	0.64246
1070.54172	1.54339	0.65164
1069.04161	1.54543	0.66111
1067.5415	1.54867	0.67077
1066.04139	1.55309	0.68045
1064.54127	1.5587	0.69002
1063.04116	1.56547	0.69934
1061.54105	1.57335	0.70832
1060.04094	1.58229	0.71681
1058.54083	1.59222	0.72471
1057.04072	1.60307	0.7319
1055.5406	1.61476	0.73832
1054.04049	1.62722	0.74388
1052.54038	1.64036	0.7485
1051.04027	1.65411	0.75215
1049.54016	1.66837	0.75474
1048.04004	1.68304	0.75622
1046.53993	1.69798	0.75657
1045.03982	1.71311	0.75574
1043.53971	1.72827	0.75375
1042.0396	1.74335	0.75057
1040.53949	1.75824	0.74626
1039.03937	1.7728	0.74081
1037.53926	1.78693	0.73429
1036.03915	1.80051	0.72673
1034.53904	1.81346	0.71822
1033.03893	1.82571	0.70883
1031.53881	1.83718	0.69865
1030.0387	1.8478	0.68775
1028.53859	1.85753	0.67625
1027.03848	1.86632	0.66421
1025.53837	1.87415	0.65177
1024.03826	1.881	0.639
1022.53814	1.88687	0.62601
1021.03803	1.89176	0.6129
1019.53792	1.8957	0.59974
1018.03781	1.89872	0.58665
1016.5377	1.90087	0.57369
1015.03758	1.90219	0.56092
1013.53747	1.90275	0.54842
1012.03736	1.9026	0.53623
1010.53725	1.90179	0.5244
1009.03714	1.90042	0.51295
1007.53703	1.8985	0.50193
1006.03691	1.89613	0.49132
1004.5368	1.89333	0.48115
1003.03669	1.89017	0.47145
1001.53658	1.88667	0.46217
1000.03647	1.88289	0.45336
998.53635	1.87886	0.445
997.03624	1.87464	0.43708
995.53613	1.87024	0.42959
994.03602	1.86571	0.42251
992.53591	1.86108	0.41584
991.0358	1.85638	0.40956
989.53568	1.85163	0.40365
988.03557	1.84687	0.3981
986.53546	1.84209	0.39288
985.03535	1.83732	0.38797
983.53524	1.83257	0.38336
982.03512	1.82785	0.37901
980.53501	1.82317	0.37493
979.0349	1.81852	0.37106
977.53479	1.81391	0.36743
976.03468	1.80934	0.36399
974.53457	1.80481	0.36073
973.03445	1.80031	0.35765
971.53434	1.79584	0.35473
970.03423	1.79139	0.35197
968.53412	1.78695	0.34933
967.03401	1.78252	0.34683
965.53389	1.77809	0.34445
964.03378	1.77364	0.34218
962.53367	1.76915	0.34003
961.03356	1.76463	0.338
959.53345	1.76005	0.33608
958.03334	1.75538	0.33428
956.53322	1.75062	0.33262
955.03311	1.74575	0.33108
953.533	1.74074	0.32971
952.03289	1.73558	0.32853
950.53278	1.73027	0.32754
949.03266	1.72477	0.32679
947.53255	1.7191	0.32631
946.03244	1.71322	0.32615
944.53233	1.70716	0.32634
943.03222	1.70093	0.32694
941.53211	1.69453	0.328
940.03199	1.68801	0.32957
938.53188	1.68141	0.3317
937.03177	1.67478	0.33445
935.53166	1.66818	0.33784
934.03155	1.66171	0.34194
932.53143	1.65545	0.34677
931.03132	1.64949	0.35233
929.53121	1.64396	0.35866
928.0311	1.63896	0.36572
926.53099	1.63462	0.37349
925.03088	1.63107	0.38193
923.53076	1.6284	0.39095
922.03065	1.62673	0.4005
920.53054	1.62616	0.41045
919.03043	1.62675	0.4207
917.53032	1.62857	0.4311
916.0302	1.63166	0.44151
914.53009	1.63603	0.45178
913.02998	1.64167	0.46176
911.52987	1.64855	0.47127
910.02976	1.65661	0.48019
908.52965	1.66578	0.48835
907.02953	1.67596	0.49561
905.52942	1.68702	0.50185
904.02931	1.69883	0.50697
902.5292	1.71125	0.51089
901.02909	1.72412	0.51351
899.52897	1.73727	0.51482
898.02886	1.75052	0.51478
896.52875	1.76371	0.51339
895.02864	1.77666	0.51068
893.52853	1.7892	0.5067
892.02842	1.80119	0.50152
890.5283	1.81248	0.49524
889.02819	1.82295	0.48796
887.52808	1.8325	0.4798
886.02797	1.84104	0.4709
884.52786	1.84854	0.46141
883.02774	1.85495	0.45146
881.52763	1.86029	0.44121
880.02752	1.86457	0.43078
878.52741	1.86785	0.4203
877.0273	1.87017	0.40987
875.52719	1.87163	0.39959
874.02707	1.87228	0.38954
872.52696	1.87223	0.37978
871.02685	1.87153	0.37038
869.52674	1.87028	0.36134
868.02663	1.86855	0.35271
866.52652	1.86639	0.3445
865.0264	1.86389	0.33671
863.52629	1.8611	0.32934
862.02618	1.85807	0.32236
860.52607	1.85483	0.3158
859.02596	1.85145	0.30961
857.52584	1.84794	0.30379
856.02573	1.84436	0.29831
854.52562	1.84069	0.29315
853.02551	1.83699	0.28829
851.5254	1.83326	0.28371
850.02529	1.8295	0.2794
848.52517	1.82573	0.27533
847.02506	1.82196	0.2715
845.52495	1.81819	0.26787
844.02484	1.81441	0.26444
842.52473	1.81064	0.2612
841.02461	1.80686	0.25814
839.5245	1.80309	0.25525
838.02439	1.79931	0.25253
836.52428	1.79553	0.24999
835.02417	1.79173	0.24763
833.52406	1.78794	0.24543
832.02394	1.78416	0.24341
830.52383	1.7804	0.24156
829.02372	1.77668	0.23988
827.52361	1.77302	0.23834
826.0235	1.76944	0.23697
824.52338	1.76595	0.23574
823.02327	1.76257	0.23462
821.52316	1.75929	0.23361
820.02305	1.75612	0.23268
818.52294	1.75304	0.23182
817.02283	1.75003	0.23101
815.52271	1.74709	0.23025
814.0226	1.74418	0.22953
812.52249	1.74132	0.22886
811.02238	1.73846	0.22823
809.52227	1.73563	0.22764
808.02215	1.7328	0.22711
806.52204	1.72999	0.22662
805.02193	1.72719	0.22619
803.52182	1.72442	0.22584
802.02171	1.72167	0.22556
800.5216	1.71895	0.22534
799.02148	1.71627	0.22519
797.52137	1.71364	0.22511
796.02126	1.71104	0.22508
794.52115	1.70849	0.22513
793.02104	1.70601	0.22523
791.52092	1.70358	0.22537
790.02081	1.7012	0.22557
788.5207	1.69888	0.22581
787.02059	1.69663	0.22609
785.52048	1.69442	0.2264
784.02037	1.69226	0.22674
782.52025	1.69018	0.22711
781.02014	1.68813	0.22749
779.52003	1.68615	0.22788
778.01992	1.68419	0.22829
776.51981	1.68226	0.22872
775.01969	1.68038	0.22915
773.51958	1.67852	0.22961
772.01947	1.67672	0.23009
770.51936	1.67493	0.23057
769.01925	1.67316	0.23106
767.51914	1.67143	0.23158
766.01902	1.66973	0.23211
764.51891	1.66808	0.23266
763.0188	1.66646	0.23322
761.51869	1.66489	0.2338
760.01858	1.66334	0.23437
758.51846	1.66184	0.23495
757.01835	1.66037	0.23554
755.51824	1.65896	0.23613
754.01813	1.65758	0.23671
752.51802	1.65623	0.23729
751.01791	1.65493	0.23784
749.51779	1.65366	0.23838
748.01768	1.65243	0.23889
746.51757	1.65121	0.23937
745.01746	1.65	0.23984
743.51735	1.64881	0.24027
742.01723	1.64761	0.24068
740.51712	1.64641	0.24105
739.01701	1.6452	0.2414
737.5169	1.64396	0.24173
736.01679	1.64271	0.24205
734.51668	1.64143	0.24236
733.01656	1.64013	0.24266
731.51645	1.63882	0.24295
730.01634	1.6375	0.24323
728.51623	1.63615	0.2435
727.01612	1.63478	0.24376
725.516	1.63339	0.24402
724.01589	1.63197	0.24428
722.51578	1.63053	0.24454
721.01567	1.62905	0.2448
719.51556	1.62751	0.24505
718.01545	1.6259	0.24533
716.51533	1.62425	0.24563
715.01522	1.62256	0.24595
713.51511	1.62082	0.24632
712.015	1.61905	0.24672
710.51489	1.61724	0.24717
709.01477	1.61539	0.24766
707.51466	1.61353	0.24821
706.01455	1.61168	0.24881
704.51444	1.60982	0.24945
703.01433	1.60794	0.25013
701.51422	1.60606	0.25087
700.0141	1.60418	0.25165
698.51399	1.60234	0.25246
697.01388	1.60049	0.2533
695.51377	1.59867	0.25416
694.01366	1.59682	0.25504
692.51354	1.59498	0.25592
691.01343	1.59315	0.25683
689.51332	1.59129	0.25774
688.01321	1.58941	0.25868
686.5131	1.58749	0.25962
685.01299	1.58553	0.26058
683.51287	1.5835	0.26159
682.01276	1.58144	0.26264
680.51265	1.57938	0.2637
679.01254	1.57734	0.26476
677.51243	1.57527	0.26581
676.01232	1.57315	0.26689
674.5122	1.57097	0.26799
673.01209	1.56873	0.26913
671.51198	1.56643	0.2703
670.01187	1.56406	0.27147
668.51176	1.56154	0.27265
667.01164	1.55878	0.27388
665.51153	1.55585	0.27525
664.01142	1.55285	0.27677
662.51131	1.54977	0.27844
661.0112	1.54664	0.28024
659.51109	1.54344	0.28214
658.01097	1.54018	0.28419
656.51086	1.53686	0.28638
655.01075	1.53354	0.28873
653.51064	1.53018	0.29127
652.01053	1.52675	0.29398
650.51041	1.52322	0.29681
649.0103	1.51957	0.29982
647.51019	1.51582	0.30303
646.01008	1.51196	0.30648
644.50997	1.50802	0.31019
643.00986	1.50402	0.31421
641.50974	1.49996	0.31854
640.00963	1.4959	0.32321
638.50952	1.49183	0.32825
637.00941	1.48779	0.33366
635.5093	1.48384	0.33949
634.00918	1.47998	0.34574
632.50907	1.47627	0.35243
631.00896	1.47277	0.35958
629.50885	1.46951	0.36716
628.00874	1.46659	0.37516
626.50863	1.46405	0.38355
625.00851	1.46192	0.39231
623.5084	1.46025	0.40142
622.00829	1.45906	0.41083
620.50818	1.45837	0.42051
619.00807	1.4582	0.43042
617.50795	1.45854	0.4405
616.00784	1.45935	0.45071
614.50773	1.46062	0.46105
613.00762	1.46235	0.47151
611.50751	1.46455	0.48207
610.0074	1.46721	0.49273
608.50728	1.47032	0.50349
607.00717	1.47388	0.51434
605.50706	1.47789	0.52531
604.00695	1.48239	0.53642
602.50684	1.48742	0.54769
601.00672	1.49302	0.5591
599.50661	1.49922	0.5707
598.0065	1.50611	0.58249
596.50639	1.51376	0.59446
595.00628	1.52231	0.6066
593.50617	1.53188	0.61886
592.00605	1.54261	0.63116
590.50594	1.55466	0.64338
589.00583	1.56816	0.65538
587.50572	1.58325	0.66697
586.00561	1.60011	0.67789
584.50549	1.61882	0.68784
583.00538	1.6394	0.69643
581.50527	1.66181	0.70331
580.00516	1.68588	0.70808
578.50505	1.71135	0.71038
577.00494	1.73783	0.70988
575.50482	1.76479	0.70637
574.00471	1.79158	0.69971
572.5046	1.81752	0.68991
571.00449	1.84196	0.67711
569.50438	1.86425	0.66155
568.00426	1.88386	0.64365
566.50415	1.90037	0.62389
565.00404	1.91355	0.60284
563.50393	1.92337	0.58108
562.00382	1.92996	0.55915
560.50371	1.93359	0.53757
559.00359	1.93461	0.51673
557.50348	1.93342	0.49697
556.00337	1.93045	0.47852
554.50326	1.92611	0.46154
553.00315	1.92077	0.4461
551.50303	1.91472	0.43216
550.00292	1.90821	0.41965
548.50281	1.90143	0.40847
547.0027	1.89452	0.39851
545.50259	1.88755	0.38966
544.00248	1.88062	0.38182
542.50236	1.87379	0.37491
541.00225	1.86713	0.36883
539.50214	1.86069	0.36347
538.00203	1.85448	0.35872
536.50192	1.84852	0.35452
535.0018	1.8428	0.3508
533.50169	1.83733	0.34756
532.00158	1.83211	0.34471
530.50147	1.82715	0.34221
529.00136	1.82246	0.33994
527.50125	1.81802	0.33787
526.00113	1.81376	0.33595
524.50102	1.80961	0.33418
523.00091	1.80557	0.33261
521.5008	1.80165	0.33121
520.00069	1.79785	0.32994
518.50057	1.79412	0.32876
517.00046	1.7904	0.32767
515.50035	1.78664	0.32671
514.00024	1.78292	0.3259
512.50013	1.77932	0.32523
511.00002	1.77584	0.32471
509.4999	1.77245	0.3243
507.99979	1.76909	0.32397
506.49968	1.76576	0.32371
504.99957	1.76247	0.32354
503.49946	1.75921	0.32349
501.99934	1.75594	0.32353
500.49923	1.75259	0.32368
498.99912	1.74913	0.32398
497.49901	1.7456	0.32445
495.9989	1.74205	0.32509
494.49879	1.73853	0.32593
492.99867	1.73501	0.32698
491.49856	1.73151	0.32825
489.99845	1.72803	0.32976
488.49834	1.72463	0.33154
486.99823	1.72136	0.33362
485.49812	1.71821	0.33593
483.998	1.71522	0.33845
482.49789	1.71239	0.34115
480.99778	1.70975	0.34405
479.49767	1.70732	0.34716
477.99756	1.70512	0.35045
476.49744	1.70315	0.35393
474.99733	1.70139	0.35757
473.49722	1.69984	0.36137
471.99711	1.69844	0.36535
470.497	1.69721	0.3695
468.99689	1.69624	0.37384
467.49677	1.69563	0.37835
465.99666	1.69538	0.38299
464.49655	1.69554	0.38778
462.99644	1.69616	0.39264
461.49633	1.6973	0.39755
459.99621	1.69902	0.40243
458.4961	1.70133	0.40718
456.99599	1.70411	0.41171
455.49588	1.70722	0.41602
453.99577	1.7107	0.42014
452.49566	1.71461	0.42397
450.99554	1.71894	0.42742
449.49543	1.72361	0.43043
447.99532	1.72859	0.43294
446.49521	1.73379	0.43492
444.9951	1.73917	0.43635
443.49498	1.74472	0.43726
441.99487	1.75036	0.43761
440.49476	1.75589	0.43735
438.99465	1.76114	0.43646
437.49454	1.76601	0.43506
435.99443	1.77044	0.43321
434.49431	1.77439	0.43101
432.9942	1.77789	0.42852
431.49409	1.78087	0.42586
429.99398	1.78333	0.42311
428.49387	1.7853	0.42038
426.99375	1.78695	0.41771
425.49364	1.78834	0.41515
423.99353	1.78955	0.41269
422.49342	1.79064	0.41034
420.99331	1.79162	0.40809
419.4932	1.79258	0.40594
417.99308	1.79362	0.40387
416.49297	1.79474	0.40177
414.99286	1.7959	0.39955
413.49275	1.79703	0.39717
411.99264	1.79802	0.39464
410.49252	1.79884	0.39198
408.99241	1.79941	0.3892
407.4923	1.79967	0.38637
405.99219	1.79957	0.38349
404.49208	1.79907	0.38058
402.99197	1.79817	0.3777
401.49185	1.79693	0.37492
399.99174	1.79538	0.37231
