#FORMAT = WAVN N dn K dK
#DESCRIPTION = Refractive indices of water ice at 210 K from 800 to 4004 cm<SUP>-1</SUP>
#SUBSTANCE= Water Ice
#SAMPLEFORM= Aerosol
#TEMPERATURE= 210 K
#CONCENTRATION= 100 %
#DOI=10.1021/j100017a010
#REFERENCE= Clapp, M. L., R. E. Miller, and D. R. Worsnop, Frequency-
## Dependent Optical Constants of Water Ice Obtained Directly from Aerosol
## Extinction Spectra, J. Phys. Chem., volume 99, pgs. 6317-6326, 1995.
#CONTACT= R. E. Miller (remiller@unc.edu)
#COMMENT= downloaded from ftp://frenchie.chem.unc.edu/ri/Water/
4000.00000 1.23200 0.01232 0.00184 0.00002
3998.61890 1.23147 0.01231 0.00168 0.00002
3997.65503 1.23118 0.01231 0.00155 0.00002
3996.69092 1.23101 0.01231 0.00142 0.00001
3995.72705 1.23103 0.01231 0.00128 0.00001
3994.76294 1.23127 0.01231 0.00111 0.00001
3993.80005 1.23088 0.01231 0.00097 0.00001
3992.83594 1.22994 0.01230 0.00084 0.00001
3991.87207 1.22995 0.01230 0.00073 0.00001
3990.90796 1.23045 0.01230 0.00065 0.00001
3989.94409 1.22993 0.01230 0.00064 0.00001
3988.97998 1.22913 0.01229 0.00071 0.00001
3988.01611 1.22881 0.01229 0.00087 0.00001
3987.05200 1.22827 0.01228 0.00113 0.00001
3986.08911 1.22796 0.01228 0.00143 0.00001
3985.12500 1.22817 0.01228 0.00178 0.00002
3984.16089 1.22798 0.01228 0.00208 0.00002
3983.19702 1.22764 0.01228 0.00231 0.00002
3982.23291 1.22811 0.01228 0.00252 0.00003
3981.26904 1.22900 0.01229 0.00264 0.00003
3980.30493 1.22907 0.01229 0.00266 0.00003
3979.34204 1.22877 0.01229 0.00257 0.00003
3978.37793 1.22897 0.01229 0.00235 0.00002
3977.41406 1.22906 0.01229 0.00199 0.00002
3976.44995 1.22904 0.01229 0.00167 0.00002
3975.48608 1.22925 0.01229 0.00135 0.00001
3974.52197 1.22887 0.01229 0.00103 0.00001
3973.55811 1.22795 0.01228 0.00078 0.00001
3972.59399 1.22797 0.01228 0.00059 0.00001
3971.63110 1.22852 0.01229 0.00047 0.00000
3970.66699 1.22790 0.01228 0.00041 0.00000
3969.70288 1.22682 0.01227 0.00042 0.00000
3968.73901 1.22696 0.01227 0.00047 0.00000
3967.77490 1.22753 0.01228 0.00056 0.00001
3966.81104 1.22691 0.01227 0.00070 0.00001
3965.84692 1.22587 0.01226 0.00089 0.00001
3964.88403 1.22593 0.01226 0.00099 0.00001
3963.91992 1.22629 0.01226 0.00102 0.00001
3962.95605 1.22601 0.01226 0.00100 0.00001
3961.99194 1.22580 0.01226 0.00088 0.00001
3961.02808 1.22602 0.01226 0.00079 0.00001
3960.06396 1.22623 0.01226 0.00074 0.00001
3959.10010 1.22592 0.01226 0.00064 0.00001
3958.13599 1.22530 0.01225 0.00056 0.00001
3957.17310 1.22482 0.01225 0.00053 0.00001
3956.20898 1.22419 0.01224 0.00053 0.00001
3955.24512 1.22398 0.01224 0.00060 0.00001
3954.28101 1.22436 0.01224 0.00075 0.00001
3953.31689 1.22390 0.01224 0.00098 0.00001
3952.35303 1.22291 0.01223 0.00132 0.00001
3951.38892 1.22294 0.01223 0.00172 0.00002
3950.42603 1.22333 0.01223 0.00220 0.00002
3949.46191 1.22299 0.01223 0.00260 0.00003
3948.49805 1.22260 0.01223 0.00290 0.00003
3947.53394 1.22310 0.01223 0.00312 0.00003
3946.57007 1.22400 0.01224 0.00316 0.00003
3945.60596 1.22407 0.01224 0.00316 0.00003
3944.64209 1.22378 0.01224 0.00309 0.00003
3943.67798 1.22398 0.01224 0.00293 0.00003
3942.71509 1.22406 0.01224 0.00273 0.00003
3941.75098 1.22403 0.01224 0.00252 0.00003
3940.78711 1.22422 0.01224 0.00232 0.00002
3939.82300 1.22389 0.01224 0.00218 0.00002
3938.85889 1.22305 0.01223 0.00214 0.00002
3937.89502 1.22294 0.01223 0.00213 0.00002
3936.93091 1.22323 0.01223 0.00221 0.00002
3935.96802 1.22302 0.01223 0.00236 0.00002
3935.00391 1.22287 0.01223 0.00256 0.00003
3934.04004 1.22299 0.01223 0.00264 0.00003
3933.07593 1.22303 0.01223 0.00259 0.00003
3932.11206 1.22300 0.01223 0.00248 0.00002
3931.14795 1.22300 0.01223 0.00220 0.00002
3930.18408 1.22299 0.01223 0.00193 0.00002
3929.21997 1.22295 0.01223 0.00166 0.00002
3928.25708 1.22302 0.01223 0.00136 0.00001
3927.29297 1.22318 0.01223 0.00108 0.00001
3926.32910 1.22293 0.01223 0.00085 0.00001
3925.36499 1.22232 0.01222 0.00067 0.00001
3924.40088 1.22182 0.01222 0.00059 0.00001
3923.43701 1.22120 0.01221 0.00062 0.00001
3922.47290 1.22098 0.01221 0.00069 0.00001
3921.51001 1.22135 0.01221 0.00082 0.00001
3920.54590 1.22091 0.01221 0.00101 0.00001
3919.58203 1.21996 0.01220 0.00125 0.00001
3918.61792 1.21993 0.01220 0.00138 0.00001
3917.65405 1.22024 0.01220 0.00142 0.00001
3916.68994 1.22002 0.01220 0.00145 0.00001
3915.72607 1.21989 0.01220 0.00140 0.00001
3914.76196 1.21999 0.01220 0.00132 0.00001
3913.79907 1.21996 0.01220 0.00124 0.00001
3912.83496 1.22003 0.01220 0.00112 0.00001
3911.87109 1.22026 0.01220 0.00098 0.00001
3910.90698 1.21989 0.01220 0.00086 0.00001
3909.94312 1.21899 0.01219 0.00076 0.00001
3908.97900 1.21896 0.01219 0.00069 0.00001
3908.01489 1.21947 0.01219 0.00068 0.00001
3907.05200 1.21892 0.01219 0.00069 0.00001
3906.08789 1.21795 0.01218 0.00072 0.00001
3905.12402 1.21793 0.01218 0.00077 0.00001
3904.15991 1.21818 0.01218 0.00083 0.00001
3903.19604 1.21804 0.01218 0.00087 0.00001
3902.23193 1.21812 0.01218 0.00090 0.00001
3901.26807 1.21790 0.01218 0.00094 0.00001
3900.30396 1.21709 0.01217 0.00099 0.00001
3899.34106 1.21694 0.01217 0.00100 0.00001
3898.37695 1.21722 0.01217 0.00100 0.00001
3897.41309 1.21701 0.01217 0.00102 0.00001
3896.44897 1.21681 0.01217 0.00105 0.00001
3895.48511 1.21702 0.01217 0.00105 0.00001
3894.52100 1.21729 0.01217 0.00104 0.00001
3893.55688 1.21690 0.01217 0.00108 0.00001
3892.59302 1.21605 0.01216 0.00114 0.00001
3891.62988 1.21594 0.01216 0.00117 0.00001
3890.66602 1.21623 0.01216 0.00119 0.00001
3889.70190 1.21601 0.01216 0.00120 0.00001
3888.73804 1.21581 0.01216 0.00115 0.00001
3887.77393 1.21602 0.01216 0.00111 0.00001
3886.81006 1.21628 0.01216 0.00106 0.00001
3885.84595 1.21591 0.01216 0.00101 0.00001
3884.88306 1.21508 0.01215 0.00098 0.00001
3883.91895 1.21493 0.01215 0.00092 0.00001
3882.95508 1.21513 0.01215 0.00083 0.00001
3881.99097 1.21504 0.01215 0.00077 0.00001
3881.02710 1.21515 0.01215 0.00072 0.00001
3880.06299 1.21489 0.01215 0.00066 0.00001
3879.09912 1.21403 0.01214 0.00060 0.00001
3878.13501 1.21397 0.01214 0.00056 0.00001
3877.17212 1.21446 0.01214 0.00053 0.00001
3876.20801 1.21392 0.01214 0.00051 0.00001
3875.24390 1.21289 0.01213 0.00050 0.00001
3874.28003 1.21296 0.01213 0.00046 0.00000
3873.31592 1.21350 0.01213 0.00039 0.00000
3872.35205 1.21292 0.01213 0.00036 0.00000
3871.38794 1.21189 0.01212 0.00037 0.00000
3870.42505 1.21196 0.01212 0.00039 0.00000
3869.46094 1.21247 0.01212 0.00048 0.00000
3868.49707 1.21193 0.01212 0.00056 0.00001
3867.53296 1.21096 0.01211 0.00065 0.00001
3866.56909 1.21093 0.01211 0.00072 0.00001
3865.60498 1.21117 0.01211 0.00076 0.00001
3864.64111 1.21104 0.01211 0.00082 0.00001
3863.67700 1.21112 0.01211 0.00089 0.00001
3862.71411 1.21091 0.01211 0.00093 0.00001
3861.75000 1.21013 0.01210 0.00098 0.00001
3860.78589 1.20994 0.01210 0.00105 0.00001
3859.82202 1.21012 0.01210 0.00113 0.00001
3858.85791 1.21004 0.01210 0.00118 0.00001
3857.89404 1.21013 0.01210 0.00122 0.00001
3856.92993 1.20991 0.01210 0.00130 0.00001
3855.96704 1.20912 0.01209 0.00140 0.00001
3855.00293 1.20894 0.01209 0.00151 0.00002
3854.03906 1.20919 0.01209 0.00165 0.00002
3853.07495 1.20901 0.01209 0.00174 0.00002
3852.11108 1.20888 0.01209 0.00178 0.00002
3851.14697 1.20900 0.01209 0.00176 0.00002
3850.18311 1.20905 0.01209 0.00163 0.00002
3849.21899 1.20899 0.01209 0.00151 0.00002
3848.25610 1.20892 0.01209 0.00136 0.00001
3847.29199 1.20902 0.01209 0.00118 0.00001
3846.32788 1.20926 0.01209 0.00101 0.00001
3845.36401 1.20891 0.01209 0.00086 0.00001
3844.39990 1.20805 0.01208 0.00071 0.00001
3843.43604 1.20796 0.01208 0.00058 0.00001
3842.47192 1.20836 0.01208 0.00048 0.00000
3841.50903 1.20795 0.01208 0.00042 0.00000
3840.54492 1.20724 0.01207 0.00040 0.00000
3839.58105 1.20685 0.01207 0.00039 0.00000
3838.61694 1.20625 0.01206 0.00039 0.00000
3837.65308 1.20598 0.01206 0.00040 0.00000
3836.68896 1.20633 0.01206 0.00041 0.00000
3835.72510 1.20592 0.01206 0.00041 0.00000
3834.76099 1.20496 0.01205 0.00038 0.00000
3833.79810 1.20496 0.01205 0.00041 0.00000
3832.83398 1.20544 0.01205 0.00046 0.00000
3831.87012 1.20493 0.01205 0.00053 0.00001
3830.90601 1.20401 0.01204 0.00063 0.00001
3829.94189 1.20394 0.01204 0.00073 0.00001
3828.97803 1.20415 0.01204 0.00084 0.00001
3828.01392 1.20404 0.01204 0.00096 0.00001
3827.05103 1.20412 0.01204 0.00109 0.00001
3826.08691 1.20391 0.01204 0.00119 0.00001
3825.12305 1.20313 0.01203 0.00128 0.00001
3824.15894 1.20295 0.01203 0.00135 0.00001
3823.19507 1.20319 0.01203 0.00138 0.00001
3822.23096 1.20301 0.01203 0.00139 0.00001
3821.26709 1.20283 0.01203 0.00136 0.00001
3820.30298 1.20302 0.01203 0.00131 0.00001
3819.34009 1.20326 0.01203 0.00122 0.00001
3818.37598 1.20292 0.01203 0.00117 0.00001
3817.41211 1.20212 0.01202 0.00115 0.00001
3816.44800 1.20194 0.01202 0.00108 0.00001
3815.48389 1.20211 0.01202 0.00099 0.00001
3814.52002 1.20204 0.01202 0.00092 0.00001
3813.55591 1.20215 0.01202 0.00085 0.00001
3812.59302 1.20191 0.01202 0.00078 0.00001
3811.62891 1.20107 0.01201 0.00072 0.00001
3810.66504 1.20097 0.01201 0.00068 0.00001
3809.70093 1.20143 0.01201 0.00066 0.00001
3808.73706 1.20093 0.01201 0.00062 0.00001
3807.77295 1.19994 0.01200 0.00058 0.00001
3806.80908 1.19997 0.01200 0.00055 0.00001
3805.84497 1.20046 0.01200 0.00052 0.00001
3804.88208 1.19993 0.01200 0.00049 0.00000
3803.91797 1.19894 0.01199 0.00047 0.00000
3802.95410 1.19897 0.01199 0.00048 0.00000
3801.98999 1.19946 0.01199 0.00053 0.00001
3801.02588 1.19893 0.01199 0.00053 0.00001
3800.06201 1.19793 0.01198 0.00048 0.00000
3799.09790 1.19797 0.01198 0.00047 0.00000
3798.13501 1.19846 0.01198 0.00046 0.00000
3797.17090 1.19793 0.01198 0.00044 0.00000
3796.20703 1.19694 0.01197 0.00043 0.00000
3795.24292 1.19697 0.01197 0.00043 0.00000
3794.27905 1.19746 0.01197 0.00043 0.00000
3793.31494 1.19693 0.01197 0.00044 0.00000
3792.35107 1.19594 0.01196 0.00045 0.00000
3791.38696 1.19597 0.01196 0.00046 0.00000
3790.42407 1.19646 0.01196 0.00047 0.00000
3789.45996 1.19593 0.01196 0.00050 0.00001
3788.49609 1.19494 0.01195 0.00053 0.00001
3787.53198 1.19497 0.01195 0.00057 0.00001
3786.56812 1.19546 0.01195 0.00061 0.00001
3785.60400 1.19493 0.01195 0.00065 0.00001
3784.63989 1.19394 0.01194 0.00066 0.00001
3783.67700 1.19397 0.01194 0.00068 0.00001
3782.71289 1.19445 0.01194 0.00070 0.00001
3781.74902 1.19393 0.01194 0.00071 0.00001
3780.78491 1.19295 0.01193 0.00072 0.00001
3779.82104 1.19297 0.01193 0.00072 0.00001
3778.85693 1.19345 0.01193 0.00072 0.00001
3777.89307 1.19294 0.01193 0.00072 0.00001
3776.92896 1.19196 0.01192 0.00074 0.00001
3775.96606 1.19197 0.01192 0.00074 0.00001
3775.00195 1.19245 0.01192 0.00074 0.00001
3774.03809 1.19193 0.01192 0.00074 0.00001
3773.07397 1.19095 0.01191 0.00074 0.00001
3772.11011 1.19097 0.01191 0.00074 0.00001
3771.14600 1.19145 0.01191 0.00074 0.00001
3770.18188 1.19094 0.01191 0.00074 0.00001
3769.21802 1.18996 0.01190 0.00075 0.00001
3768.25488 1.18997 0.01190 0.00074 0.00001
3767.29102 1.19044 0.01190 0.00070 0.00001
3766.32690 1.18994 0.01190 0.00069 0.00001
3765.36304 1.18898 0.01189 0.00067 0.00001
3764.39893 1.18896 0.01189 0.00063 0.00001
3763.43506 1.18938 0.01189 0.00057 0.00001
3762.47095 1.18896 0.01189 0.00053 0.00001
3761.50806 1.18820 0.01188 0.00049 0.00000
3760.54395 1.18789 0.01188 0.00044 0.00000
3759.58008 1.18758 0.01188 0.00041 0.00000
3758.61597 1.18689 0.01187 0.00039 0.00000
3757.65210 1.18615 0.01186 0.00038 0.00000
3756.68799 1.18597 0.01186 0.00041 0.00000
3755.72412 1.18626 0.01186 0.00046 0.00000
3754.76001 1.18596 0.01186 0.00057 0.00001
3753.79712 1.18529 0.01185 0.00075 0.00001
3752.83301 1.18488 0.01185 0.00091 0.00001
3751.86890 1.18434 0.01184 0.00107 0.00001
3750.90503 1.18396 0.01184 0.00124 0.00001
3749.94092 1.18399 0.01184 0.00137 0.00001
3748.97705 1.18403 0.01184 0.00149 0.00001
3748.01294 1.18415 0.01184 0.00158 0.00002
3747.05005 1.18393 0.01184 0.00164 0.00002
3746.08594 1.18317 0.01183 0.00166 0.00002
3745.12207 1.18295 0.01183 0.00167 0.00002
3744.15796 1.18311 0.01183 0.00166 0.00002
3743.19409 1.18303 0.01183 0.00162 0.00002
3742.22998 1.18307 0.01183 0.00155 0.00002
3741.26611 1.18295 0.01183 0.00150 0.00001
3740.30200 1.18242 0.01182 0.00148 0.00001
3739.33911 1.18188 0.01182 0.00147 0.00001
3738.37500 1.18124 0.01181 0.00149 0.00001
3737.41089 1.18098 0.01181 0.00150 0.00001
3736.44702 1.18128 0.01181 0.00149 0.00001
3735.48291 1.18095 0.01181 0.00150 0.00001
3734.51904 1.18009 0.01180 0.00151 0.00002
3733.55493 1.17995 0.01180 0.00151 0.00002
3732.59204 1.18014 0.01180 0.00153 0.00002
3731.62793 1.18003 0.01180 0.00149 0.00001
3730.66406 1.18006 0.01180 0.00139 0.00001
3729.69995 1.17995 0.01180 0.00131 0.00001
3728.73608 1.17942 0.01179 0.00123 0.00001
3727.77197 1.17889 0.01179 0.00111 0.00001
3726.80811 1.17825 0.01178 0.00097 0.00001
3725.84399 1.17798 0.01178 0.00086 0.00001
3724.88110 1.17824 0.01178 0.00077 0.00001
3723.91699 1.17796 0.01178 0.00070 0.00001
3722.95288 1.17726 0.01177 0.00068 0.00001
3721.98901 1.17691 0.01177 0.00066 0.00001
3721.02490 1.17657 0.01177 0.00064 0.00001
3720.06104 1.17590 0.01176 0.00066 0.00001
3719.09692 1.17516 0.01175 0.00071 0.00001
3718.13403 1.17498 0.01175 0.00074 0.00001
3717.16992 1.17527 0.01175 0.00075 0.00001
3716.20605 1.17496 0.01175 0.00073 0.00001
3715.24194 1.17425 0.01174 0.00066 0.00001
3714.27808 1.17391 0.01174 0.00061 0.00001
3713.31396 1.17357 0.01174 0.00059 0.00001
3712.35010 1.17290 0.01173 0.00052 0.00001
3711.38599 1.17217 0.01172 0.00043 0.00000
3710.42310 1.17198 0.01172 0.00039 0.00000
3709.45898 1.17226 0.01172 0.00038 0.00000
3708.49512 1.17196 0.01172 0.00037 0.00000
3707.53101 1.17127 0.01171 0.00038 0.00000
3706.56689 1.17090 0.01171 0.00040 0.00000
3705.60303 1.17052 0.01171 0.00042 0.00000
3704.63892 1.16992 0.01170 0.00044 0.00000
3703.67603 1.16938 0.01169 0.00048 0.00000
3702.71191 1.16892 0.01169 0.00052 0.00001
3701.74805 1.16848 0.01168 0.00056 0.00001
3700.78394 1.16790 0.01168 0.00060 0.00001
3699.82007 1.16720 0.01167 0.00062 0.00001
3698.85596 1.16698 0.01167 0.00068 0.00001
3697.89209 1.16723 0.01167 0.00078 0.00001
3696.92798 1.16697 0.01167 0.00085 0.00001
3695.96509 1.16634 0.01166 0.00093 0.00001
3695.00098 1.16590 0.01166 0.00104 0.00001
3694.03711 1.16529 0.01165 0.00117 0.00001
3693.07300 1.16498 0.01165 0.00124 0.00001
3692.10889 1.16522 0.01165 0.00126 0.00001
3691.14502 1.16496 0.01165 0.00130 0.00001
3690.18091 1.16428 0.01164 0.00133 0.00001
3689.21802 1.16391 0.01164 0.00132 0.00001
3688.25391 1.16351 0.01164 0.00130 0.00001
3687.29004 1.16293 0.01163 0.00124 0.00001
3686.32593 1.16240 0.01162 0.00113 0.00001
3685.36206 1.16192 0.01162 0.00106 0.00001
3684.39795 1.16141 0.01161 0.00101 0.00001
3683.43408 1.16093 0.01161 0.00099 0.00001
3682.46997 1.16048 0.01160 0.00104 0.00001
3681.50708 1.15991 0.01160 0.00110 0.00001
3680.54297 1.15921 0.01159 0.00120 0.00001
3679.57910 1.15898 0.01159 0.00133 0.00001
3678.61499 1.15923 0.01159 0.00151 0.00002
3677.65088 1.15897 0.01159 0.00165 0.00002
3676.68701 1.15834 0.01158 0.00177 0.00002
3675.72290 1.15790 0.01158 0.00186 0.00002
3674.76001 1.15729 0.01157 0.00187 0.00002
3673.79590 1.15698 0.01157 0.00188 0.00002
3672.83203 1.15722 0.01157 0.00187 0.00002
3671.86792 1.15697 0.01157 0.00180 0.00002
3670.90405 1.15630 0.01156 0.00169 0.00002
3669.93994 1.15592 0.01156 0.00162 0.00002
3668.97607 1.15551 0.01156 0.00159 0.00002
3668.01196 1.15493 0.01155 0.00152 0.00002
3667.04907 1.15441 0.01154 0.00145 0.00001
3666.08496 1.15393 0.01154 0.00140 0.00001
3665.12109 1.15343 0.01153 0.00137 0.00001
3664.15698 1.15293 0.01153 0.00135 0.00001
3663.19312 1.15244 0.01152 0.00136 0.00001
3662.22900 1.15192 0.01152 0.00137 0.00001
3661.26489 1.15137 0.01151 0.00140 0.00001
3660.30200 1.15094 0.01151 0.00141 0.00001
3659.33789 1.15065 0.01151 0.00141 0.00001
3658.37402 1.14988 0.01150 0.00146 0.00001
3657.40991 1.14861 0.01149 0.00157 0.00002
3656.44604 1.14790 0.01148 0.00168 0.00002
3655.48193 1.14762 0.01148 0.00181 0.00002
3654.51807 1.14693 0.01147 0.00200 0.00002
3653.55396 1.14613 0.01146 0.00221 0.00002
3652.59106 1.14598 0.01146 0.00240 0.00002
3651.62695 1.14626 0.01146 0.00257 0.00003
3650.66309 1.14597 0.01146 0.00273 0.00003
3649.69897 1.14528 0.01145 0.00286 0.00003
3648.73511 1.14492 0.01145 0.00294 0.00003
3647.77100 1.14457 0.01145 0.00297 0.00003
3646.80688 1.14392 0.01144 0.00294 0.00003
3645.84302 1.14321 0.01143 0.00286 0.00003
3644.87988 1.14298 0.01143 0.00277 0.00003
3643.91602 1.14318 0.01143 0.00267 0.00003
3642.95190 1.14298 0.01143 0.00254 0.00003
3641.98804 1.14252 0.01143 0.00242 0.00002
3641.02393 1.14188 0.01142 0.00229 0.00002
3640.06006 1.14074 0.01141 0.00216 0.00002
3639.09595 1.13990 0.01140 0.00206 0.00002
3638.13306 1.13947 0.01139 0.00200 0.00002
3637.16895 1.13896 0.01139 0.00198 0.00002
3636.20508 1.13859 0.01139 0.00203 0.00002
3635.24097 1.13788 0.01138 0.00205 0.00002
3634.27710 1.13660 0.01137 0.00205 0.00002
3633.31299 1.13591 0.01136 0.00207 0.00002
3632.34912 1.13578 0.01136 0.00208 0.00002
3631.38501 1.13490 0.01135 0.00209 0.00002
3630.42212 1.13351 0.01134 0.00212 0.00002
3629.45801 1.13291 0.01133 0.00221 0.00002
3628.49390 1.13279 0.01133 0.00237 0.00002
3627.53003 1.13190 0.01132 0.00256 0.00003
3626.56592 1.13057 0.01131 0.00277 0.00003
3625.60205 1.12990 0.01130 0.00304 0.00003
3624.63794 1.12958 0.01130 0.00336 0.00003
3623.67505 1.12895 0.01129 0.00371 0.00004
3622.71094 1.12835 0.01128 0.00411 0.00004
3621.74707 1.12793 0.01128 0.00451 0.00005
3620.78296 1.12744 0.01127 0.00491 0.00005
3619.81909 1.12694 0.01127 0.00524 0.00005
3618.85498 1.12650 0.01126 0.00546 0.00005
3617.89111 1.12592 0.01126 0.00563 0.00006
3616.92700 1.12518 0.01125 0.00572 0.00006
3615.96411 1.12499 0.01125 0.00574 0.00006
3615.00000 1.12542 0.01125 0.00571 0.00006
3614.03589 1.12493 0.01125 0.00566 0.00006
3613.07202 1.12356 0.01124 0.00561 0.00006
3612.10791 1.12290 0.01123 0.00554 0.00006
3611.14404 1.12258 0.01123 0.00546 0.00005
3610.17993 1.12196 0.01122 0.00539 0.00005
3609.21704 1.12155 0.01122 0.00532 0.00005
3608.25293 1.12089 0.01121 0.00528 0.00005
3607.28906 1.11969 0.01120 0.00527 0.00005
3606.32495 1.11891 0.01119 0.00527 0.00005
3605.36108 1.11852 0.01119 0.00529 0.00005
3604.39697 1.11796 0.01118 0.00542 0.00005
3603.43311 1.11749 0.01117 0.00568 0.00006
3602.46899 1.11692 0.01117 0.00567 0.00006
3601.50610 1.11600 0.01116 0.00537 0.00005
3600.54199 1.11510 0.01115 0.00528 0.00005
3599.57788 1.11420 0.01114 0.00533 0.00005
3598.61401 1.11300 0.01113 0.00528 0.00005
3597.64990 1.11211 0.01112 0.00539 0.00005
3596.68604 1.11165 0.01112 0.00551 0.00006
3595.72192 1.11109 0.01111 0.00566 0.00006
3594.75903 1.11020 0.01110 0.00583 0.00006
3593.79492 1.10918 0.01109 0.00601 0.00006
3592.83105 1.10804 0.01108 0.00619 0.00006
3591.86694 1.10711 0.01107 0.00639 0.00006
3590.90308 1.10664 0.01107 0.00662 0.00007
3589.93896 1.10609 0.01106 0.00686 0.00007
3588.97510 1.10520 0.01105 0.00708 0.00007
3588.01099 1.10417 0.01104 0.00730 0.00007
3587.04810 1.10303 0.01103 0.00749 0.00007
3586.08398 1.10211 0.01102 0.00767 0.00008
3585.12012 1.10164 0.01102 0.00783 0.00008
3584.15601 1.10110 0.01101 0.00800 0.00008
3583.19189 1.10021 0.01100 0.00820 0.00008
3582.22803 1.09918 0.01099 0.00843 0.00008
3581.26392 1.09804 0.01098 0.00870 0.00009
3580.30103 1.09711 0.01097 0.00897 0.00009
3579.33691 1.09665 0.01097 0.00922 0.00009
3578.37305 1.09610 0.01096 0.00943 0.00009
3577.40894 1.09517 0.01095 0.00960 0.00010
3576.44507 1.09417 0.01094 0.00973 0.00010
3575.48096 1.09317 0.01093 0.00984 0.00010
3574.51709 1.09215 0.01092 0.00996 0.00010
3573.55298 1.09115 0.01091 0.01011 0.00010
3572.59009 1.09016 0.01090 0.01030 0.00010
3571.62598 1.08916 0.01089 0.01054 0.00011
3570.66211 1.08816 0.01088 0.01081 0.00011
3569.69800 1.08716 0.01087 0.01108 0.00011
3568.73389 1.08616 0.01086 0.01137 0.00011
3567.77002 1.08516 0.01085 0.01169 0.00012
3566.80591 1.08416 0.01084 0.01201 0.00012
3565.84302 1.08316 0.01083 0.01236 0.00012
3564.87891 1.08217 0.01082 0.01270 0.00013
3563.91504 1.08116 0.01081 0.01301 0.00013
3562.95093 1.08016 0.01080 0.01331 0.00013
3561.98706 1.07916 0.01079 0.01360 0.00014
3561.02295 1.07816 0.01078 0.01389 0.00014
3560.05908 1.07716 0.01077 0.01419 0.00014
3559.09497 1.07616 0.01076 0.01452 0.00015
3558.13208 1.07516 0.01075 0.01491 0.00015
3557.16797 1.07416 0.01074 0.01535 0.00015
3556.20410 1.07317 0.01073 0.01585 0.00016
3555.23999 1.07217 0.01072 0.01636 0.00016
3554.27588 1.07116 0.01071 0.01685 0.00017
3553.31201 1.07017 0.01070 0.01731 0.00017
3552.34790 1.06918 0.01069 0.01772 0.00018
3551.38501 1.06817 0.01068 0.01809 0.00018
3550.42090 1.06713 0.01067 0.01842 0.00018
3549.45703 1.06615 0.01066 0.01876 0.00019
3548.49292 1.06531 0.01065 0.01913 0.00019
3547.52905 1.06421 0.01064 0.01954 0.00020
3546.56494 1.06264 0.01063 0.01999 0.00020
3545.60107 1.06121 0.01061 0.02046 0.00020
3544.63696 1.06029 0.01060 0.02094 0.00021
3543.67407 1.05920 0.01059 0.02147 0.00021
3542.70996 1.05763 0.01058 0.02209 0.00022
3541.74609 1.05622 0.01056 0.02278 0.00023
3540.78198 1.05532 0.01055 0.02355 0.00024
3539.81812 1.05422 0.01054 0.02440 0.00024
3538.85400 1.05255 0.01053 0.02530 0.00025
3537.88989 1.05120 0.01051 0.02625 0.00026
3536.92700 1.05066 0.01051 0.02722 0.00027
3535.96289 1.05010 0.01050 0.02819 0.00028
3534.99902 1.04907 0.01049 0.02915 0.00029
3534.03491 1.04816 0.01048 0.03011 0.00030
3533.07104 1.04758 0.01048 0.03106 0.00031
3532.10693 1.04707 0.01047 0.03194 0.00032
3531.14307 1.04655 0.01047 0.03267 0.00033
3530.17896 1.04608 0.01046 0.03322 0.00033
3529.21606 1.04569 0.01046 0.03356 0.00034
3528.25195 1.04513 0.01045 0.03378 0.00034
3527.28809 1.04422 0.01044 0.03394 0.00034
3526.32397 1.04320 0.01043 0.03405 0.00034
3525.36011 1.04217 0.01042 0.03413 0.00034
3524.39600 1.04117 0.01041 0.03424 0.00034
3523.43188 1.04028 0.01040 0.03446 0.00034
3522.46802 1.03921 0.01039 0.03474 0.00035
3521.50488 1.03780 0.01038 0.03509 0.00035
3520.54102 1.03628 0.01036 0.03545 0.00035
3519.57690 1.03477 0.01035 0.03577 0.00036
3518.61304 1.03327 0.01033 0.03611 0.00036
3517.64893 1.03178 0.01032 0.03652 0.00037
3516.68506 1.03028 0.01030 0.03696 0.00037
3515.72095 1.02874 0.01029 0.03742 0.00037
3514.75806 1.02726 0.01027 0.03791 0.00038
3513.79395 1.02591 0.01026 0.03845 0.00038
3512.83008 1.02433 0.01024 0.03907 0.00039
3511.86597 1.02231 0.01022 0.03982 0.00040
3510.90210 1.02035 0.01020 0.04073 0.00041
3509.93799 1.01878 0.01019 0.04186 0.00042
3508.97412 1.01727 0.01017 0.04318 0.00043
3508.01001 1.01565 0.01016 0.04470 0.00045
3507.04712 1.01424 0.01014 0.04629 0.00046
3506.08301 1.01318 0.01013 0.04783 0.00048
3505.11890 1.01218 0.01012 0.04925 0.00049
3504.15503 1.01106 0.01011 0.05049 0.00050
3503.19092 1.01015 0.01010 0.05158 0.00052
3502.22705 1.00963 0.01010 0.05256 0.00053
3501.26294 1.00911 0.01009 0.05340 0.00053
3500.30005 1.00832 0.01008 0.05412 0.00054
3499.33594 1.00725 0.01007 0.05469 0.00055
3498.37207 1.00582 0.01006 0.05513 0.00055
3497.40796 1.00429 0.01004 0.05552 0.00056
3496.44409 1.00288 0.01003 0.05592 0.00056
3495.47998 1.00132 0.01001 0.05646 0.00056
3494.51611 0.99944 0.00999 0.05726 0.00057
3493.55200 0.99741 0.00997 0.05827 0.00058
3492.58911 0.99528 0.00995 0.05949 0.00059
3491.62500 0.99334 0.00993 0.06088 0.00061
3490.66089 0.99178 0.00992 0.06240 0.00062
3489.69702 0.99029 0.00990 0.06402 0.00064
3488.73291 0.98869 0.00989 0.06570 0.00066
3487.76904 0.98726 0.00987 0.06738 0.00067
3486.80493 0.98617 0.00986 0.06897 0.00069
3485.84204 0.98519 0.00985 0.07045 0.00070
3484.87793 0.98417 0.00984 0.07178 0.00072
3483.91406 0.98320 0.00983 0.07300 0.00073
3482.94995 0.98229 0.00982 0.07414 0.00074
3481.98608 0.98123 0.00981 0.07525 0.00075
3481.02197 0.97984 0.00980 0.07635 0.00076
3480.05811 0.97831 0.00978 0.07747 0.00077
3479.09399 0.97677 0.00977 0.07865 0.00079
3478.13110 0.97528 0.00975 0.07985 0.00080
3477.16699 0.97392 0.00974 0.08106 0.00081
3476.20288 0.97235 0.00972 0.08234 0.00082
3475.23901 0.97035 0.00970 0.08374 0.00084
3474.27490 0.96838 0.00968 0.08525 0.00085
3473.31104 0.96677 0.00967 0.08687 0.00087
3472.34692 0.96529 0.00965 0.08848 0.00088
3471.38403 0.96380 0.00964 0.09002 0.00090
3470.41992 0.96232 0.00962 0.09155 0.00092
3469.45605 0.96081 0.00961 0.09312 0.00093
3468.49194 0.95930 0.00959 0.09479 0.00095
3467.52808 0.95781 0.00958 0.09660 0.00097
3466.56396 0.95631 0.00956 0.09847 0.00098
3465.60010 0.95477 0.00955 0.10037 0.00100
3464.63599 0.95329 0.00953 0.10225 0.00102
3463.67310 0.95194 0.00952 0.10404 0.00104
3462.70898 0.95037 0.00950 0.10582 0.00106
3461.74512 0.94833 0.00948 0.10759 0.00108
3460.78101 0.94638 0.00946 0.10946 0.00109
3459.81689 0.94489 0.00945 0.11151 0.00112
3458.85303 0.94335 0.00943 0.11370 0.00114
3457.88892 0.94139 0.00941 0.11603 0.00116
3456.92603 0.93942 0.00939 0.11846 0.00118
3455.96191 0.93768 0.00938 0.12096 0.00121
3454.99805 0.93624 0.00936 0.12359 0.00124
3454.03394 0.93519 0.00935 0.12638 0.00126
3453.07007 0.93421 0.00934 0.12926 0.00129
3452.10596 0.93308 0.00933 0.13218 0.00132
3451.14209 0.93216 0.00932 0.13499 0.00135
3450.17798 0.93167 0.00932 0.13758 0.00138
3449.21509 0.93114 0.00931 0.13995 0.00140
3448.25098 0.93023 0.00930 0.14208 0.00142
3447.28711 0.92923 0.00929 0.14407 0.00144
3446.32300 0.92829 0.00928 0.14595 0.00146
3445.35889 0.92724 0.00927 0.14782 0.00148
3444.39502 0.92596 0.00926 0.14974 0.00150
3443.43091 0.92439 0.00924 0.15178 0.00152
3442.46802 0.92249 0.00922 0.15404 0.00154
3441.50391 0.92044 0.00920 0.15662 0.00157
3440.54004 0.91838 0.00918 0.15959 0.00160
3439.57593 0.91640 0.00916 0.16299 0.00163
3438.61206 0.91461 0.00915 0.16684 0.00167
3437.64795 0.91323 0.00913 0.17095 0.00171
3436.68408 0.91246 0.00912 0.17516 0.00175
3435.71997 0.91205 0.00912 0.17930 0.00179
3434.75708 0.91183 0.00912 0.18321 0.00183
3433.79297 0.91193 0.00912 0.18688 0.00187
3432.82910 0.91245 0.00912 0.19030 0.00190
3431.86499 0.91293 0.00913 0.19342 0.00193
3430.90088 0.91299 0.00913 0.19621 0.00196
3429.93701 0.91300 0.00913 0.19871 0.00199
3428.97290 0.91318 0.00913 0.20096 0.00201
3428.01001 0.91308 0.00913 0.20315 0.00203
3427.04590 0.91232 0.00912 0.20547 0.00205
3426.08203 0.91127 0.00911 0.20805 0.00208
3425.11792 0.91015 0.00910 0.21104 0.00211
3424.15405 0.90917 0.00909 0.21437 0.00214
3423.18994 0.90853 0.00909 0.21803 0.00218
3422.22607 0.90808 0.00908 0.22190 0.00222
3421.26196 0.90774 0.00908 0.22587 0.00226
3420.29907 0.90788 0.00908 0.22984 0.00230
3419.33496 0.90879 0.00909 0.23370 0.00234
3418.37109 0.90980 0.00910 0.23744 0.00237
3417.40698 0.91035 0.00910 0.24103 0.00241
3416.44312 0.91087 0.00911 0.24439 0.00244
3415.47900 0.91167 0.00912 0.24746 0.00247
3414.51489 0.91271 0.00913 0.25030 0.00250
3413.55200 0.91397 0.00914 0.25294 0.00253
3412.58789 0.91489 0.00915 0.25554 0.00256
3411.62402 0.91498 0.00915 0.25822 0.00258
3410.65991 0.91498 0.00915 0.26107 0.00261
3409.69604 0.91540 0.00915 0.26417 0.00264
3408.73193 0.91588 0.00916 0.26745 0.00267
3407.76807 0.91619 0.00916 0.27086 0.00271
3406.80396 0.91679 0.00917 0.27432 0.00274
3405.84106 0.91809 0.00918 0.27778 0.00278
3404.87695 0.91963 0.00920 0.28120 0.00281
3403.91309 0.92102 0.00921 0.28453 0.00285
3402.94897 0.92259 0.00923 0.28772 0.00288
3401.98511 0.92460 0.00925 0.29071 0.00291
3401.02100 0.92656 0.00927 0.29345 0.00293
3400.05688 0.92806 0.00928 0.29587 0.00296
3399.09302 0.92961 0.00930 0.29801 0.00298
3398.12988 0.93164 0.00932 0.29986 0.00300
3397.16602 0.93358 0.00934 0.30153 0.00302
3396.20190 0.93497 0.00935 0.30312 0.00303
3395.23804 0.93587 0.00936 0.30473 0.00305
3394.27393 0.93632 0.00936 0.30650 0.00306
3393.31006 0.93683 0.00937 0.30838 0.00308
3392.34595 0.93780 0.00938 0.31037 0.00310
3391.38306 0.93878 0.00939 0.31243 0.00312
3390.41895 0.93944 0.00939 0.31451 0.00315
3389.45508 0.93991 0.00940 0.31669 0.00317
3388.49097 0.94032 0.00940 0.31901 0.00319
3387.52710 0.94084 0.00941 0.32143 0.00321
3386.56299 0.94160 0.00942 0.32392 0.00324
3385.59912 0.94268 0.00943 0.32640 0.00326
3384.63501 0.94419 0.00944 0.32879 0.00329
3383.67212 0.94567 0.00946 0.33109 0.00331
3382.70801 0.94679 0.00947 0.33328 0.00333
3381.74390 0.94778 0.00948 0.33540 0.00335
3380.78003 0.94878 0.00949 0.33749 0.00337
3379.81592 0.94976 0.00950 0.33962 0.00340
3378.85205 0.95067 0.00951 0.34187 0.00342
3377.88794 0.95171 0.00952 0.34417 0.00344
3376.92505 0.95307 0.00953 0.34650 0.00347
3375.96094 0.95460 0.00955 0.34878 0.00349
3374.99707 0.95615 0.00956 0.35096 0.00351
3374.03296 0.95764 0.00958 0.35306 0.00353
3373.06909 0.95902 0.00959 0.35511 0.00355
3372.10498 0.96057 0.00961 0.35705 0.00357
3371.14111 0.96253 0.00963 0.35885 0.00359
3370.17700 0.96452 0.00965 0.36046 0.00360
3369.21411 0.96626 0.00966 0.36186 0.00362
3368.25000 0.96770 0.00968 0.36305 0.00363
3367.28589 0.96878 0.00969 0.36407 0.00364
3366.32202 0.96975 0.00970 0.36499 0.00365
3365.35791 0.97081 0.00971 0.36589 0.00366
3364.39404 0.97178 0.00972 0.36685 0.00367
3363.42993 0.97253 0.00973 0.36794 0.00368
3362.46704 0.97296 0.00973 0.36918 0.00369
3361.50293 0.97295 0.00973 0.37060 0.00371
3360.53906 0.97296 0.00973 0.37218 0.00372
3359.57495 0.97336 0.00973 0.37392 0.00374
3358.61108 0.97387 0.00974 0.37580 0.00376
3357.64697 0.97425 0.00974 0.37781 0.00378
3356.68311 0.97481 0.00975 0.37989 0.00380
3355.71899 0.97582 0.00976 0.38198 0.00382
3354.75610 0.97679 0.00977 0.38401 0.00384
3353.79199 0.97731 0.00977 0.38589 0.00386
3352.82788 0.97783 0.00978 0.38762 0.00388
3351.86401 0.97879 0.00979 0.38919 0.00389
3350.89990 0.97977 0.00980 0.39066 0.00391
3349.93604 0.98040 0.00980 0.39208 0.00392
3348.97192 0.98088 0.00981 0.39349 0.00393
3348.00903 0.98145 0.00981 0.39495 0.00395
3347.04492 0.98191 0.00982 0.39650 0.00396
3346.08105 0.98207 0.00982 0.39818 0.00398
3345.11694 0.98204 0.00982 0.40001 0.00400
3344.15308 0.98192 0.00982 0.40199 0.00402
3343.18896 0.98194 0.00982 0.40411 0.00404
3342.22510 0.98231 0.00982 0.40639 0.00406
3341.26099 0.98284 0.00983 0.40876 0.00409
3340.29810 0.98341 0.00983 0.41117 0.00411
3339.33398 0.98390 0.00984 0.41354 0.00414
3338.37012 0.98423 0.00984 0.41580 0.00416
3337.40601 0.98478 0.00985 0.41793 0.00418
3336.44189 0.98589 0.00986 0.41995 0.00420
3335.47803 0.98683 0.00987 0.42191 0.00422
3334.51392 0.98698 0.00987 0.42387 0.00424
3333.55103 0.98698 0.00987 0.42588 0.00426
3332.58691 0.98743 0.00987 0.42797 0.00428
3331.62305 0.98790 0.00988 0.43015 0.00430
3330.65894 0.98796 0.00988 0.43248 0.00432
3329.69507 0.98797 0.00988 0.43497 0.00435
3328.73096 0.98834 0.00988 0.43763 0.00438
3327.76709 0.98885 0.00989 0.44041 0.00440
3326.80298 0.98929 0.00989 0.44325 0.00443
3325.84009 0.98982 0.00990 0.44607 0.00446
3324.87598 0.99066 0.00991 0.44879 0.00449
3323.91211 0.99169 0.00992 0.45132 0.00451
3322.94800 0.99279 0.00993 0.45359 0.00454
3321.98389 0.99377 0.00994 0.45564 0.00456
3321.02002 0.99448 0.00994 0.45753 0.00458
3320.05591 0.99493 0.00995 0.45935 0.00459
3319.09302 0.99510 0.00995 0.46121 0.00461
3318.12891 0.99505 0.00995 0.46318 0.00463
3317.16504 0.99481 0.00995 0.46533 0.00465
3316.20093 0.99423 0.00994 0.46779 0.00468
3315.23706 0.99317 0.00993 0.47071 0.00471
3314.27295 0.99220 0.00992 0.47410 0.00474
3313.30908 0.99183 0.00992 0.47799 0.00478
3312.34497 0.99191 0.00992 0.48224 0.00482
3311.38208 0.99225 0.00992 0.48672 0.00487
3310.41797 0.99281 0.00993 0.49124 0.00491
3309.45410 0.99359 0.00994 0.49564 0.00496
3308.48999 0.99465 0.00995 0.49981 0.00500
3307.52588 0.99601 0.00996 0.50363 0.00504
3306.56201 0.99755 0.00998 0.50721 0.00507
3305.59790 0.99914 0.00999 0.51060 0.00511
3304.63501 1.00063 0.01001 0.51387 0.00514
3303.67090 1.00186 0.01002 0.51704 0.00517
3302.70703 1.00280 0.01003 0.52019 0.00520
3301.74292 1.00340 0.01003 0.52337 0.00523
3300.77905 1.00387 0.01004 0.52672 0.00527
3299.81494 1.00441 0.01004 0.53036 0.00530
3298.85107 1.00489 0.01005 0.53430 0.00534
3297.88696 1.00517 0.01005 0.53854 0.00539
3296.92407 1.00573 0.01006 0.54302 0.00543
3295.95996 1.00708 0.01007 0.54765 0.00548
3294.99609 1.00860 0.01009 0.55236 0.00552
3294.03198 1.00968 0.01010 0.55706 0.00557
3293.06812 1.01069 0.01011 0.56174 0.00562
3292.10400 1.01204 0.01012 0.56638 0.00566
3291.13989 1.01356 0.01014 0.57106 0.00571
3290.17700 1.01499 0.01015 0.57584 0.00576
3289.21289 1.01653 0.01017 0.58077 0.00581
3288.24902 1.01840 0.01018 0.58585 0.00586
3287.28491 1.02042 0.01020 0.59106 0.00591
3286.32104 1.02234 0.01022 0.59637 0.00596
3285.35693 1.02437 0.01024 0.60182 0.00602
3284.39307 1.02676 0.01027 0.60745 0.00607
3283.42896 1.02928 0.01029 0.61322 0.00613
3282.46606 1.03163 0.01032 0.61909 0.00619
3281.50195 1.03418 0.01034 0.62500 0.00625
3280.53809 1.03730 0.01037 0.63091 0.00631
3279.57397 1.04087 0.01041 0.63682 0.00637
3278.61011 1.04471 0.01045 0.64271 0.00643
3277.64600 1.04878 0.01049 0.64849 0.00648
3276.68188 1.05315 0.01053 0.65408 0.00654
3275.71802 1.05768 0.01058 0.65957 0.00660
3274.75488 1.06222 0.01062 0.66502 0.00665
3273.79102 1.06671 0.01067 0.67043 0.00670
3272.82690 1.07110 0.01071 0.67578 0.00676
3271.86304 1.07562 0.01076 0.68104 0.00681
3270.89893 1.08049 0.01080 0.68616 0.00686
3269.93506 1.08551 0.01086 0.69124 0.00691
3268.97095 1.09045 0.01090 0.69636 0.00696
3268.00806 1.09547 0.01095 0.70154 0.00702
3267.04395 1.10073 0.01101 0.70680 0.00707
3266.08008 1.10627 0.01106 0.71214 0.00712
3265.11597 1.11209 0.01112 0.71758 0.00718
3264.15210 1.11817 0.01118 0.72309 0.00723
3263.18799 1.12449 0.01124 0.72862 0.00729
3262.22412 1.13103 0.01131 0.73414 0.00734
3261.26001 1.13776 0.01138 0.73960 0.00740
3260.29712 1.14481 0.01145 0.74498 0.00745
3259.33301 1.15234 0.01152 0.75025 0.00750
3258.36890 1.16044 0.01160 0.75532 0.00755
3257.40503 1.16921 0.01169 0.76009 0.00760
3256.44092 1.17826 0.01178 0.76448 0.00764
3255.47705 1.18720 0.01187 0.76840 0.00768
3254.51294 1.19621 0.01196 0.77188 0.00772
3253.55005 1.20553 0.01206 0.77496 0.00775
3252.58594 1.21505 0.01215 0.77770 0.00778
3251.62207 1.22461 0.01225 0.78018 0.00780
3250.65796 1.23415 0.01234 0.78240 0.00782
3249.69409 1.24368 0.01244 0.78434 0.00784
3248.72998 1.25316 0.01253 0.78603 0.00786
3247.76611 1.26254 0.01263 0.78747 0.00787
3246.80200 1.27205 0.01272 0.78867 0.00789
3245.83911 1.28193 0.01282 0.78960 0.00790
3244.87500 1.29194 0.01292 0.79020 0.00790
3243.91089 1.30181 0.01302 0.79041 0.00790
3242.94702 1.31184 0.01312 0.79017 0.00790
3241.98291 1.32234 0.01322 0.78944 0.00789
3241.01904 1.33282 0.01333 0.78824 0.00788
3240.05493 1.34270 0.01343 0.78659 0.00787
3239.09204 1.35212 0.01352 0.78454 0.00785
3238.12793 1.36133 0.01361 0.78214 0.00782
3237.16406 1.37031 0.01370 0.77950 0.00779
3236.19995 1.37896 0.01379 0.77672 0.00777
3235.23608 1.38742 0.01387 0.77383 0.00774
3234.27197 1.39585 0.01396 0.77083 0.00771
3233.30811 1.40434 0.01404 0.76768 0.00768
3232.34399 1.41293 0.01413 0.76434 0.00764
3231.38110 1.42140 0.01421 0.76073 0.00761
3230.41699 1.42957 0.01430 0.75679 0.00757
3229.45288 1.43752 0.01438 0.75246 0.00752
3228.48901 1.44541 0.01445 0.74769 0.00748
3227.52490 1.45281 0.01453 0.74255 0.00743
3226.56104 1.45929 0.01459 0.73710 0.00737
3225.59692 1.46518 0.01465 0.73147 0.00731
3224.63403 1.47093 0.01471 0.72580 0.00726
3223.66992 1.47639 0.01476 0.72022 0.00720
3222.70605 1.48128 0.01481 0.71489 0.00715
3221.74194 1.48569 0.01486 0.70988 0.00710
3220.77808 1.48981 0.01490 0.70527 0.00705
3219.81396 1.49376 0.01494 0.70102 0.00701
3218.85010 1.49765 0.01498 0.69711 0.00697
3217.88599 1.50166 0.01502 0.69340 0.00693
3216.92310 1.50602 0.01506 0.68973 0.00690
3215.95898 1.51054 0.01511 0.68597 0.00686
3214.99512 1.51503 0.01515 0.68198 0.00682
3214.03101 1.51953 0.01520 0.67774 0.00678
3213.06689 1.52415 0.01524 0.67319 0.00673
3212.10303 1.52862 0.01529 0.66838 0.00668
3211.13892 1.53262 0.01533 0.66332 0.00663
3210.17603 1.53604 0.01536 0.65815 0.00658
3209.21191 1.53886 0.01539 0.65299 0.00653
3208.24805 1.54128 0.01541 0.64797 0.00648
3207.28394 1.54350 0.01543 0.64322 0.00643
3206.32007 1.54544 0.01545 0.63881 0.00639
3205.35596 1.54701 0.01547 0.63483 0.00635
3204.39209 1.54849 0.01548 0.63128 0.00631
3203.42798 1.55021 0.01550 0.62816 0.00628
3202.46509 1.55225 0.01552 0.62536 0.00625
3201.50098 1.55466 0.01555 0.62274 0.00623
3200.53711 1.55718 0.01557 0.62018 0.00620
3199.57300 1.55958 0.01560 0.61760 0.00618
3198.60889 1.56210 0.01562 0.61494 0.00615
3197.64502 1.56504 0.01565 0.61217 0.00612
3196.68091 1.56806 0.01568 0.60929 0.00609
3195.71802 1.57073 0.01571 0.60631 0.00606
3194.75391 1.57320 0.01573 0.60323 0.00603
3193.79004 1.57575 0.01576 0.60011 0.00600
3192.82593 1.57823 0.01578 0.59699 0.00597
3191.86206 1.58039 0.01580 0.59392 0.00594
3190.89795 1.58236 0.01582 0.59096 0.00591
3189.93408 1.58435 0.01584 0.58818 0.00588
3188.96997 1.58634 0.01586 0.58559 0.00586
3188.00708 1.58825 0.01588 0.58322 0.00583
3187.04297 1.59027 0.01590 0.58098 0.00581
3186.07910 1.59263 0.01593 0.57878 0.00579
3185.11499 1.59515 0.01595 0.57658 0.00577
3184.15088 1.59757 0.01598 0.57438 0.00574
3183.18701 1.60010 0.01600 0.57216 0.00572
3182.22290 1.60305 0.01603 0.56994 0.00570
3181.26001 1.60606 0.01606 0.56766 0.00568
3180.29590 1.60864 0.01609 0.56526 0.00565
3179.33203 1.61113 0.01611 0.56271 0.00563
3178.36792 1.61398 0.01614 0.56000 0.00560
3177.40405 1.61699 0.01617 0.55718 0.00557
3176.43994 1.61982 0.01620 0.55427 0.00554
3175.47607 1.62227 0.01622 0.55137 0.00551
3174.51196 1.62427 0.01624 0.54856 0.00549
3173.54907 1.62625 0.01626 0.54585 0.00546
3172.58496 1.62867 0.01629 0.54327 0.00543
3171.62109 1.63118 0.01631 0.54080 0.00541
3170.65698 1.63332 0.01633 0.53843 0.00538
3169.69312 1.63531 0.01635 0.53622 0.00536
3168.72900 1.63754 0.01638 0.53423 0.00534
3167.76489 1.64007 0.01640 0.53241 0.00532
3166.80200 1.64286 0.01643 0.53067 0.00531
3165.83789 1.64590 0.01646 0.52887 0.00529
3164.87402 1.64926 0.01649 0.52689 0.00527
3163.90991 1.65278 0.01653 0.52467 0.00525
3162.94604 1.65628 0.01656 0.52219 0.00522
3161.98193 1.65978 0.01660 0.51943 0.00519
3161.01807 1.66336 0.01663 0.51641 0.00516
3160.05396 1.66685 0.01667 0.51320 0.00513
3159.09106 1.67002 0.01670 0.50988 0.00510
3158.12695 1.67298 0.01673 0.50648 0.00506
3157.16309 1.67593 0.01676 0.50300 0.00503
3156.19897 1.67894 0.01679 0.49946 0.00499
3155.23511 1.68207 0.01682 0.49592 0.00496
3154.27100 1.68505 0.01685 0.49243 0.00492
3153.30688 1.68763 0.01688 0.48906 0.00489
3152.34302 1.69010 0.01690 0.48576 0.00486
3151.37988 1.69287 0.01693 0.48246 0.00482
3150.41602 1.69590 0.01696 0.47912 0.00479
3149.45190 1.69905 0.01699 0.47568 0.00476
3148.48804 1.70204 0.01702 0.47211 0.00472
3147.52393 1.70459 0.01705 0.46839 0.00468
3146.56006 1.70707 0.01707 0.46451 0.00465
3145.59595 1.70993 0.01710 0.46044 0.00460
3144.63306 1.71295 0.01713 0.45624 0.00456
3143.66895 1.71574 0.01716 0.45199 0.00452
3142.70508 1.71820 0.01718 0.44770 0.00448
3141.74097 1.72036 0.01720 0.44339 0.00443
3140.77710 1.72234 0.01722 0.43906 0.00439
3139.81299 1.72420 0.01724 0.43475 0.00435
3138.84912 1.72621 0.01726 0.43046 0.00430
3137.88501 1.72863 0.01729 0.42622 0.00426
3136.92212 1.73115 0.01731 0.42200 0.00422
3135.95801 1.73336 0.01733 0.41776 0.00418
3134.99390 1.73533 0.01735 0.41346 0.00413
3134.03003 1.73725 0.01737 0.40907 0.00409
3133.06592 1.73925 0.01739 0.40457 0.00405
3132.10205 1.74136 0.01741 0.39993 0.00400
3131.13794 1.74335 0.01743 0.39513 0.00395
3130.17505 1.74498 0.01745 0.39017 0.00390
3129.21094 1.74645 0.01746 0.38510 0.00385
3128.24707 1.74809 0.01748 0.37994 0.00380
3127.28296 1.74958 0.01750 0.37475 0.00375
3126.31909 1.75044 0.01750 0.36957 0.00370
3125.35498 1.75088 0.01751 0.36444 0.00364
3124.39111 1.75131 0.01751 0.35940 0.00359
3123.42700 1.75180 0.01752 0.35447 0.00354
3122.46411 1.75232 0.01752 0.34966 0.00350
3121.50000 1.75282 0.01753 0.34495 0.00345
3120.53589 1.75332 0.01753 0.34032 0.00340
3119.57202 1.75381 0.01754 0.33577 0.00336
3118.60791 1.75432 0.01754 0.33128 0.00331
3117.64404 1.75482 0.01755 0.32678 0.00327
3116.67993 1.75530 0.01755 0.32220 0.00322
3115.71704 1.75580 0.01756 0.31748 0.00317
3114.75293 1.75637 0.01756 0.31260 0.00313
3113.78906 1.75687 0.01757 0.30759 0.00308
3112.82495 1.75712 0.01757 0.30249 0.00302
3111.86108 1.75708 0.01757 0.29728 0.00297
3110.89697 1.75679 0.01757 0.29198 0.00292
3109.93311 1.75625 0.01756 0.28665 0.00287
3108.96899 1.75549 0.01755 0.28139 0.00281
3108.00610 1.75446 0.01754 0.27626 0.00276
3107.04199 1.75311 0.01753 0.27128 0.00271
3106.07788 1.75158 0.01752 0.26647 0.00266
3105.11401 1.75005 0.01750 0.26189 0.00262
3104.14990 1.74855 0.01749 0.25757 0.00258
3103.18604 1.74706 0.01747 0.25353 0.00254
3102.22192 1.74557 0.01746 0.24971 0.00250
3101.25903 1.74406 0.01744 0.24598 0.00246
3100.29492 1.74256 0.01743 0.24232 0.00242
3099.33105 1.74105 0.01741 0.23877 0.00239
3098.36694 1.73955 0.01740 0.23530 0.00235
3097.40308 1.73808 0.01738 0.23188 0.00232
3096.43896 1.73658 0.01737 0.22847 0.00228
3095.47510 1.73498 0.01735 0.22503 0.00225
3094.51099 1.73349 0.01733 0.22158 0.00222
3093.54810 1.73236 0.01732 0.21815 0.00218
3092.58398 1.73139 0.01731 0.21473 0.00215
3091.62012 1.73023 0.01730 0.21130 0.00211
3090.65601 1.72870 0.01729 0.20788 0.00208
3089.69189 1.72673 0.01727 0.20448 0.00204
3088.72803 1.72470 0.01725 0.20114 0.00201
3087.76392 1.72307 0.01723 0.19784 0.00198
3086.80103 1.72159 0.01722 0.19460 0.00195
3085.83691 1.71982 0.01720 0.19141 0.00191
3084.87305 1.71779 0.01718 0.18831 0.00188
3083.90894 1.71574 0.01716 0.18530 0.00185
3082.94507 1.71375 0.01714 0.18241 0.00182
3081.98096 1.71176 0.01712 0.17965 0.00180
3081.01709 1.70977 0.01710 0.17700 0.00177
3080.05298 1.70776 0.01708 0.17446 0.00174
3079.09009 1.70576 0.01706 0.17204 0.00172
3078.12598 1.70379 0.01704 0.16974 0.00170
3077.16211 1.70179 0.01702 0.16754 0.00168
3076.19800 1.69971 0.01700 0.16541 0.00165
3075.23389 1.69771 0.01698 0.16334 0.00163
3074.27002 1.69602 0.01696 0.16131 0.00161
3073.30591 1.69455 0.01695 0.15929 0.00159
3072.34302 1.69306 0.01693 0.15726 0.00157
3071.37891 1.69156 0.01692 0.15522 0.00155
3070.41504 1.69016 0.01690 0.15312 0.00153
3069.45093 1.68866 0.01689 0.15100 0.00151
3068.48706 1.68675 0.01687 0.14885 0.00149
3067.52295 1.68472 0.01685 0.14671 0.00147
3066.55908 1.68307 0.01683 0.14460 0.00145
3065.59497 1.68161 0.01682 0.14254 0.00143
3064.63208 1.67987 0.01680 0.14056 0.00141
3063.66797 1.67784 0.01678 0.13868 0.00139
3062.70410 1.67571 0.01676 0.13693 0.00137
3061.73999 1.67371 0.01674 0.13531 0.00135
3060.77588 1.67202 0.01672 0.13380 0.00134
3059.81201 1.67055 0.01671 0.13241 0.00132
3058.84790 1.66911 0.01669 0.13110 0.00131
3057.88501 1.66761 0.01668 0.12984 0.00130
3056.92090 1.66599 0.01666 0.12858 0.00129
3055.95703 1.66449 0.01664 0.12729 0.00127
3054.99292 1.66342 0.01663 0.12591 0.00126
3054.02905 1.66245 0.01662 0.12444 0.00124
3053.06494 1.66108 0.01661 0.12287 0.00123
3052.10107 1.65955 0.01660 0.12124 0.00121
3051.13696 1.65839 0.01658 0.11956 0.00120
3050.17407 1.65743 0.01657 0.11785 0.00118
3049.20996 1.65615 0.01656 0.11613 0.00116
3048.24609 1.65462 0.01655 0.11443 0.00114
3047.28198 1.65317 0.01653 0.11278 0.00113
3046.31812 1.65166 0.01652 0.11117 0.00111
3045.35400 1.64979 0.01650 0.10963 0.00110
3044.38989 1.64776 0.01648 0.10815 0.00108
3043.42700 1.64602 0.01646 0.10673 0.00107
3042.46289 1.64455 0.01645 0.10538 0.00105
3041.49902 1.64311 0.01643 0.10408 0.00104
3040.53491 1.64161 0.01642 0.10280 0.00103
3039.57104 1.64010 0.01640 0.10150 0.00101
3038.60693 1.63861 0.01639 0.10019 0.00100
3037.64307 1.63708 0.01637 0.09888 0.00099
3036.67896 1.63558 0.01636 0.09761 0.00098
3035.71606 1.63419 0.01634 0.09636 0.00096
3034.75195 1.63270 0.01633 0.09518 0.00095
3033.78809 1.63080 0.01631 0.09408 0.00094
3032.82397 1.62876 0.01629 0.09309 0.00093
3031.86011 1.62704 0.01627 0.09222 0.00092
3030.89600 1.62558 0.01626 0.09145 0.00091
3029.93188 1.62405 0.01624 0.09075 0.00091
3028.96802 1.62255 0.01623 0.09011 0.00090
3028.00488 1.62133 0.01621 0.08953 0.00090
3027.04102 1.62036 0.01620 0.08896 0.00089
3026.07690 1.61944 0.01619 0.08836 0.00088
3025.11304 1.61844 0.01618 0.08768 0.00088
3024.14893 1.61733 0.01617 0.08690 0.00087
3023.18506 1.61633 0.01616 0.08602 0.00086
3022.22095 1.61568 0.01616 0.08502 0.00085
3021.25806 1.61522 0.01615 0.08392 0.00084
3020.29395 1.61457 0.01615 0.08272 0.00083
3019.33008 1.61354 0.01614 0.08145 0.00081
3018.36597 1.61208 0.01612 0.08015 0.00080
3017.40210 1.61054 0.01611 0.07887 0.00079
3016.43799 1.60940 0.01609 0.07765 0.00078
3015.47412 1.60844 0.01608 0.07651 0.00077
3014.51001 1.60719 0.01607 0.07544 0.00075
3013.54712 1.60566 0.01606 0.07444 0.00074
3012.58301 1.60410 0.01604 0.07354 0.00074
3011.61890 1.60260 0.01603 0.07271 0.00073
3010.65503 1.60114 0.01601 0.07193 0.00072
3009.69092 1.59964 0.01600 0.07121 0.00071
3008.72705 1.59807 0.01598 0.07053 0.00071
3007.76294 1.59656 0.01597 0.06991 0.00070
3006.80005 1.59534 0.01595 0.06936 0.00069
3005.83594 1.59436 0.01594 0.06884 0.00069
3004.87207 1.59349 0.01593 0.06833 0.00068
3003.90796 1.59250 0.01592 0.06780 0.00068
3002.94409 1.59114 0.01591 0.06724 0.00067
3001.97998 1.58961 0.01590 0.06668 0.00067
3001.01611 1.58827 0.01588 0.06611 0.00066
3000.05200 1.58729 0.01587 0.06555 0.00066
2999.08911 1.58672 0.01587 0.06498 0.00065
2998.12500 1.58626 0.01586 0.06439 0.00064
2997.16089 1.58549 0.01585 0.06377 0.00064
2996.19702 1.58446 0.01584 0.06311 0.00063
2995.23291 1.58341 0.01583 0.06241 0.00062
2994.26904 1.58241 0.01582 0.06167 0.00062
2993.30493 1.58142 0.01581 0.06094 0.00061
2992.34204 1.58042 0.01580 0.06024 0.00060
2991.37793 1.57942 0.01579 0.05960 0.00060
2990.41406 1.57842 0.01578 0.05900 0.00059
2989.44995 1.57740 0.01577 0.05838 0.00058
2988.48608 1.57640 0.01576 0.05773 0.00058
2987.52197 1.57550 0.01575 0.05704 0.00057
2986.55811 1.57451 0.01575 0.05636 0.00056
2985.59399 1.57313 0.01573 0.05574 0.00056
2984.63110 1.57160 0.01572 0.05519 0.00055
2983.66699 1.57037 0.01570 0.05472 0.00055
2982.70288 1.56941 0.01569 0.05432 0.00054
2981.73901 1.56836 0.01568 0.05396 0.00054
2980.77490 1.56735 0.01567 0.05363 0.00054
2979.81104 1.56672 0.01567 0.05328 0.00053
2978.84692 1.56626 0.01566 0.05290 0.00053
2977.88403 1.56544 0.01565 0.05249 0.00052
2976.91992 1.56440 0.01564 0.05203 0.00052
2975.95605 1.56362 0.01564 0.05150 0.00051
2974.99194 1.56315 0.01563 0.05088 0.00051
2974.02808 1.56277 0.01563 0.05014 0.00050
2973.06396 1.56228 0.01562 0.04932 0.00049
2972.10010 1.56155 0.01562 0.04844 0.00048
2971.13599 1.56053 0.01561 0.04757 0.00048
2970.17310 1.55922 0.01559 0.04677 0.00047
2969.20898 1.55770 0.01558 0.04609 0.00046
2968.24512 1.55608 0.01556 0.04554 0.00046
2967.28101 1.55457 0.01555 0.04516 0.00045
2966.31689 1.55338 0.01553 0.04496 0.00045
2965.35303 1.55241 0.01552 0.04490 0.00045
2964.38892 1.55140 0.01551 0.04494 0.00045
2963.42603 1.55039 0.01550 0.04500 0.00045
2962.46191 1.54957 0.01550 0.04505 0.00045
2961.49805 1.54909 0.01549 0.04503 0.00045
2960.53394 1.54901 0.01549 0.04490 0.00045
2959.57007 1.54905 0.01549 0.04462 0.00045
2958.60596 1.54877 0.01549 0.04418 0.00044
2957.64209 1.54824 0.01548 0.04359 0.00044
2956.67798 1.54776 0.01548 0.04287 0.00043
2955.71509 1.54728 0.01547 0.04204 0.00042
2954.75098 1.54651 0.01547 0.04114 0.00041
2953.78711 1.54548 0.01545 0.04022 0.00040
2952.82300 1.54443 0.01544 0.03935 0.00039
2951.85889 1.54343 0.01543 0.03858 0.00039
2950.89502 1.54243 0.01542 0.03798 0.00038
2949.93091 1.54143 0.01541 0.03753 0.00038
2948.96802 1.54045 0.01540 0.03722 0.00037
2948.00391 1.53946 0.01539 0.03700 0.00037
2947.04004 1.53838 0.01538 0.03685 0.00037
2946.07593 1.53737 0.01537 0.03674 0.00037
2945.11206 1.53666 0.01537 0.03662 0.00037
2944.14795 1.53619 0.01536 0.03647 0.00036
2943.18408 1.53571 0.01536 0.03624 0.00036
2942.21997 1.53521 0.01535 0.03592 0.00036
2941.25708 1.53480 0.01535 0.03549 0.00035
2940.29297 1.53432 0.01534 0.03496 0.00035
2939.32910 1.53344 0.01533 0.03436 0.00034
2938.36499 1.53239 0.01532 0.03372 0.00034
2937.40088 1.53170 0.01532 0.03310 0.00033
2936.43701 1.53124 0.01531 0.03256 0.00033
2935.47290 1.53054 0.01531 0.03210 0.00032
2934.51001 1.52952 0.01530 0.03174 0.00032
2933.54590 1.52836 0.01528 0.03145 0.00031
2932.58203 1.52734 0.01527 0.03123 0.00031
2931.61792 1.52673 0.01527 0.03104 0.00031
2930.65405 1.52628 0.01526 0.03086 0.00031
2929.68994 1.52547 0.01525 0.03064 0.00031
2928.72607 1.52443 0.01524 0.03036 0.00030
2927.76196 1.52363 0.01524 0.03000 0.00030
2926.79907 1.52316 0.01523 0.02953 0.00030
2925.83496 1.52280 0.01523 0.02897 0.00029
2924.87109 1.52232 0.01522 0.02834 0.00028
2923.90698 1.52149 0.01521 0.02766 0.00028
2922.94312 1.52046 0.01520 0.02700 0.00027
2921.97900 1.51951 0.01520 0.02641 0.00026
2921.01489 1.51854 0.01519 0.02593 0.00026
2920.05200 1.51719 0.01517 0.02559 0.00026
2919.08789 1.51564 0.01516 0.02539 0.00025
2918.12402 1.51439 0.01514 0.02534 0.00025
2917.15991 1.51343 0.01513 0.02543 0.00025
2916.19604 1.51241 0.01512 0.02566 0.00026
2915.23193 1.51139 0.01511 0.02596 0.00026
2914.26807 1.51067 0.01511 0.02630 0.00026
2913.30396 1.51021 0.01510 0.02663 0.00027
2912.34106 1.50969 0.01510 0.02692 0.00027
2911.37695 1.50917 0.01509 0.02715 0.00027
2910.41309 1.50891 0.01509 0.02729 0.00027
2909.44897 1.50893 0.01509 0.02732 0.00027
2908.48511 1.50909 0.01509 0.02722 0.00027
2907.52100 1.50911 0.01509 0.02700 0.00027
2906.55688 1.50872 0.01509 0.02673 0.00027
2905.59302 1.50817 0.01508 0.02639 0.00026
2904.62988 1.50798 0.01508 0.02600 0.00026
2903.66602 1.50803 0.01508 0.02554 0.00026
2902.70190 1.50779 0.01508 0.02504 0.00025
2901.73804 1.50726 0.01507 0.02453 0.00025
2900.77393 1.50679 0.01507 0.02402 0.00024
2899.81006 1.50632 0.01506 0.02352 0.00024
2898.84595 1.50546 0.01505 0.02300 0.00023
2897.88306 1.50441 0.01504 0.02247 0.00022
2896.91895 1.50373 0.01504 0.02195 0.00022
2895.95508 1.50328 0.01503 0.02146 0.00021
2894.99097 1.50247 0.01502 0.02100 0.00021
2894.02710 1.50142 0.01501 0.02059 0.00021
2893.06299 1.50072 0.01501 0.02024 0.00020
2892.09912 1.50027 0.01500 0.01998 0.00020
2891.13501 1.49949 0.01499 0.01982 0.00020
2890.17212 1.49845 0.01498 0.01975 0.00020
2889.20801 1.49765 0.01498 0.01971 0.00020
2888.24390 1.49718 0.01497 0.01967 0.00020
2887.28003 1.49675 0.01497 0.01963 0.00020
2886.31592 1.49625 0.01496 0.01957 0.00020
2885.35205 1.49573 0.01496 0.01950 0.00020
2884.38794 1.49523 0.01495 0.01939 0.00019
2883.42505 1.49474 0.01495 0.01920 0.00019
2882.46094 1.49424 0.01494 0.01894 0.00019
2881.49707 1.49372 0.01494 0.01863 0.00019
2880.53296 1.49321 0.01493 0.01830 0.00018
2879.56909 1.49280 0.01493 0.01796 0.00018
2878.60498 1.49233 0.01492 0.01766 0.00018
2877.64111 1.49149 0.01491 0.01741 0.00017
2876.67700 1.49044 0.01490 0.01723 0.00017
2875.71411 1.48966 0.01490 0.01709 0.00017
2874.75000 1.48919 0.01489 0.01696 0.00017
2873.78589 1.48875 0.01489 0.01683 0.00017
2872.82202 1.48825 0.01488 0.01669 0.00017
2871.85791 1.48774 0.01488 0.01655 0.00017
2870.89404 1.48724 0.01487 0.01640 0.00016
2869.92993 1.48674 0.01487 0.01622 0.00016
2868.96704 1.48624 0.01486 0.01601 0.00016
2868.00293 1.48574 0.01486 0.01575 0.00016
2867.03906 1.48524 0.01485 0.01544 0.00015
2866.07495 1.48474 0.01485 0.01511 0.00015
2865.11108 1.48425 0.01484 0.01478 0.00015
2864.14697 1.48372 0.01484 0.01448 0.00014
2863.18311 1.48321 0.01483 0.01423 0.00014
2862.21899 1.48281 0.01483 0.01404 0.00014
2861.25610 1.48234 0.01482 0.01389 0.00014
2860.29199 1.48150 0.01481 0.01375 0.00014
2859.32788 1.48045 0.01480 0.01363 0.00014
2858.36401 1.47966 0.01480 0.01353 0.00014
2857.39990 1.47919 0.01479 0.01347 0.00013
2856.43604 1.47878 0.01479 0.01347 0.00013
2855.47192 1.47828 0.01478 0.01350 0.00013
2854.50903 1.47767 0.01478 0.01352 0.00014
2853.54492 1.47714 0.01477 0.01350 0.00013
2852.58105 1.47699 0.01477 0.01342 0.00013
2851.61694 1.47703 0.01477 0.01327 0.00013
2850.65308 1.47683 0.01477 0.01305 0.00013
2849.68896 1.47630 0.01476 0.01277 0.00013
2848.72510 1.47571 0.01476 0.01246 0.00012
2847.76099 1.47520 0.01475 0.01213 0.00012
2846.79810 1.47482 0.01475 0.01178 0.00012
2845.83398 1.47435 0.01474 0.01142 0.00011
2844.87012 1.47349 0.01473 0.01105 0.00011
2843.90601 1.47243 0.01472 0.01068 0.00011
2842.94189 1.47173 0.01472 0.01038 0.00010
2841.97803 1.47129 0.01471 0.01016 0.00010
2841.01392 1.47052 0.01471 0.01007 0.00010
2840.05103 1.46947 0.01469 0.01009 0.00010
2839.08691 1.46866 0.01469 0.01021 0.00010
2838.12305 1.46818 0.01468 0.01041 0.00010
2837.15894 1.46778 0.01468 0.01065 0.00011
2836.19507 1.46729 0.01467 0.01090 0.00011
2835.23096 1.46667 0.01467 0.01115 0.00011
2834.26709 1.46614 0.01466 0.01138 0.00011
2833.30298 1.46600 0.01466 0.01157 0.00012
2832.34009 1.46606 0.01466 0.01171 0.00012
2831.37598 1.46576 0.01466 0.01176 0.00012
2830.41211 1.46521 0.01465 0.01170 0.00012
2829.44800 1.46497 0.01465 0.01153 0.00012
2828.48389 1.46502 0.01465 0.01126 0.00011
2827.52002 1.46483 0.01465 0.01093 0.00011
2826.55591 1.46431 0.01464 0.01056 0.00011
2825.59302 1.46373 0.01464 0.01020 0.00010
2824.62891 1.46323 0.01463 0.00987 0.00010
2823.66504 1.46277 0.01463 0.00961 0.00010
2822.70093 1.46228 0.01462 0.00944 0.00009
2821.73706 1.46169 0.01462 0.00932 0.00009
2820.77295 1.46115 0.01461 0.00922 0.00009
2819.80908 1.46098 0.01461 0.00913 0.00009
2818.84497 1.46103 0.01461 0.00903 0.00009
2817.88208 1.46083 0.01461 0.00891 0.00009
2816.91797 1.46031 0.01460 0.00877 0.00009
2815.95410 1.45974 0.01460 0.00858 0.00009
2814.98999 1.45924 0.01459 0.00833 0.00008
2814.02588 1.45874 0.01459 0.00804 0.00008
2813.06201 1.45823 0.01458 0.00775 0.00008
2812.09790 1.45781 0.01458 0.00748 0.00007
2811.13501 1.45735 0.01457 0.00727 0.00007
2810.17090 1.45652 0.01457 0.00713 0.00007
2809.20703 1.45547 0.01455 0.00707 0.00007
2808.24292 1.45469 0.01455 0.00714 0.00007
2807.27905 1.45422 0.01454 0.00732 0.00007
2806.31494 1.45372 0.01454 0.00756 0.00008
2805.35107 1.45319 0.01453 0.00780 0.00008
2804.38696 1.45293 0.01453 0.00805 0.00008
2803.42407 1.45295 0.01453 0.00823 0.00008
2802.45996 1.45302 0.01453 0.00823 0.00008
2801.49609 1.45302 0.01453 0.00821 0.00008
2800.53198 1.45297 0.01453 0.00852 0.00009
2799.56812 1.45296 0.01453 0.00851 0.00009
2798.60400 1.45309 0.01453 0.00689 0.00007
2797.63989 1.45222 0.01452 0.00670 0.00007
2796.67700 1.45127 0.01451 0.00654 0.00007
2795.71289 1.45059 0.01451 0.00668 0.00007
2794.74902 1.45009 0.01450 0.00672 0.00007
2793.78491 1.44961 0.01450 0.00668 0.00007
2792.82104 1.44913 0.01449 0.00663 0.00007
2791.85693 1.44866 0.01449 0.00656 0.00007
2790.89307 1.44814 0.01448 0.00647 0.00006
2789.92896 1.44752 0.01448 0.00637 0.00006
2788.96606 1.44706 0.01447 0.00625 0.00006
2788.00195 1.44704 0.01447 0.00609 0.00006
2787.03809 1.44703 0.01447 0.00591 0.00006
2786.07397 1.44668 0.01447 0.00573 0.00006
2785.11011 1.44616 0.01446 0.00557 0.00006
2784.14600 1.44563 0.01446 0.00547 0.00005
2783.18188 1.44512 0.01445 0.00542 0.00005
2782.21802 1.44463 0.01445 0.00542 0.00005
2781.25488 1.44413 0.01444 0.00543 0.00005
2780.29102 1.44362 0.01444 0.00542 0.00005
2779.32690 1.44312 0.01443 0.00539 0.00005
2778.36304 1.44266 0.01443 0.00534 0.00005
2777.39893 1.44215 0.01442 0.00529 0.00005
2776.43506 1.44152 0.01442 0.00525 0.00005
2775.47095 1.44107 0.01441 0.00522 0.00005
2774.50806 1.44104 0.01441 0.00519 0.00005
2773.54395 1.44103 0.01441 0.00515 0.00005
2772.58008 1.44068 0.01441 0.00510 0.00005
2771.61597 1.44016 0.01440 0.00502 0.00005
2770.65210 1.43963 0.01440 0.00491 0.00005
2769.68799 1.43912 0.01439 0.00480 0.00005
2768.72412 1.43866 0.01439 0.00470 0.00005
2767.76001 1.43815 0.01438 0.00460 0.00005
2766.79712 1.43752 0.01438 0.00452 0.00005
2765.83301 1.43707 0.01437 0.00446 0.00004
2764.86890 1.43704 0.01437 0.00442 0.00004
2763.90503 1.43703 0.01437 0.00438 0.00004
2762.94092 1.43668 0.01437 0.00433 0.00004
2761.97705 1.43616 0.01436 0.00428 0.00004
2761.01294 1.43563 0.01436 0.00426 0.00004
2760.05005 1.43512 0.01435 0.00427 0.00004
2759.08594 1.43466 0.01435 0.00433 0.00004
2758.12207 1.43416 0.01434 0.00442 0.00004
2757.15796 1.43353 0.01434 0.00453 0.00005
2756.19409 1.43307 0.01433 0.00462 0.00005
2755.22998 1.43303 0.01433 0.00466 0.00005
2754.26611 1.43303 0.01433 0.00465 0.00005
2753.30200 1.43268 0.01433 0.00460 0.00005
2752.33911 1.43216 0.01432 0.00454 0.00005
2751.37500 1.43163 0.01432 0.00450 0.00004
2750.41089 1.43112 0.01431 0.00448 0.00004
2749.44702 1.43067 0.01431 0.00451 0.00005
2748.48291 1.43016 0.01430 0.00456 0.00005
2747.51904 1.42953 0.01430 0.00462 0.00005
2746.55493 1.42907 0.01429 0.00470 0.00005
2745.59204 1.42905 0.01429 0.00481 0.00005
2744.62793 1.42904 0.01429 0.00495 0.00005
2743.66406 1.42862 0.01429 0.00513 0.00005
2742.69995 1.42812 0.01428 0.00532 0.00005
2741.73608 1.42792 0.01428 0.00549 0.00005
2740.77197 1.42795 0.01428 0.00562 0.00006
2739.80811 1.42811 0.01428 0.00566 0.00006
2738.84399 1.42808 0.01428 0.00562 0.00006
2737.88110 1.42758 0.01428 0.00551 0.00006
2736.91699 1.42709 0.01427 0.00535 0.00005
2735.95288 1.42703 0.01427 0.00515 0.00005
2734.98901 1.42703 0.01427 0.00495 0.00005
2734.02490 1.42669 0.01427 0.00475 0.00005
2733.06104 1.42617 0.01426 0.00458 0.00005
2732.09692 1.42564 0.01426 0.00445 0.00004
2731.13403 1.42514 0.01425 0.00435 0.00004
2730.16992 1.42464 0.01425 0.00426 0.00004
2729.20605 1.42414 0.01424 0.00419 0.00004
2728.24194 1.42367 0.01424 0.00416 0.00004
2727.27808 1.42316 0.01423 0.00415 0.00004
2726.31396 1.42254 0.01423 0.00419 0.00004
2725.35010 1.42207 0.01422 0.00426 0.00004
2724.38599 1.42202 0.01422 0.00434 0.00004
2723.42310 1.42203 0.01422 0.00442 0.00004
2722.45898 1.42172 0.01422 0.00452 0.00005
2721.49512 1.42119 0.01421 0.00463 0.00005
2720.53101 1.42053 0.01421 0.00475 0.00005
2719.56689 1.42006 0.01420 0.00487 0.00005
2718.60303 1.42005 0.01420 0.00500 0.00005
2717.63892 1.42005 0.01420 0.00514 0.00005
2716.67603 1.41963 0.01420 0.00528 0.00005
2715.71191 1.41912 0.01419 0.00541 0.00005
2714.74805 1.41892 0.01419 0.00550 0.00005
2713.78394 1.41895 0.01419 0.00556 0.00006
2712.82007 1.41911 0.01419 0.00559 0.00006
2711.85596 1.41908 0.01419 0.00561 0.00006
2710.89209 1.41858 0.01419 0.00562 0.00006
2709.92798 1.41809 0.01418 0.00561 0.00006
2708.96509 1.41805 0.01418 0.00557 0.00006
2708.00098 1.41805 0.01418 0.00552 0.00006
2707.03711 1.41760 0.01418 0.00547 0.00005
2706.07300 1.41711 0.01417 0.00541 0.00005
2705.10889 1.41702 0.01417 0.00536 0.00005
2704.14502 1.41702 0.01417 0.00531 0.00005
2703.18091 1.41673 0.01417 0.00526 0.00005
2702.21802 1.41620 0.01416 0.00522 0.00005
2701.25391 1.41554 0.01416 0.00523 0.00005
2700.29004 1.41506 0.01415 0.00526 0.00005
2699.32593 1.41506 0.01415 0.00531 0.00005
2698.36206 1.41505 0.01415 0.00539 0.00005
2697.39795 1.41459 0.01415 0.00547 0.00005
2696.43408 1.41410 0.01414 0.00557 0.00006
2695.46997 1.41404 0.01414 0.00567 0.00006
2694.50708 1.41404 0.01414 0.00574 0.00006
2693.54297 1.41363 0.01414 0.00578 0.00006
2692.57910 1.41313 0.01413 0.00581 0.00006
2691.61499 1.41291 0.01413 0.00583 0.00006
2690.65088 1.41295 0.01413 0.00583 0.00006
2689.68701 1.41311 0.01413 0.00581 0.00006
2688.72290 1.41309 0.01413 0.00575 0.00006
2687.76001 1.41261 0.01413 0.00564 0.00006
2686.79590 1.41210 0.01412 0.00552 0.00006
2685.83203 1.41202 0.01412 0.00540 0.00005
2684.86792 1.41202 0.01412 0.00529 0.00005
2683.90405 1.41174 0.01412 0.00520 0.00005
2682.93994 1.41120 0.01411 0.00515 0.00005
2681.97607 1.41054 0.01411 0.00517 0.00005
2681.01196 1.41006 0.01410 0.00522 0.00005
2680.04907 1.41005 0.01410 0.00532 0.00005
2679.08496 1.41006 0.01410 0.00541 0.00005
2678.12109 1.40960 0.01410 0.00547 0.00005
2677.15698 1.40911 0.01409 0.00551 0.00006
2676.19312 1.40905 0.01409 0.00555 0.00006
2675.22900 1.40905 0.01409 0.00558 0.00006
2674.26489 1.40861 0.01409 0.00558 0.00006
2673.30200 1.40811 0.01408 0.00554 0.00006
2672.33789 1.40805 0.01408 0.00546 0.00005
2671.37402 1.40804 0.01408 0.00535 0.00005
2670.40991 1.40761 0.01408 0.00523 0.00005
2669.44604 1.40712 0.01407 0.00513 0.00005
2668.48193 1.40701 0.01407 0.00507 0.00005
2667.51807 1.40702 0.01407 0.00506 0.00005
2666.55396 1.40674 0.01407 0.00512 0.00005
2665.59106 1.40621 0.01406 0.00522 0.00005
2664.62695 1.40555 0.01406 0.00534 0.00005
2663.66309 1.40507 0.01405 0.00543 0.00005
2662.69897 1.40505 0.01405 0.00547 0.00005
2661.73511 1.40506 0.01405 0.00548 0.00005
2660.77100 1.40461 0.01405 0.00551 0.00006
2659.80688 1.40411 0.01404 0.00556 0.00006
2658.84302 1.40404 0.01404 0.00562 0.00006
2657.87988 1.40405 0.01404 0.00568 0.00006
2656.91602 1.40361 0.01404 0.00572 0.00006
2655.95190 1.40311 0.01403 0.00576 0.00006
2654.98804 1.40304 0.01403 0.00581 0.00006
2654.02393 1.40304 0.01403 0.00590 0.00006
2653.06006 1.40265 0.01403 0.00602 0.00006
2652.09595 1.40214 0.01402 0.00615 0.00006
2651.13306 1.40191 0.01402 0.00627 0.00006
2650.16895 1.40194 0.01402 0.00635 0.00006
2649.20508 1.40211 0.01402 0.00635 0.00006
2648.24097 1.40209 0.01402 0.00629 0.00006
2647.27710 1.40162 0.01402 0.00617 0.00006
2646.31299 1.40111 0.01401 0.00604 0.00006
2645.34912 1.40102 0.01401 0.00594 0.00006
2644.38501 1.40103 0.01401 0.00588 0.00006
2643.42212 1.40071 0.01401 0.00586 0.00006
2642.45801 1.40019 0.01400 0.00587 0.00006
2641.49390 1.39967 0.01400 0.00591 0.00006
2640.53003 1.39917 0.01399 0.00601 0.00006
2639.56592 1.39859 0.01399 0.00616 0.00006
2638.60205 1.39811 0.01398 0.00637 0.00006
2637.63794 1.39794 0.01398 0.00662 0.00007
2636.67505 1.39797 0.01398 0.00688 0.00007
2635.71094 1.39801 0.01398 0.00713 0.00007
2634.74707 1.39801 0.01398 0.00735 0.00007
2633.78296 1.39797 0.01398 0.00751 0.00008
2632.81909 1.39798 0.01398 0.00761 0.00008
2631.85498 1.39810 0.01398 0.00765 0.00008
2630.89111 1.39808 0.01398 0.00765 0.00008
2629.92700 1.39761 0.01398 0.00764 0.00008
2628.96411 1.39711 0.01397 0.00760 0.00008
2628.00000 1.39704 0.01397 0.00755 0.00008
2627.03589 1.39705 0.01397 0.00748 0.00007
2626.07202 1.39663 0.01397 0.00741 0.00007
2625.10791 1.39612 0.01396 0.00736 0.00007
2624.14404 1.39604 0.01396 0.00732 0.00007
2623.17993 1.39605 0.01396 0.00732 0.00007
2622.21704 1.39563 0.01396 0.00738 0.00007
2621.25293 1.39512 0.01395 0.00749 0.00007
2620.28906 1.39503 0.01395 0.00768 0.00008
2619.32495 1.39504 0.01395 0.00791 0.00008
2618.36108 1.39466 0.01395 0.00815 0.00008
2617.39697 1.39414 0.01394 0.00837 0.00008
2616.43311 1.39394 0.01394 0.00856 0.00009
2615.46899 1.39396 0.01394 0.00872 0.00009
2614.50610 1.39401 0.01394 0.00885 0.00009
2613.54199 1.39401 0.01394 0.00895 0.00009
2612.57788 1.39400 0.01394 0.00902 0.00009
2611.61401 1.39400 0.01394 0.00906 0.00009
2610.64990 1.39398 0.01394 0.00905 0.00009
2609.68604 1.39398 0.01394 0.00900 0.00009
2608.72192 1.39409 0.01394 0.00893 0.00009
2607.75903 1.39408 0.01394 0.00885 0.00009
2606.79492 1.39366 0.01394 0.00878 0.00009
2605.83105 1.39314 0.01393 0.00874 0.00009
2604.86694 1.39291 0.01393 0.00873 0.00009
2603.90308 1.39294 0.01393 0.00875 0.00009
2602.93896 1.39310 0.01393 0.00878 0.00009
2601.97510 1.39309 0.01393 0.00879 0.00009
2601.01099 1.39266 0.01393 0.00877 0.00009
2600.04810 1.39214 0.01392 0.00872 0.00009
2599.08398 1.39191 0.01392 0.00867 0.00009
2598.12012 1.39194 0.01392 0.00864 0.00009
2597.15601 1.39211 0.01392 0.00862 0.00009
2596.19189 1.39209 0.01392 0.00860 0.00009
2595.22803 1.39163 0.01392 0.00859 0.00009
2594.26392 1.39112 0.01391 0.00860 0.00009
2593.30103 1.39103 0.01391 0.00862 0.00009
2592.33691 1.39104 0.01391 0.00867 0.00009
2591.37305 1.39067 0.01391 0.00874 0.00009
2590.40894 1.39015 0.01390 0.00884 0.00009
2589.44507 1.38993 0.01390 0.00897 0.00009
2588.48096 1.38996 0.01390 0.00909 0.00009
2587.51709 1.39002 0.01390 0.00919 0.00009
2586.55298 1.39002 0.01390 0.00923 0.00009
2585.59009 1.38997 0.01390 0.00920 0.00009
2584.62598 1.38997 0.01390 0.00910 0.00009
2583.66211 1.39010 0.01390 0.00895 0.00009
2582.69800 1.39009 0.01390 0.00877 0.00009
2581.73389 1.38964 0.01390 0.00858 0.00009
2580.77002 1.38912 0.01389 0.00839 0.00008
2579.80591 1.38901 0.01389 0.00822 0.00008
2578.84302 1.38903 0.01389 0.00809 0.00008
2577.87891 1.38874 0.01389 0.00802 0.00008
2576.91504 1.38821 0.01388 0.00802 0.00008
2575.95093 1.38769 0.01388 0.00810 0.00008
2574.98706 1.38718 0.01387 0.00823 0.00008
2574.02295 1.38660 0.01387 0.00842 0.00008
2573.05908 1.38611 0.01386 0.00863 0.00009
2572.09497 1.38595 0.01386 0.00885 0.00009
2571.13208 1.38598 0.01386 0.00906 0.00009
2570.16797 1.38598 0.01386 0.00924 0.00009
2569.20410 1.38599 0.01386 0.00938 0.00009
2568.23999 1.38609 0.01386 0.00948 0.00009
2567.27588 1.38608 0.01386 0.00954 0.00010
2566.31201 1.38567 0.01386 0.00957 0.00010
2565.34790 1.38514 0.01385 0.00960 0.00010
2564.38501 1.38494 0.01385 0.00963 0.00010
2563.42090 1.38497 0.01385 0.00967 0.00010
2562.45703 1.38498 0.01385 0.00973 0.00010
2561.49292 1.38499 0.01385 0.00979 0.00010
2560.52905 1.38509 0.01385 0.00987 0.00010
2559.56494 1.38508 0.01385 0.00994 0.00010
2558.60107 1.38467 0.01385 0.01000 0.00010
2557.63696 1.38414 0.01384 0.01005 0.00010
2556.67407 1.38394 0.01384 0.01009 0.00010
2555.70996 1.38397 0.01384 0.01009 0.00010
2554.74609 1.38398 0.01384 0.01004 0.00010
2553.78198 1.38399 0.01384 0.00995 0.00010
2552.81812 1.38409 0.01384 0.00983 0.00010
2551.85400 1.38408 0.01384 0.00968 0.00010
2550.88989 1.38366 0.01384 0.00954 0.00010
2549.92700 1.38313 0.01383 0.00942 0.00009
2548.96289 1.38300 0.01383 0.00934 0.00009
2547.99902 1.38302 0.01383 0.00930 0.00009
2547.03491 1.38277 0.01383 0.00931 0.00009
2546.07104 1.38224 0.01382 0.00935 0.00009
2545.10693 1.38161 0.01382 0.00944 0.00009
2544.14307 1.38111 0.01381 0.00957 0.00010
2543.17896 1.38092 0.01381 0.00974 0.00010
2542.21606 1.38095 0.01381 0.00993 0.00010
2541.25195 1.38109 0.01381 0.01012 0.00010
2540.28809 1.38109 0.01381 0.01031 0.00010
2539.32397 1.38067 0.01381 0.01048 0.00010
2538.36011 1.38015 0.01380 0.01062 0.00011
2537.39600 1.37994 0.01380 0.01072 0.00011
2536.43188 1.37997 0.01380 0.01081 0.00011
2535.46802 1.37999 0.01380 0.01086 0.00011
2534.50488 1.37999 0.01380 0.01090 0.00011
2533.54102 1.38008 0.01380 0.01093 0.00011
2532.57690 1.38008 0.01380 0.01096 0.00011
2531.61304 1.37968 0.01380 0.01099 0.00011
2530.64893 1.37915 0.01379 0.01103 0.00011
2529.68506 1.37894 0.01379 0.01109 0.00011
2528.72095 1.37897 0.01379 0.01115 0.00011
2527.75806 1.37899 0.01379 0.01123 0.00011
2526.79395 1.37899 0.01379 0.01131 0.00011
2525.83008 1.37908 0.01379 0.01140 0.00011
2524.86597 1.37908 0.01379 0.01149 0.00011
2523.90210 1.37868 0.01379 0.01159 0.00012
2522.93799 1.37815 0.01378 0.01167 0.00012
2521.97412 1.37794 0.01378 0.01172 0.00012
2521.01001 1.37797 0.01378 0.01175 0.00012
2520.04712 1.37799 0.01378 0.01178 0.00012
2519.08301 1.37799 0.01378 0.01181 0.00012
2518.11890 1.37808 0.01378 0.01185 0.00012
2517.15503 1.37808 0.01378 0.01190 0.00012
2516.19092 1.37768 0.01378 0.01195 0.00012
2515.22705 1.37715 0.01377 0.01201 0.00012
2514.26294 1.37694 0.01377 0.01207 0.00012
2513.30005 1.37697 0.01377 0.01215 0.00012
2512.33594 1.37699 0.01377 0.01223 0.00012
2511.37207 1.37699 0.01377 0.01232 0.00012
2510.40796 1.37708 0.01377 0.01239 0.00012
2509.44409 1.37708 0.01377 0.01245 0.00012
2508.47998 1.37669 0.01377 0.01247 0.00012
2507.51611 1.37616 0.01376 0.01247 0.00012
2506.55200 1.37591 0.01376 0.01246 0.00012
2505.58911 1.37594 0.01376 0.01246 0.00012
2504.62500 1.37609 0.01376 0.01248 0.00012
2503.66089 1.37610 0.01376 0.01253 0.00013
2502.69702 1.37569 0.01376 0.01261 0.00013
2501.73291 1.37516 0.01375 0.01270 0.00013
2500.76904 1.37493 0.01375 0.01278 0.00013
2499.80493 1.37496 0.01375 0.01286 0.00013
2498.84204 1.37502 0.01375 0.01294 0.00013
2497.87793 1.37502 0.01375 0.01303 0.00013
2496.91406 1.37497 0.01375 0.01310 0.00013
2495.94995 1.37497 0.01375 0.01315 0.00013
2494.98608 1.37509 0.01375 0.01316 0.00013
2494.02197 1.37509 0.01375 0.01313 0.00013
2493.05811 1.37467 0.01375 0.01310 0.00013
2492.09399 1.37414 0.01374 0.01306 0.00013
2491.13110 1.37401 0.01374 0.01306 0.00013
2490.16699 1.37404 0.01374 0.01311 0.00013
2489.20288 1.37370 0.01374 0.01321 0.00013
2488.23901 1.37317 0.01373 0.01335 0.00013
2487.27490 1.37292 0.01373 0.01351 0.00014
2486.31104 1.37295 0.01373 0.01366 0.00014
2485.34692 1.37302 0.01373 0.01379 0.00014
2484.38403 1.37302 0.01373 0.01390 0.00014
2483.41992 1.37297 0.01373 0.01400 0.00014
2482.45605 1.37297 0.01373 0.01409 0.00014
2481.49194 1.37308 0.01373 0.01416 0.00014
2480.52808 1.37309 0.01373 0.01422 0.00014
2479.56396 1.37269 0.01373 0.01424 0.00014
2478.60010 1.37216 0.01372 0.01427 0.00014
2477.63599 1.37193 0.01372 0.01431 0.00014
2476.67310 1.37196 0.01372 0.01439 0.00014
2475.70898 1.37201 0.01372 0.01451 0.00015
2474.74512 1.37201 0.01372 0.01465 0.00015
2473.78101 1.37200 0.01372 0.01482 0.00015
2472.81689 1.37200 0.01372 0.01498 0.00015
2471.85303 1.37200 0.01372 0.01512 0.00015
2470.88892 1.37200 0.01372 0.01521 0.00015
2469.92603 1.37201 0.01372 0.01525 0.00015
2468.96191 1.37201 0.01372 0.01524 0.00015
2467.99805 1.37198 0.01372 0.01521 0.00015
2467.03394 1.37198 0.01372 0.01516 0.00015
2466.07007 1.37208 0.01372 0.01510 0.00015
2465.10596 1.37209 0.01372 0.01504 0.00015
2464.14209 1.37170 0.01372 0.01497 0.00015
2463.17798 1.37117 0.01371 0.01493 0.00015
2462.21509 1.37093 0.01371 0.01493 0.00015
2461.25098 1.37096 0.01371 0.01497 0.00015
2460.28711 1.37101 0.01371 0.01505 0.00015
2459.32300 1.37101 0.01371 0.01514 0.00015
2458.35889 1.37099 0.01371 0.01524 0.00015
2457.39502 1.37100 0.01371 0.01533 0.00015
2456.43091 1.37101 0.01371 0.01540 0.00015
2455.46802 1.37101 0.01371 0.01546 0.00015
2454.50391 1.37098 0.01371 0.01548 0.00015
2453.54004 1.37098 0.01371 0.01546 0.00015
2452.57593 1.37108 0.01371 0.01542 0.00015
2451.61206 1.37109 0.01371 0.01534 0.00015
2450.64795 1.37071 0.01371 0.01523 0.00015
2449.68408 1.37017 0.01370 0.01508 0.00015
2448.71997 1.36991 0.01370 0.01493 0.00015
2447.75708 1.36994 0.01370 0.01478 0.00015
2446.79297 1.37007 0.01370 0.01466 0.00015
2445.82910 1.37007 0.01370 0.01456 0.00015
2444.86499 1.36979 0.01370 0.01449 0.00014
2443.90088 1.36926 0.01369 0.01445 0.00014
2442.93701 1.36862 0.01369 0.01446 0.00014
2441.97290 1.36810 0.01368 0.01451 0.00015
2441.01001 1.36802 0.01368 0.01463 0.00015
2440.04590 1.36806 0.01368 0.01480 0.00015
2439.08203 1.36772 0.01368 0.01503 0.00015
2438.11792 1.36718 0.01367 0.01527 0.00015
2437.15405 1.36692 0.01367 0.01550 0.00015
2436.18994 1.36695 0.01367 0.01571 0.00016
2435.22607 1.36701 0.01367 0.01588 0.00016
2434.26196 1.36701 0.01367 0.01602 0.00016
2433.29907 1.36700 0.01367 0.01613 0.00016
2432.33496 1.36700 0.01367 0.01622 0.00016
2431.37109 1.36700 0.01367 0.01629 0.00016
2430.40698 1.36700 0.01367 0.01634 0.00016
2429.44312 1.36700 0.01367 0.01637 0.00016
2428.47900 1.36701 0.01367 0.01638 0.00016
2427.51489 1.36698 0.01367 0.01637 0.00016
2426.55200 1.36698 0.01367 0.01636 0.00016
2425.58789 1.36708 0.01367 0.01636 0.00016
2424.62402 1.36709 0.01367 0.01635 0.00016
2423.65991 1.36672 0.01367 0.01634 0.00016
2422.69604 1.36618 0.01366 0.01632 0.00016
2421.73193 1.36590 0.01366 0.01629 0.00016
2420.76807 1.36593 0.01366 0.01624 0.00016
2419.80396 1.36609 0.01366 0.01619 0.00016
2418.84106 1.36611 0.01366 0.01613 0.00016
2417.87695 1.36569 0.01366 0.01609 0.00016
2416.91309 1.36515 0.01365 0.01609 0.00016
2415.94897 1.36500 0.01365 0.01614 0.00016
2414.98511 1.36505 0.01365 0.01624 0.00016
2414.02100 1.36473 0.01365 0.01639 0.00016
2413.05688 1.36419 0.01364 0.01657 0.00017
2412.09302 1.36392 0.01364 0.01676 0.00017
2411.12988 1.36395 0.01364 0.01693 0.00017
2410.16602 1.36401 0.01364 0.01709 0.00017
2409.20190 1.36401 0.01364 0.01721 0.00017
2408.23804 1.36400 0.01364 0.01731 0.00017
2407.27393 1.36400 0.01364 0.01738 0.00017
2406.31006 1.36399 0.01364 0.01741 0.00017
2405.34595 1.36398 0.01364 0.01741 0.00017
2404.38306 1.36405 0.01364 0.01735 0.00017
2403.41895 1.36407 0.01364 0.01728 0.00017
2402.45508 1.36380 0.01364 0.01722 0.00017
2401.49097 1.36327 0.01363 0.01721 0.00017
2400.52710 1.36265 0.01363 0.01727 0.00017
2399.56299 1.36213 0.01362 0.01740 0.00017
2398.59912 1.36194 0.01362 0.01759 0.00018
2397.63501 1.36197 0.01362 0.01782 0.00018
2396.67212 1.36201 0.01362 0.01808 0.00018
2395.70801 1.36201 0.01362 0.01834 0.00018
2394.74390 1.36200 0.01362 0.01860 0.00019
2393.78003 1.36200 0.01362 0.01885 0.00019
2392.81592 1.36200 0.01362 0.01908 0.00019
2391.85205 1.36200 0.01362 0.01929 0.00019
2390.88794 1.36200 0.01362 0.01946 0.00019
2389.92505 1.36200 0.01362 0.01958 0.00020
2388.96094 1.36200 0.01362 0.01966 0.00020
2387.99707 1.36200 0.01362 0.01971 0.00020
2387.03296 1.36200 0.01362 0.01975 0.00020
2386.06909 1.36201 0.01362 0.01979 0.00020
2385.10498 1.36198 0.01362 0.01981 0.00020
2384.14111 1.36198 0.01362 0.01982 0.00020
2383.17700 1.36207 0.01362 0.01981 0.00020
2382.21411 1.36209 0.01362 0.01979 0.00020
2381.25000 1.36173 0.01362 0.01974 0.00020
2380.28589 1.36119 0.01361 0.01970 0.00020
2379.32202 1.36090 0.01361 0.01966 0.00020
2378.35791 1.36093 0.01361 0.01965 0.00020
2377.39404 1.36109 0.01361 0.01968 0.00020
2376.42993 1.36111 0.01361 0.01975 0.00020
2375.46704 1.36071 0.01361 0.01985 0.00020
2374.50293 1.36016 0.01360 0.02000 0.00020
2373.53906 1.35999 0.01360 0.02019 0.00020
2372.57495 1.36004 0.01360 0.02043 0.00020
2371.61108 1.35976 0.01360 0.02071 0.00021
2370.64697 1.35922 0.01359 0.02100 0.00021
2369.68311 1.35885 0.01359 0.02129 0.00021
2368.71899 1.35886 0.01359 0.02157 0.00022
2367.75610 1.35928 0.01359 0.02181 0.00022
2366.79199 1.35982 0.01360 0.02200 0.00022
2365.82788 1.36007 0.01360 0.02214 0.00022
2364.86401 1.36004 0.01360 0.02224 0.00022
2363.89990 1.35999 0.01360 0.02231 0.00022
2362.93604 1.35999 0.01360 0.02235 0.00022
2361.97192 1.36000 0.01360 0.02238 0.00022
2361.00903 1.36000 0.01360 0.02239 0.00022
2360.04492 1.36000 0.01360 0.02238 0.00022
2359.08105 1.36000 0.01360 0.02235 0.00022
2358.11694 1.36001 0.01360 0.02230 0.00022
2357.15308 1.36001 0.01360 0.02224 0.00022
2356.18896 1.35998 0.01360 0.02218 0.00022
2355.22510 1.35998 0.01360 0.02212 0.00022
2354.26099 1.36007 0.01360 0.02208 0.00022
2353.29810 1.36009 0.01360 0.02206 0.00022
2352.33398 1.35974 0.01360 0.02206 0.00022
2351.37012 1.35920 0.01359 0.02206 0.00022
2350.40601 1.35890 0.01359 0.02206 0.00022
2349.44189 1.35893 0.01359 0.02209 0.00022
2348.47803 1.35909 0.01359 0.02215 0.00022
2347.51392 1.35911 0.01359 0.02224 0.00022
2346.55103 1.35873 0.01359 0.02237 0.00022
2345.58691 1.35819 0.01358 0.02251 0.00023
2344.62305 1.35792 0.01358 0.02266 0.00023
2343.65894 1.35795 0.01358 0.02281 0.00023
2342.69507 1.35801 0.01358 0.02296 0.00023
2341.73096 1.35801 0.01358 0.02309 0.00023
2340.76709 1.35800 0.01358 0.02322 0.00023
2339.80298 1.35800 0.01358 0.02334 0.00023
2338.84009 1.35798 0.01358 0.02345 0.00023
2337.87598 1.35798 0.01358 0.02356 0.00024
2336.91211 1.35807 0.01358 0.02367 0.00024
2335.94800 1.35809 0.01358 0.02379 0.00024
2334.98389 1.35774 0.01358 0.02392 0.00024
2334.02002 1.35720 0.01357 0.02406 0.00024
2333.05591 1.35692 0.01357 0.02423 0.00024
2332.09302 1.35695 0.01357 0.02442 0.00024
2331.12891 1.35702 0.01357 0.02460 0.00025
2330.16504 1.35701 0.01357 0.02476 0.00025
2329.20093 1.35700 0.01357 0.02490 0.00025
2328.23706 1.35700 0.01357 0.02502 0.00025
2327.27295 1.35700 0.01357 0.02510 0.00025
2326.30908 1.35700 0.01357 0.02516 0.00025
2325.34497 1.35700 0.01357 0.02518 0.00025
2324.38208 1.35701 0.01357 0.02517 0.00025
2323.41797 1.35698 0.01357 0.02512 0.00025
2322.45410 1.35697 0.01357 0.02508 0.00025
2321.48999 1.35707 0.01357 0.02506 0.00025
2320.52588 1.35710 0.01357 0.02509 0.00025
2319.56201 1.35675 0.01357 0.02517 0.00025
2318.59790 1.35620 0.01356 0.02532 0.00025
2317.63501 1.35592 0.01356 0.02552 0.00026
2316.67090 1.35595 0.01356 0.02577 0.00026
2315.70703 1.35601 0.01356 0.02603 0.00026
2314.74292 1.35601 0.01356 0.02630 0.00026
2313.77905 1.35601 0.01356 0.02655 0.00027
2312.81494 1.35602 0.01356 0.02677 0.00027
2311.85107 1.35594 0.01356 0.02697 0.00027
2310.88696 1.35591 0.01356 0.02712 0.00027
2309.92407 1.35623 0.01356 0.02723 0.00027
2308.95996 1.35677 0.01357 0.02727 0.00027
2307.99609 1.35714 0.01357 0.02727 0.00027
2307.03198 1.35715 0.01357 0.02725 0.00027
2306.06812 1.35674 0.01357 0.02724 0.00027
2305.10400 1.35619 0.01356 0.02726 0.00027
2304.13989 1.35593 0.01356 0.02732 0.00027
2303.17700 1.35595 0.01356 0.02742 0.00027
2302.21289 1.35601 0.01356 0.02757 0.00028
2301.24902 1.35601 0.01356 0.02776 0.00028
2300.28491 1.35600 0.01356 0.02800 0.00028
2299.32104 1.35600 0.01356 0.02826 0.00028
2298.35693 1.35600 0.01356 0.02855 0.00029
2297.39307 1.35599 0.01356 0.02884 0.00029
2296.42896 1.35602 0.01356 0.02912 0.00029
2295.46606 1.35603 0.01356 0.02936 0.00029
2294.50195 1.35593 0.01356 0.02958 0.00030
2293.53809 1.35590 0.01356 0.02975 0.00030
2292.57397 1.35624 0.01356 0.02986 0.00030
2291.61011 1.35679 0.01357 0.02992 0.00030
2290.64600 1.35708 0.01357 0.02995 0.00030
2289.68188 1.35705 0.01357 0.02995 0.00030
2288.71802 1.35698 0.01357 0.02994 0.00030
2287.75488 1.35699 0.01357 0.02993 0.00030
2286.79102 1.35700 0.01357 0.02993 0.00030
2285.82690 1.35700 0.01357 0.02994 0.00030
2284.86304 1.35700 0.01357 0.02997 0.00030
2283.89893 1.35700 0.01357 0.03003 0.00030
2282.93506 1.35700 0.01357 0.03014 0.00030
2281.97095 1.35700 0.01357 0.03028 0.00030
2281.00806 1.35700 0.01357 0.03043 0.00030
2280.04395 1.35700 0.01357 0.03059 0.00031
2279.08008 1.35700 0.01357 0.03077 0.00031
2278.11597 1.35700 0.01357 0.03095 0.00031
2277.15210 1.35700 0.01357 0.03109 0.00031
2276.18799 1.35700 0.01357 0.03119 0.00031
2275.22412 1.35700 0.01357 0.03125 0.00031
2274.26001 1.35700 0.01357 0.03129 0.00031
2273.29712 1.35700 0.01357 0.03131 0.00031
2272.33301 1.35700 0.01357 0.03134 0.00031
2271.36890 1.35700 0.01357 0.03138 0.00031
2270.40503 1.35700 0.01357 0.03143 0.00031
2269.44092 1.35700 0.01357 0.03152 0.00032
2268.47705 1.35700 0.01357 0.03163 0.00032
2267.51294 1.35700 0.01357 0.03178 0.00032
2266.55005 1.35699 0.01357 0.03194 0.00032
2265.58594 1.35702 0.01357 0.03211 0.00032
2264.62207 1.35703 0.01357 0.03228 0.00032
2263.65796 1.35694 0.01357 0.03244 0.00032
2262.69409 1.35690 0.01357 0.03258 0.00033
2261.72998 1.35724 0.01357 0.03269 0.00033
2260.76611 1.35779 0.01358 0.03275 0.00033
2259.80200 1.35808 0.01358 0.03276 0.00033
2258.83911 1.35805 0.01358 0.03276 0.00033
2257.87500 1.35798 0.01358 0.03276 0.00033
2256.91089 1.35799 0.01358 0.03279 0.00033
2255.94702 1.35800 0.01358 0.03286 0.00033
2254.98291 1.35800 0.01358 0.03295 0.00033
2254.01904 1.35800 0.01358 0.03307 0.00033
2253.05493 1.35800 0.01358 0.03322 0.00033
2252.09204 1.35800 0.01358 0.03338 0.00033
2251.12793 1.35800 0.01358 0.03355 0.00034
2250.16406 1.35799 0.01358 0.03373 0.00034
2249.19995 1.35799 0.01358 0.03390 0.00034
2248.23608 1.35802 0.01358 0.03408 0.00034
2247.27197 1.35803 0.01358 0.03425 0.00034
2246.30811 1.35793 0.01358 0.03443 0.00034
2245.34399 1.35789 0.01358 0.03459 0.00035
2244.38110 1.35825 0.01358 0.03474 0.00035
2243.41699 1.35881 0.01359 0.03487 0.00035
2242.45288 1.35901 0.01359 0.03501 0.00035
2241.48901 1.35895 0.01359 0.03517 0.00035
2240.52490 1.35923 0.01359 0.03533 0.00035
2239.56104 1.35979 0.01360 0.03547 0.00035
2238.59692 1.36002 0.01360 0.03560 0.00036
2237.63403 1.35995 0.01360 0.03570 0.00036
2236.66992 1.36023 0.01360 0.03579 0.00036
2235.70605 1.36079 0.01361 0.03586 0.00036
2234.74194 1.36102 0.01361 0.03589 0.00036
2233.77808 1.36096 0.01361 0.03588 0.00036
2232.81396 1.36121 0.01361 0.03585 0.00036
2231.85010 1.36176 0.01362 0.03579 0.00036
2230.88599 1.36210 0.01362 0.03571 0.00036
2229.92310 1.36209 0.01362 0.03561 0.00036
2228.95898 1.36192 0.01362 0.03549 0.00035
2227.99512 1.36189 0.01362 0.03537 0.00035
2227.03101 1.36223 0.01362 0.03528 0.00035
2226.06689 1.36278 0.01363 0.03521 0.00035
2225.10303 1.36307 0.01363 0.03516 0.00035
2224.13892 1.36305 0.01363 0.03514 0.00035
2223.17603 1.36300 0.01363 0.03513 0.00035
2222.21191 1.36301 0.01363 0.03513 0.00035
2221.24805 1.36294 0.01363 0.03515 0.00035
2220.28394 1.36290 0.01363 0.03518 0.00035
2219.32007 1.36324 0.01363 0.03517 0.00035
2218.35596 1.36380 0.01364 0.03511 0.00035
2217.39209 1.36402 0.01364 0.03500 0.00035
2216.42798 1.36396 0.01364 0.03485 0.00035
2215.46509 1.36421 0.01364 0.03467 0.00035
2214.50098 1.36476 0.01365 0.03448 0.00034
2213.53711 1.36508 0.01365 0.03429 0.00034
2212.57300 1.36506 0.01365 0.03410 0.00034
2211.60889 1.36498 0.01365 0.03393 0.00034
2210.64502 1.36499 0.01365 0.03377 0.00034
2209.68091 1.36500 0.01365 0.03363 0.00034
2208.71802 1.36500 0.01365 0.03351 0.00034
2207.75391 1.36501 0.01365 0.03340 0.00033
2206.79004 1.36503 0.01365 0.03331 0.00033
2205.82593 1.36494 0.01365 0.03324 0.00033
2204.86206 1.36490 0.01365 0.03318 0.00033
2203.89795 1.36522 0.01365 0.03310 0.00033
2202.93408 1.36577 0.01366 0.03299 0.00033
2201.96997 1.36608 0.01366 0.03287 0.00033
2201.00708 1.36606 0.01366 0.03275 0.00033
2200.04297 1.36598 0.01366 0.03264 0.00033
2199.07910 1.36599 0.01366 0.03253 0.00033
2198.11499 1.36600 0.01366 0.03243 0.00032
2197.15088 1.36600 0.01366 0.03234 0.00032
2196.18701 1.36601 0.01366 0.03222 0.00032
2195.22290 1.36603 0.01366 0.03210 0.00032
2194.26001 1.36594 0.01366 0.03196 0.00032
2193.29590 1.36590 0.01366 0.03182 0.00032
2192.33203 1.36622 0.01366 0.03168 0.00032
2191.36792 1.36677 0.01367 0.03155 0.00032
2190.40405 1.36708 0.01367 0.03142 0.00031
2189.43994 1.36706 0.01367 0.03129 0.00031
2188.47607 1.36698 0.01367 0.03116 0.00031
2187.51196 1.36698 0.01367 0.03102 0.00031
2186.54907 1.36700 0.01367 0.03089 0.00031
2185.58496 1.36700 0.01367 0.03076 0.00031
2184.62109 1.36700 0.01367 0.03065 0.00031
2183.65698 1.36700 0.01367 0.03054 0.00031
2182.69312 1.36700 0.01367 0.03045 0.00030
2181.72900 1.36700 0.01367 0.03036 0.00030
2180.76489 1.36700 0.01367 0.03027 0.00030
2179.80200 1.36699 0.01367 0.03018 0.00030
2178.83789 1.36702 0.01367 0.03010 0.00030
2177.87402 1.36703 0.01367 0.03003 0.00030
2176.90991 1.36694 0.01367 0.02993 0.00030
2175.94604 1.36690 0.01367 0.02981 0.00030
2174.98193 1.36721 0.01367 0.02965 0.00030
2174.01807 1.36776 0.01368 0.02945 0.00029
2173.05396 1.36808 0.01368 0.02923 0.00029
2172.09106 1.36806 0.01368 0.02900 0.00029
2171.12695 1.36798 0.01368 0.02878 0.00029
2170.16309 1.36798 0.01368 0.02857 0.00029
2169.19897 1.36800 0.01368 0.02835 0.00028
2168.23511 1.36800 0.01368 0.02813 0.00028
2167.27100 1.36800 0.01368 0.02793 0.00028
2166.30688 1.36800 0.01368 0.02776 0.00028
2165.34302 1.36800 0.01368 0.02761 0.00028
2164.37988 1.36800 0.01368 0.02748 0.00027
2163.41602 1.36800 0.01368 0.02735 0.00027
2162.45190 1.36800 0.01368 0.02722 0.00027
2161.48804 1.36800 0.01368 0.02704 0.00027
2160.52393 1.36800 0.01368 0.02683 0.00027
2159.56006 1.36800 0.01368 0.02657 0.00027
2158.59595 1.36801 0.01368 0.02630 0.00026
2157.63306 1.36799 0.01368 0.02604 0.00026
2156.66895 1.36797 0.01368 0.02581 0.00026
2155.70508 1.36806 0.01368 0.02561 0.00026
2154.74097 1.36810 0.01368 0.02544 0.00025
2153.77710 1.36779 0.01368 0.02528 0.00025
2152.81299 1.36724 0.01367 0.02512 0.00025
2151.84912 1.36692 0.01367 0.02497 0.00025
2150.88501 1.36694 0.01367 0.02484 0.00025
2149.92212 1.36702 0.01367 0.02473 0.00025
2148.95801 1.36702 0.01367 0.02464 0.00025
2147.99390 1.36699 0.01367 0.02455 0.00025
2147.03003 1.36699 0.01367 0.02444 0.00024
2146.06592 1.36701 0.01367 0.02430 0.00024
2145.10205 1.36701 0.01367 0.02413 0.00024
2144.13794 1.36699 0.01367 0.02394 0.00024
2143.17505 1.36697 0.01367 0.02376 0.00024
2142.21094 1.36706 0.01367 0.02359 0.00024
2141.24707 1.36710 0.01367 0.02344 0.00023
2140.28296 1.36680 0.01367 0.02330 0.00023
2139.31909 1.36624 0.01366 0.02317 0.00023
2138.35498 1.36592 0.01366 0.02303 0.00023
2137.39111 1.36594 0.01366 0.02288 0.00023
2136.42700 1.36602 0.01366 0.02272 0.00023
2135.46411 1.36602 0.01366 0.02257 0.00023
2134.50000 1.36598 0.01366 0.02243 0.00022
2133.53589 1.36597 0.01366 0.02232 0.00022
2132.57202 1.36605 0.01366 0.02221 0.00022
2131.60791 1.36610 0.01366 0.02210 0.00022
2130.64404 1.36580 0.01366 0.02197 0.00022
2129.67993 1.36525 0.01365 0.02184 0.00022
2128.71704 1.36492 0.01365 0.02172 0.00022
2127.75293 1.36494 0.01365 0.02161 0.00022
2126.78906 1.36502 0.01365 0.02151 0.00022
2125.82495 1.36501 0.01365 0.02142 0.00021
2124.86108 1.36500 0.01365 0.02133 0.00021
2123.89697 1.36500 0.01365 0.02123 0.00021
2122.93311 1.36499 0.01365 0.02112 0.00021
2121.96899 1.36497 0.01365 0.02100 0.00021
2121.00610 1.36505 0.01365 0.02086 0.00021
2120.04199 1.36510 0.01365 0.02071 0.00021
2119.07788 1.36480 0.01365 0.02056 0.00021
2118.11401 1.36425 0.01364 0.02041 0.00020
2117.14990 1.36393 0.01364 0.02029 0.00020
2116.18604 1.36395 0.01364 0.02017 0.00020
2115.22192 1.36400 0.01364 0.02004 0.00020
2114.25903 1.36399 0.01364 0.01991 0.00020
2113.29492 1.36405 0.01364 0.01978 0.00020
2112.33105 1.36410 0.01364 0.01966 0.00020
2111.36694 1.36380 0.01364 0.01955 0.00020
2110.40308 1.36325 0.01363 0.01945 0.00019
2109.43896 1.36292 0.01363 0.01934 0.00019
2108.47510 1.36295 0.01363 0.01922 0.00019
2107.51099 1.36300 0.01363 0.01910 0.00019
2106.54810 1.36299 0.01363 0.01899 0.00019
2105.58398 1.36305 0.01363 0.01888 0.00019
2104.62012 1.36310 0.01363 0.01877 0.00019
2103.65601 1.36281 0.01363 0.01869 0.00019
2102.69189 1.36226 0.01362 0.01863 0.00019
2101.72803 1.36191 0.01362 0.01861 0.00019
2100.76392 1.36191 0.01362 0.01860 0.00019
2099.80103 1.36207 0.01362 0.01859 0.00019
2098.83691 1.36212 0.01362 0.01856 0.00019
2097.87305 1.36180 0.01362 0.01851 0.00019
2096.90894 1.36125 0.01361 0.01847 0.00018
2095.94507 1.36092 0.01361 0.01842 0.00018
2094.98096 1.36094 0.01361 0.01838 0.00018
2094.01709 1.36102 0.01361 0.01833 0.00018
2093.05298 1.36102 0.01361 0.01829 0.00018
2092.09009 1.36100 0.01361 0.01826 0.00018
2091.12598 1.36100 0.01361 0.01825 0.00018
2090.16211 1.36100 0.01361 0.01823 0.00018
2089.19800 1.36100 0.01361 0.01821 0.00018
2088.23389 1.36100 0.01361 0.01818 0.00018
2087.27002 1.36101 0.01361 0.01814 0.00018
2086.30591 1.36099 0.01361 0.01809 0.00018
2085.34302 1.36097 0.01361 0.01801 0.00018
2084.37891 1.36105 0.01361 0.01791 0.00018
2083.41504 1.36110 0.01361 0.01779 0.00018
2082.45093 1.36082 0.01361 0.01763 0.00018
2081.48706 1.36026 0.01360 0.01745 0.00017
2080.52295 1.35991 0.01360 0.01726 0.00017
2079.55908 1.35991 0.01360 0.01706 0.00017
2078.59497 1.36007 0.01360 0.01687 0.00017
2077.63208 1.36013 0.01360 0.01671 0.00017
2076.66797 1.35980 0.01360 0.01658 0.00017
2075.70410 1.35923 0.01359 0.01650 0.00016
2074.73999 1.35897 0.01359 0.01646 0.00016
2073.77588 1.35904 0.01359 0.01645 0.00016
2072.81201 1.35883 0.01359 0.01648 0.00016
2071.84790 1.35827 0.01358 0.01655 0.00017
2070.88501 1.35792 0.01358 0.01665 0.00017
2069.92090 1.35793 0.01358 0.01677 0.00017
2068.95703 1.35802 0.01358 0.01687 0.00017
2067.99292 1.35802 0.01358 0.01696 0.00017
2067.02905 1.35799 0.01358 0.01702 0.00017
2066.06494 1.35800 0.01358 0.01702 0.00017
2065.10107 1.35800 0.01358 0.01697 0.00017
2064.13696 1.35800 0.01358 0.01688 0.00017
2063.17407 1.35800 0.01358 0.01675 0.00017
2062.20996 1.35801 0.01358 0.01660 0.00017
2061.24609 1.35799 0.01358 0.01641 0.00016
2060.28198 1.35797 0.01358 0.01621 0.00016
2059.31812 1.35805 0.01358 0.01601 0.00016
2058.35400 1.35810 0.01358 0.01584 0.00016
2057.38989 1.35782 0.01358 0.01569 0.00016
2056.42700 1.35727 0.01357 0.01557 0.00016
2055.46289 1.35691 0.01357 0.01545 0.00015
2054.49902 1.35691 0.01357 0.01535 0.00015
2053.53491 1.35707 0.01357 0.01525 0.00015
2052.57104 1.35712 0.01357 0.01518 0.00015
2051.60693 1.35682 0.01357 0.01513 0.00015
2050.64307 1.35626 0.01356 0.01512 0.00015
2049.67896 1.35592 0.01356 0.01514 0.00015
2048.71606 1.35594 0.01356 0.01520 0.00015
2047.75195 1.35602 0.01356 0.01527 0.00015
2046.78796 1.35602 0.01356 0.01532 0.00015
2045.82397 1.35599 0.01356 0.01536 0.00015
2044.85999 1.35599 0.01356 0.01538 0.00015
2043.89600 1.35600 0.01356 0.01537 0.00015
2042.93201 1.35601 0.01356 0.01534 0.00015
2041.96802 1.35599 0.01356 0.01525 0.00015
2041.00403 1.35597 0.01356 0.01510 0.00015
2040.04004 1.35605 0.01356 0.01491 0.00015
2039.07605 1.35611 0.01356 0.01468 0.00015
2038.11206 1.35582 0.01356 0.01443 0.00014
2037.14795 1.35525 0.01355 0.01416 0.00014
2036.18396 1.35496 0.01355 0.01392 0.00014
2035.21997 1.35501 0.01355 0.01370 0.00014
2034.25598 1.35489 0.01355 0.01352 0.00014
2033.29199 1.35439 0.01354 0.01338 0.00013
2032.32800 1.35373 0.01354 0.01327 0.00013
2031.36401 1.35317 0.01353 0.01320 0.00013
2030.40002 1.35299 0.01353 0.01318 0.00013
2029.43604 1.35305 0.01353 0.01322 0.00013
2028.47205 1.35284 0.01353 0.01330 0.00013
2027.50806 1.35229 0.01352 0.01342 0.00013
2026.54395 1.35190 0.01352 0.01356 0.00014
2025.57996 1.35189 0.01352 0.01371 0.00014
2024.61597 1.35208 0.01352 0.01387 0.00014
2023.65198 1.35216 0.01352 0.01402 0.00014
2022.68799 1.35176 0.01352 0.01416 0.00014
2021.72400 1.35113 0.01351 0.01428 0.00014
2020.76001 1.35114 0.01351 0.01435 0.00014
2019.79602 1.35177 0.01352 0.01437 0.00014
2018.83203 1.35192 0.01352 0.01434 0.00014
2017.86804 1.35135 0.01351 0.01427 0.00014
2016.90405 1.35090 0.01351 0.01417 0.00014
2015.93994 1.35091 0.01351 0.01405 0.00014
2014.97595 1.35103 0.01351 0.01394 0.00014
2014.01196 1.35103 0.01351 0.01384 0.00014
2013.04797 1.35098 0.01351 0.01376 0.00014
2012.08398 1.35097 0.01351 0.01370 0.00014
2011.12000 1.35105 0.01351 0.01365 0.00014
2010.15601 1.35110 0.01351 0.01360 0.00014
2009.19202 1.35083 0.01351 0.01355 0.00014
2008.22803 1.35028 0.01350 0.01350 0.00013
2007.26404 1.34991 0.01350 0.01345 0.00013
2006.30005 1.34991 0.01350 0.01339 0.00013
2005.33606 1.35007 0.01350 0.01332 0.00013
2004.37195 1.35013 0.01350 0.01322 0.00013
2003.40796 1.34981 0.01350 0.01310 0.00013
2002.44397 1.34924 0.01349 0.01298 0.00013
2001.47998 1.34897 0.01349 0.01287 0.00013
2000.51599 1.34905 0.01349 0.01277 0.00013
1999.55200 1.34884 0.01349 0.01269 0.00013
1998.58801 1.34826 0.01348 0.01265 0.00013
1997.62402 1.34796 0.01348 0.01264 0.00013
1996.66003 1.34803 0.01348 0.01265 0.00013
1995.69604 1.34786 0.01348 0.01267 0.00013
1994.73206 1.34730 0.01347 0.01268 0.00013
1993.76794 1.34691 0.01347 0.01270 0.00013
1992.80396 1.34690 0.01347 0.01274 0.00013
1991.83997 1.34707 0.01347 0.01279 0.00013
1990.87598 1.34712 0.01347 0.01286 0.00013
1989.91199 1.34682 0.01347 0.01292 0.00013
1988.94800 1.34627 0.01346 0.01297 0.00013
1987.98401 1.34593 0.01346 0.01300 0.00013
1987.02002 1.34594 0.01346 0.01302 0.00013
1986.05603 1.34601 0.01346 0.01305 0.00013
1985.09204 1.34599 0.01346 0.01309 0.00013
1984.12805 1.34604 0.01346 0.01314 0.00013
1983.16394 1.34610 0.01346 0.01318 0.00013
1982.19995 1.34584 0.01346 0.01321 0.00013
1981.23596 1.34529 0.01345 0.01321 0.00013
1980.27197 1.34491 0.01345 0.01319 0.00013
1979.30798 1.34490 0.01345 0.01316 0.00013
1978.34399 1.34507 0.01345 0.01313 0.00013
1977.38000 1.34513 0.01345 0.01314 0.00013
1976.41602 1.34482 0.01345 0.01316 0.00013
1975.45203 1.34424 0.01344 0.01320 0.00013
1974.48804 1.34397 0.01344 0.01325 0.00013
1973.52405 1.34404 0.01344 0.01329 0.00013
1972.56006 1.34385 0.01344 0.01334 0.00013
1971.59595 1.34329 0.01343 0.01340 0.00013
1970.63196 1.34292 0.01343 0.01347 0.00013
1969.66797 1.34294 0.01343 0.01354 0.00014
1968.70398 1.34301 0.01343 0.01362 0.00014
1967.73999 1.34299 0.01343 0.01368 0.00014
1966.77600 1.34304 0.01343 0.01374 0.00014
1965.81201 1.34310 0.01343 0.01379 0.00014
1964.84900 1.34283 0.01343 0.01384 0.00014
1963.88501 1.34228 0.01342 0.01389 0.00014
1962.92102 1.34193 0.01342 0.01394 0.00014
1961.95703 1.34194 0.01342 0.01402 0.00014
1960.99304 1.34201 0.01342 0.01409 0.00014
1960.02905 1.34199 0.01342 0.01415 0.00014
1959.06494 1.34204 0.01342 0.01421 0.00014
1958.10095 1.34210 0.01342 0.01427 0.00014
1957.13696 1.34184 0.01342 0.01432 0.00014
1956.17297 1.34128 0.01341 0.01437 0.00014
1955.20898 1.34092 0.01341 0.01441 0.00014
1954.24500 1.34093 0.01341 0.01445 0.00014
1953.28101 1.34102 0.01341 0.01449 0.00014
1952.31702 1.34102 0.01341 0.01454 0.00015
1951.35303 1.34099 0.01341 0.01459 0.00015
1950.38904 1.34099 0.01341 0.01465 0.00015
1949.42505 1.34100 0.01341 0.01471 0.00015
1948.46106 1.34101 0.01341 0.01477 0.00015
1947.49695 1.34099 0.01341 0.01480 0.00015
1946.53296 1.34097 0.01341 0.01481 0.00015
1945.56897 1.34104 0.01341 0.01479 0.00015
1944.60498 1.34110 0.01341 0.01475 0.00015
1943.64099 1.34084 0.01341 0.01468 0.00015
1942.67700 1.34029 0.01340 0.01460 0.00015
1941.71301 1.33991 0.01340 0.01452 0.00015
1940.74902 1.33990 0.01340 0.01443 0.00014
1939.78503 1.34006 0.01340 0.01434 0.00014
1938.82104 1.34012 0.01340 0.01425 0.00014
1937.85706 1.33984 0.01340 0.01419 0.00014
1936.89294 1.33929 0.01339 0.01414 0.00014
1935.92896 1.33891 0.01339 0.01410 0.00014
1934.96497 1.33890 0.01339 0.01407 0.00014
1934.00098 1.33906 0.01339 0.01404 0.00014
1933.03699 1.33913 0.01339 0.01402 0.00014
1932.07300 1.33883 0.01339 0.01400 0.00014
1931.10901 1.33825 0.01338 0.01397 0.00014
1930.14502 1.33797 0.01338 0.01395 0.00014
1929.18103 1.33805 0.01338 0.01395 0.00014
1928.21704 1.33785 0.01338 0.01397 0.00014
1927.25305 1.33728 0.01337 0.01400 0.00014
1926.28894 1.33696 0.01337 0.01405 0.00014
1925.32495 1.33703 0.01337 0.01411 0.00014
1924.36096 1.33686 0.01337 0.01418 0.00014
1923.39697 1.33630 0.01336 0.01427 0.00014
1922.43298 1.33592 0.01336 0.01438 0.00014
1921.46899 1.33593 0.01336 0.01451 0.00015
1920.50500 1.33601 0.01336 0.01465 0.00015
1919.54102 1.33599 0.01336 0.01480 0.00015
1918.57703 1.33604 0.01336 0.01494 0.00015
1917.61304 1.33610 0.01336 0.01506 0.00015
1916.64905 1.33585 0.01336 0.01516 0.00015
1915.68506 1.33529 0.01335 0.01525 0.00015
1914.72095 1.33492 0.01335 0.01533 0.00015
1913.75696 1.33493 0.01335 0.01539 0.00015
1912.79297 1.33502 0.01335 0.01543 0.00015
1911.82898 1.33503 0.01335 0.01541 0.00015
1910.86499 1.33498 0.01335 0.01534 0.00015
1909.90100 1.33496 0.01335 0.01523 0.00015
1908.93701 1.33505 0.01335 0.01508 0.00015
1907.97302 1.33511 0.01335 0.01492 0.00015
1907.00903 1.33483 0.01335 0.01478 0.00015
1906.04504 1.33426 0.01334 0.01468 0.00015
1905.08105 1.33397 0.01334 0.01461 0.00015
1904.11694 1.33404 0.01334 0.01459 0.00015
1903.15295 1.33386 0.01334 0.01460 0.00015
1902.18896 1.33328 0.01333 0.01463 0.00015
1901.22498 1.33296 0.01333 0.01471 0.00015
1900.26099 1.33303 0.01333 0.01483 0.00015
1899.29700 1.33287 0.01333 0.01497 0.00015
1898.33301 1.33232 0.01332 0.01511 0.00015
1897.36902 1.33191 0.01332 0.01526 0.00015
1896.40503 1.33190 0.01332 0.01540 0.00015
1895.44104 1.33206 0.01332 0.01550 0.00015
1894.47705 1.33213 0.01332 0.01556 0.00016
1893.51294 1.33183 0.01332 0.01559 0.00016
1892.54895 1.33126 0.01331 0.01560 0.00016
1891.58496 1.33097 0.01331 0.01564 0.00016
1890.62097 1.33104 0.01331 0.01570 0.00016
1889.65698 1.33087 0.01331 0.01578 0.00016
1888.69299 1.33032 0.01330 0.01588 0.00016
1887.72900 1.32991 0.01330 0.01599 0.00016
1886.76501 1.32989 0.01330 0.01609 0.00016
1885.80103 1.33006 0.01330 0.01618 0.00016
1884.83704 1.33013 0.01330 0.01628 0.00016
1883.87305 1.32984 0.01330 0.01636 0.00016
1882.90906 1.32926 0.01329 0.01643 0.00016
1881.94495 1.32897 0.01329 0.01651 0.00017
1880.98096 1.32904 0.01329 0.01660 0.00017
1880.01697 1.32886 0.01329 0.01669 0.00017
1879.05298 1.32829 0.01328 0.01680 0.00017
1878.08899 1.32796 0.01328 0.01691 0.00017
1877.12500 1.32803 0.01328 0.01706 0.00017
1876.16101 1.32787 0.01328 0.01727 0.00017
1875.19800 1.32732 0.01327 0.01754 0.00018
1874.23401 1.32692 0.01327 0.01784 0.00018
1873.27002 1.32691 0.01327 0.01815 0.00018
1872.30603 1.32703 0.01327 0.01845 0.00018
1871.34204 1.32706 0.01327 0.01871 0.00019
1870.37805 1.32695 0.01327 0.01892 0.00019
1869.41394 1.32686 0.01327 0.01906 0.00019
1868.44995 1.32719 0.01327 0.01912 0.00019
1867.48596 1.32781 0.01328 0.01910 0.00019
1866.52197 1.32793 0.01328 0.01903 0.00019
1865.55798 1.32737 0.01327 0.01893 0.00019
1864.59399 1.32690 0.01327 0.01881 0.00019
1863.63000 1.32689 0.01327 0.01869 0.00019
1862.66602 1.32705 0.01327 0.01859 0.00019
1861.70203 1.32710 0.01327 0.01853 0.00019
1860.73804 1.32689 0.01327 0.01854 0.00019
1859.77405 1.32640 0.01326 0.01863 0.00019
1858.81006 1.32579 0.01326 0.01876 0.00019
1857.84595 1.32524 0.01325 0.01892 0.00019
1856.88196 1.32494 0.01325 0.01910 0.00019
1855.91797 1.32492 0.01325 0.01929 0.00019
1854.95398 1.32505 0.01325 0.01948 0.00019
1853.98999 1.32512 0.01325 0.01967 0.00020
1853.02600 1.32485 0.01325 0.01984 0.00020
1852.06201 1.32430 0.01324 0.01999 0.00020
1851.09802 1.32393 0.01324 0.02013 0.00020
1850.13403 1.32393 0.01324 0.02028 0.00020
1849.17004 1.32402 0.01324 0.02044 0.00020
1848.20605 1.32402 0.01324 0.02062 0.00021
1847.24194 1.32399 0.01324 0.02080 0.00021
1846.27795 1.32399 0.01324 0.02099 0.00021
1845.31396 1.32400 0.01324 0.02118 0.00021
1844.34998 1.32401 0.01324 0.02136 0.00021
1843.38599 1.32399 0.01324 0.02149 0.00021
1842.42200 1.32397 0.01324 0.02156 0.00022
1841.45801 1.32404 0.01324 0.02159 0.00022
1840.49402 1.32410 0.01324 0.02159 0.00022
1839.53003 1.32386 0.01324 0.02159 0.00022
1838.56604 1.32331 0.01323 0.02159 0.00022
1837.60205 1.32292 0.01323 0.02159 0.00022
1836.63794 1.32290 0.01323 0.02160 0.00022
1835.67395 1.32306 0.01323 0.02162 0.00022
1834.70996 1.32313 0.01323 0.02167 0.00022
1833.74597 1.32285 0.01323 0.02175 0.00022
1832.78198 1.32230 0.01322 0.02186 0.00022
1831.81799 1.32193 0.01322 0.02198 0.00022
1830.85400 1.32194 0.01322 0.02209 0.00022
1829.89001 1.32201 0.01322 0.02217 0.00022
1828.92603 1.32199 0.01322 0.02222 0.00022
1827.96204 1.32204 0.01322 0.02223 0.00022
1826.99805 1.32211 0.01322 0.02221 0.00022
1826.03406 1.32185 0.01322 0.02217 0.00022
1825.06995 1.32128 0.01321 0.02212 0.00022
1824.10596 1.32097 0.01321 0.02209 0.00022
1823.14197 1.32104 0.01321 0.02207 0.00022
1822.17798 1.32087 0.01321 0.02208 0.00022
1821.21399 1.32030 0.01320 0.02212 0.00022
1820.25000 1.31996 0.01320 0.02221 0.00022
1819.28601 1.32004 0.01320 0.02234 0.00022
1818.32202 1.31987 0.01320 0.02249 0.00022
1817.35803 1.31930 0.01319 0.02265 0.00023
1816.39404 1.31896 0.01319 0.02281 0.00023
1815.43005 1.31904 0.01319 0.02298 0.00023
1814.46594 1.31887 0.01319 0.02311 0.00023
1813.50195 1.31830 0.01318 0.02322 0.00023
1812.53796 1.31796 0.01318 0.02329 0.00023
1811.57397 1.31803 0.01318 0.02336 0.00023
1810.60999 1.31787 0.01318 0.02342 0.00023
1809.64600 1.31731 0.01317 0.02350 0.00023
1808.68201 1.31695 0.01317 0.02359 0.00024
1807.71802 1.31700 0.01317 0.02371 0.00024
1806.75403 1.31692 0.01317 0.02385 0.00024
1805.79004 1.31644 0.01316 0.02403 0.00024
1804.82605 1.31579 0.01316 0.02426 0.00024
1803.86206 1.31524 0.01315 0.02452 0.00025
1802.89795 1.31494 0.01315 0.02483 0.00025
1801.93396 1.31491 0.01315 0.02519 0.00025
1800.96997 1.31506 0.01315 0.02557 0.00026
1800.00598 1.31515 0.01315 0.02598 0.00026
1799.04199 1.31482 0.01315 0.02638 0.00026
1798.07800 1.31420 0.01314 0.02676 0.00027
1797.11401 1.31406 0.01314 0.02711 0.00027
1796.15002 1.31462 0.01315 0.02740 0.00027
1795.18604 1.31509 0.01315 0.02764 0.00028
1794.22205 1.31510 0.01315 0.02784 0.00028
1793.25806 1.31497 0.01315 0.02796 0.00028
1792.29395 1.31495 0.01315 0.02801 0.00028
1791.32996 1.31503 0.01315 0.02799 0.00028
1790.36597 1.31509 0.01315 0.02793 0.00028
1789.40198 1.31489 0.01315 0.02786 0.00028
1788.43799 1.31439 0.01314 0.02780 0.00028
1787.47400 1.31383 0.01314 0.02777 0.00028
1786.51001 1.31335 0.01313 0.02777 0.00028
1785.54700 1.31281 0.01313 0.02781 0.00028
1784.58301 1.31224 0.01312 0.02789 0.00028
1783.61902 1.31197 0.01312 0.02805 0.00028
1782.65503 1.31202 0.01312 0.02830 0.00028
1781.69104 1.31192 0.01312 0.02863 0.00029
1780.72705 1.31144 0.01311 0.02903 0.00029
1779.76294 1.31080 0.01311 0.02949 0.00029
1778.79895 1.31024 0.01310 0.03001 0.00030
1777.83496 1.30995 0.01310 0.03057 0.00031
1776.87097 1.30994 0.01310 0.03113 0.00031
1775.90698 1.31002 0.01310 0.03168 0.00032
1774.94299 1.31004 0.01310 0.03220 0.00032
1773.97900 1.30996 0.01310 0.03268 0.00033
1773.01501 1.30989 0.01310 0.03312 0.00033
1772.05103 1.31013 0.01310 0.03344 0.00033
1771.08704 1.31069 0.01311 0.03362 0.00034
1770.12305 1.31106 0.01311 0.03369 0.00034
1769.15906 1.31105 0.01311 0.03368 0.00034
1768.19495 1.31101 0.01311 0.03364 0.00034
1767.23096 1.31106 0.01311 0.03359 0.00034
1766.26697 1.31091 0.01311 0.03356 0.00034
1765.30298 1.31044 0.01310 0.03355 0.00034
1764.33899 1.30979 0.01310 0.03360 0.00034
1763.37500 1.30921 0.01309 0.03373 0.00034
1762.41101 1.30898 0.01309 0.03392 0.00034
1761.44702 1.30906 0.01309 0.03416 0.00034
1760.48303 1.30887 0.01309 0.03443 0.00034
1759.51904 1.30830 0.01308 0.03472 0.00035
1758.55505 1.30796 0.01308 0.03506 0.00035
1757.59094 1.30803 0.01308 0.03545 0.00035
1756.62695 1.30789 0.01308 0.03584 0.00036
1755.66296 1.30735 0.01307 0.03623 0.00036
1754.69897 1.30692 0.01307 0.03660 0.00037
1753.73499 1.30689 0.01307 0.03696 0.00037
1752.77100 1.30705 0.01307 0.03731 0.00037
1751.80701 1.30713 0.01307 0.03768 0.00038
1750.84302 1.30687 0.01307 0.03804 0.00038
1749.87903 1.30632 0.01306 0.03839 0.00038
1748.91504 1.30592 0.01306 0.03871 0.00039
1747.95105 1.30590 0.01306 0.03900 0.00039
1746.98706 1.30605 0.01306 0.03928 0.00039
1746.02295 1.30613 0.01306 0.03957 0.00040
1745.05896 1.30587 0.01306 0.03992 0.00040
1744.09497 1.30532 0.01305 0.04034 0.00040
1743.13098 1.30493 0.01305 0.04086 0.00041
1742.16699 1.30492 0.01305 0.04148 0.00041
1741.20300 1.30502 0.01305 0.04217 0.00042
1740.23901 1.30504 0.01305 0.04288 0.00043
1739.27502 1.30497 0.01305 0.04356 0.00044
1738.31104 1.30492 0.01305 0.04415 0.00044
1737.34705 1.30509 0.01305 0.04469 0.00045
1736.38306 1.30557 0.01306 0.04516 0.00045
1735.41895 1.30619 0.01306 0.04555 0.00046
1734.45496 1.30676 0.01307 0.04582 0.00046
1733.49097 1.30704 0.01307 0.04592 0.00046
1732.52698 1.30703 0.01307 0.04583 0.00046
1731.56299 1.30701 0.01307 0.04563 0.00046
1730.59900 1.30707 0.01307 0.04539 0.00045
1729.63501 1.30691 0.01307 0.04519 0.00045
1728.67102 1.30641 0.01306 0.04508 0.00045
1727.70703 1.30583 0.01306 0.04512 0.00045
1726.74304 1.30533 0.01305 0.04533 0.00045
1725.77905 1.30486 0.01305 0.04572 0.00046
1724.81494 1.30437 0.01304 0.04630 0.00046
1723.85095 1.30383 0.01304 0.04703 0.00047
1722.88696 1.30329 0.01303 0.04790 0.00048
1721.92297 1.30292 0.01303 0.04888 0.00049
1720.95898 1.30286 0.01303 0.04993 0.00050
1719.99500 1.30311 0.01303 0.05099 0.00051
1719.03101 1.30361 0.01304 0.05198 0.00052
1718.06702 1.30416 0.01304 0.05284 0.00053
1717.10303 1.30467 0.01305 0.05350 0.00053
1716.13904 1.30514 0.01305 0.05392 0.00054
1715.17505 1.30563 0.01306 0.05409 0.00054
1714.21106 1.30617 0.01306 0.05406 0.00054
1713.24695 1.30671 0.01307 0.05390 0.00054
1712.28296 1.30708 0.01307 0.05370 0.00054
1711.31897 1.30714 0.01307 0.05355 0.00054
1710.35498 1.30690 0.01307 0.05347 0.00053
1709.39099 1.30642 0.01306 0.05350 0.00053
1708.42700 1.30582 0.01306 0.05370 0.00054
1707.46301 1.30525 0.01305 0.05409 0.00054
1706.49902 1.30495 0.01305 0.05468 0.00055
1705.53503 1.30496 0.01305 0.05545 0.00055
1704.57104 1.30500 0.01305 0.05635 0.00056
1703.60706 1.30496 0.01305 0.05734 0.00057
1702.64294 1.30506 0.01305 0.05842 0.00058
1701.67896 1.30547 0.01305 0.05950 0.00059
1700.71497 1.30628 0.01306 0.06042 0.00060
1699.75098 1.30734 0.01307 0.06105 0.00061
1698.78699 1.30820 0.01308 0.06135 0.00061
1697.82300 1.30870 0.01309 0.06135 0.00061
1696.85901 1.30915 0.01309 0.06118 0.00061
1695.89600 1.30969 0.01310 0.06093 0.00061
1694.93201 1.31008 0.01310 0.06060 0.00061
1693.96802 1.31014 0.01310 0.06025 0.00060
1693.00403 1.30990 0.01310 0.06001 0.00060
1692.04004 1.30941 0.01309 0.06000 0.00060
1691.07605 1.30882 0.01309 0.06024 0.00060
1690.11206 1.30827 0.01308 0.06072 0.00061
1689.14795 1.30793 0.01308 0.06141 0.00061
1688.18396 1.30789 0.01308 0.06224 0.00062
1687.21997 1.30807 0.01308 0.06323 0.00063
1686.25598 1.30849 0.01308 0.06429 0.00064
1685.29199 1.30927 0.01309 0.06524 0.00065
1684.32800 1.31033 0.01310 0.06590 0.00066
1683.36401 1.31120 0.01311 0.06624 0.00066
1682.40002 1.31169 0.01312 0.06626 0.00066
1681.43604 1.31215 0.01312 0.06612 0.00066
1680.47205 1.31271 0.01313 0.06592 0.00066
1679.50806 1.31306 0.01313 0.06571 0.00066
1678.54395 1.31307 0.01313 0.06553 0.00066
1677.57996 1.31298 0.01313 0.06547 0.00065
1676.61597 1.31298 0.01313 0.06556 0.00066
1675.65198 1.31301 0.01313 0.06580 0.00066
1674.68799 1.31303 0.01313 0.06615 0.00066
1673.72400 1.31297 0.01313 0.06656 0.00067
1672.76001 1.31291 0.01313 0.06703 0.00067
1671.79602 1.31309 0.01313 0.06757 0.00068
1670.83203 1.31358 0.01314 0.06814 0.00068
1669.86804 1.31415 0.01314 0.06865 0.00069
1668.90405 1.31464 0.01315 0.06898 0.00069
1667.93994 1.31515 0.01315 0.06905 0.00069
1666.97595 1.31569 0.01316 0.06886 0.00069
1666.01196 1.31609 0.01316 0.06855 0.00069
1665.04797 1.31618 0.01316 0.06826 0.00068
1664.08398 1.31586 0.01316 0.06812 0.00068
1663.12000 1.31528 0.01315 0.06818 0.00068
1662.15601 1.31497 0.01315 0.06843 0.00068
1661.19202 1.31506 0.01315 0.06884 0.00069
1660.22803 1.31488 0.01315 0.06941 0.00069
1659.26404 1.31427 0.01314 0.07012 0.00070
1658.30005 1.31402 0.01314 0.07099 0.00071
1657.33606 1.31451 0.01315 0.07199 0.00072
1656.37195 1.31515 0.01315 0.07313 0.00073
1655.40796 1.31562 0.01316 0.07436 0.00074
1654.44397 1.31619 0.01316 0.07553 0.00076
1653.47998 1.31711 0.01317 0.07648 0.00076
1652.51599 1.31841 0.01318 0.07702 0.00077
1651.55200 1.31994 0.01320 0.07709 0.00077
1650.58801 1.32137 0.01321 0.07678 0.00077
1649.62402 1.32245 0.01322 0.07625 0.00076
1648.66003 1.32316 0.01323 0.07563 0.00076
1647.69604 1.32363 0.01324 0.07502 0.00075
1646.73206 1.32418 0.01324 0.07443 0.00074
1645.76794 1.32482 0.01325 0.07389 0.00074
1644.80396 1.32494 0.01325 0.07344 0.00073
1643.83997 1.32440 0.01324 0.07313 0.00073
1642.87598 1.32393 0.01324 0.07301 0.00073
1641.91199 1.32392 0.01324 0.07310 0.00073
1640.94800 1.32400 0.01324 0.07341 0.00073
1639.98401 1.32397 0.01324 0.07390 0.00074
1639.02002 1.32405 0.01324 0.07446 0.00074
1638.05603 1.32446 0.01324 0.07501 0.00075
1637.09204 1.32526 0.01325 0.07540 0.00075
1636.12805 1.32632 0.01326 0.07556 0.00076
1635.16394 1.32719 0.01327 0.07553 0.00076
1634.19995 1.32769 0.01328 0.07536 0.00075
1633.23596 1.32814 0.01328 0.07511 0.00075
1632.27197 1.32870 0.01329 0.07483 0.00075
1631.30798 1.32905 0.01329 0.07454 0.00075
1630.34399 1.32907 0.01329 0.07424 0.00074
1629.38000 1.32899 0.01329 0.07397 0.00074
1628.41602 1.32898 0.01329 0.07378 0.00074
1627.45203 1.32900 0.01329 0.07369 0.00074
1626.48804 1.32900 0.01329 0.07372 0.00074
1625.52405 1.32900 0.01329 0.07387 0.00074
1624.56006 1.32902 0.01329 0.07415 0.00074
1623.59595 1.32898 0.01329 0.07451 0.00075
1622.63196 1.32894 0.01329 0.07492 0.00075
1621.66797 1.32906 0.01329 0.07533 0.00075
1620.70398 1.32949 0.01329 0.07570 0.00076
1619.73999 1.33022 0.01330 0.07602 0.00076
1618.77600 1.33120 0.01331 0.07625 0.00076
1617.81201 1.33230 0.01332 0.07637 0.00076
1616.84802 1.33337 0.01333 0.07632 0.00076
1615.88403 1.33417 0.01334 0.07610 0.00076
1614.92004 1.33467 0.01335 0.07571 0.00076
1613.95605 1.33514 0.01335 0.07521 0.00075
1612.99194 1.33570 0.01336 0.07466 0.00075
1612.02795 1.33605 0.01336 0.07409 0.00074
1611.06396 1.33607 0.01336 0.07353 0.00074
1610.09998 1.33599 0.01336 0.07300 0.00073
1609.13599 1.33598 0.01336 0.07251 0.00073
1608.17200 1.33600 0.01336 0.07210 0.00072
1607.20801 1.33600 0.01336 0.07179 0.00072
1606.24500 1.33600 0.01336 0.07159 0.00072
1605.28101 1.33600 0.01336 0.07151 0.00072
1604.31702 1.33600 0.01336 0.07152 0.00072
1603.35303 1.33599 0.01336 0.07159 0.00072
1602.38904 1.33601 0.01336 0.07167 0.00072
1601.42505 1.33603 0.01336 0.07170 0.00072
1600.46106 1.33597 0.01336 0.07168 0.00072
1599.49695 1.33589 0.01336 0.07161 0.00072
1598.53296 1.33610 0.01336 0.07153 0.00072
1597.56897 1.33665 0.01337 0.07146 0.00071
1596.60498 1.33706 0.01337 0.07138 0.00071
1595.64099 1.33708 0.01337 0.07126 0.00071
1594.67700 1.33698 0.01337 0.07113 0.00071
1593.71301 1.33698 0.01337 0.07099 0.00071
1592.74902 1.33701 0.01337 0.07084 0.00071
1591.78503 1.33701 0.01337 0.07066 0.00071
1590.82104 1.33699 0.01337 0.07044 0.00070
1589.85706 1.33697 0.01337 0.07016 0.00070
1588.89294 1.33703 0.01337 0.06987 0.00070
1587.92896 1.33712 0.01337 0.06962 0.00070
1586.96497 1.33689 0.01337 0.06944 0.00069
1586.00098 1.33632 0.01336 0.06937 0.00069
1585.03699 1.33596 0.01336 0.06940 0.00069
1584.07300 1.33602 0.01336 0.06953 0.00070
1583.10901 1.33592 0.01336 0.06978 0.00070
1582.14502 1.33540 0.01335 0.07014 0.00070
1581.18103 1.33491 0.01335 0.07060 0.00071
1580.21704 1.33482 0.01335 0.07113 0.00071
1579.25305 1.33510 0.01335 0.07171 0.00072
1578.28894 1.33562 0.01336 0.07231 0.00072
1577.32495 1.33610 0.01336 0.07285 0.00073
1576.36096 1.33651 0.01337 0.07324 0.00073
1575.39697 1.33724 0.01337 0.07341 0.00073
1574.43298 1.33835 0.01338 0.07331 0.00073
1573.46899 1.33911 0.01339 0.07300 0.00073
1572.50500 1.33915 0.01339 0.07256 0.00073
1571.54102 1.33897 0.01339 0.07207 0.00072
1570.57703 1.33894 0.01339 0.07162 0.00072
1569.61304 1.33903 0.01339 0.07121 0.00071
1568.64905 1.33908 0.01339 0.07091 0.00071
1567.68506 1.33893 0.01339 0.07076 0.00071
1566.72095 1.33847 0.01338 0.07084 0.00071
1565.75696 1.33783 0.01338 0.07116 0.00071
1564.79297 1.33721 0.01337 0.07172 0.00072
1563.82898 1.33701 0.01337 0.07245 0.00072
1562.86499 1.33742 0.01337 0.07329 0.00073
1561.90100 1.33822 0.01338 0.07418 0.00074
1560.93701 1.33921 0.01339 0.07501 0.00075
1559.97302 1.34025 0.01340 0.07561 0.00076
1559.00903 1.34127 0.01341 0.07586 0.00076
1558.04504 1.34223 0.01342 0.07573 0.00076
1557.08105 1.34318 0.01343 0.07522 0.00075
1556.11694 1.34432 0.01344 0.07442 0.00074
1555.15295 1.34551 0.01346 0.07341 0.00073
1554.18896 1.34601 0.01346 0.07226 0.00072
1553.22498 1.34555 0.01346 0.07104 0.00071
1552.26099 1.34486 0.01345 0.06989 0.00070
1551.29700 1.34440 0.01344 0.06895 0.00069
1550.33301 1.34382 0.01344 0.06833 0.00068
1549.36902 1.34287 0.01343 0.06810 0.00068
1548.40503 1.34171 0.01342 0.06824 0.00068
1547.44104 1.34059 0.01341 0.06873 0.00069
1546.47705 1.33989 0.01340 0.06956 0.00070
1545.51294 1.33981 0.01340 0.07064 0.00071
1544.54895 1.34008 0.01340 0.07185 0.00072
1543.58496 1.34053 0.01341 0.07304 0.00073
1542.62097 1.34118 0.01341 0.07407 0.00074
1541.65698 1.34209 0.01342 0.07485 0.00075
1540.69299 1.34335 0.01343 0.07531 0.00075
1539.72900 1.34488 0.01345 0.07542 0.00075
1538.76501 1.34632 0.01346 0.07514 0.00075
1537.80103 1.34739 0.01347 0.07449 0.00074
1536.83704 1.34817 0.01348 0.07358 0.00074
1535.87305 1.34873 0.01349 0.07253 0.00073
1534.90906 1.34906 0.01349 0.07144 0.00071
1533.94495 1.34914 0.01349 0.07040 0.00070
1532.98096 1.34892 0.01349 0.06946 0.00069
1532.01697 1.34844 0.01348 0.06868 0.00069
1531.05298 1.34787 0.01348 0.06812 0.00068
1530.08899 1.34735 0.01347 0.06784 0.00068
1529.12500 1.34689 0.01347 0.06783 0.00068
1528.16101 1.34643 0.01346 0.06805 0.00068
1527.19702 1.34584 0.01346 0.06843 0.00068
1526.23303 1.34521 0.01345 0.06890 0.00069
1525.26904 1.34503 0.01345 0.06939 0.00069
1524.30505 1.34550 0.01345 0.06984 0.00070
1523.34094 1.34614 0.01346 0.07019 0.00070
1522.37695 1.34663 0.01347 0.07037 0.00070
1521.41296 1.34713 0.01347 0.07033 0.00070
1520.44897 1.34770 0.01348 0.07005 0.00070
1519.48499 1.34804 0.01348 0.06960 0.00070
1518.52100 1.34805 0.01348 0.06906 0.00069
1517.55701 1.34801 0.01348 0.06851 0.00069
1516.59302 1.34806 0.01348 0.06803 0.00068
1515.63000 1.34793 0.01348 0.06770 0.00068
1514.66602 1.34747 0.01347 0.06756 0.00068
1513.70203 1.34686 0.01347 0.06764 0.00068
1512.73804 1.34630 0.01346 0.06793 0.00068
1511.77405 1.34594 0.01346 0.06839 0.00068
1510.81006 1.34585 0.01346 0.06898 0.00069
1509.84595 1.34609 0.01346 0.06967 0.00070
1508.88196 1.34660 0.01347 0.07039 0.00070
1507.91797 1.34710 0.01347 0.07106 0.00071
1506.95398 1.34752 0.01348 0.07157 0.00072
1505.98999 1.34820 0.01348 0.07177 0.00072
1505.02600 1.34925 0.01349 0.07163 0.00072
1504.06201 1.35017 0.01350 0.07121 0.00071
1503.09802 1.35068 0.01351 0.07062 0.00071
1502.13403 1.35112 0.01351 0.06997 0.00070
1501.17004 1.35168 0.01352 0.06932 0.00069
1500.20605 1.35205 0.01352 0.06873 0.00069
1499.24194 1.35207 0.01352 0.06822 0.00068
1498.27795 1.35199 0.01352 0.06782 0.00068
1497.31396 1.35198 0.01352 0.06750 0.00068
1496.34998 1.35200 0.01352 0.06726 0.00067
1495.38599 1.35201 0.01352 0.06706 0.00067
1494.42200 1.35200 0.01352 0.06693 0.00067
1493.45801 1.35200 0.01352 0.06685 0.00067
1492.49402 1.35200 0.01352 0.06683 0.00067
1491.53003 1.35200 0.01352 0.06680 0.00067
1490.56604 1.35200 0.01352 0.06670 0.00067
1489.60205 1.35200 0.01352 0.06648 0.00066
1488.63794 1.35200 0.01352 0.06617 0.00066
1487.67395 1.35201 0.01352 0.06582 0.00066
1486.70996 1.35199 0.01352 0.06545 0.00065
1485.74597 1.35197 0.01352 0.06509 0.00065
1484.78198 1.35202 0.01352 0.06480 0.00065
1483.81799 1.35211 0.01352 0.06459 0.00065
1482.85400 1.35192 0.01352 0.06447 0.00064
1481.89001 1.35137 0.01351 0.06441 0.00064
1480.92603 1.35094 0.01351 0.06440 0.00064
1479.96204 1.35091 0.01351 0.06442 0.00064
1478.99805 1.35102 0.01351 0.06452 0.00065
1478.03406 1.35104 0.01351 0.06470 0.00065
1477.06995 1.35098 0.01351 0.06495 0.00065
1476.10596 1.35092 0.01351 0.06523 0.00065
1475.14197 1.35106 0.01351 0.06550 0.00065
1474.17798 1.35153 0.01352 0.06571 0.00066
1473.21399 1.35214 0.01352 0.06580 0.00066
1472.25000 1.35271 0.01353 0.06574 0.00066
1471.28601 1.35304 0.01353 0.06553 0.00066
1470.32202 1.35306 0.01353 0.06521 0.00065
1469.35803 1.35299 0.01353 0.06487 0.00065
1468.39404 1.35299 0.01353 0.06457 0.00065
1467.43005 1.35300 0.01353 0.06435 0.00064
1466.46594 1.35300 0.01353 0.06418 0.00064
1465.50195 1.35300 0.01353 0.06408 0.00064
1464.53796 1.35302 0.01353 0.06404 0.00064
1463.57397 1.35298 0.01353 0.06405 0.00064
1462.60999 1.35291 0.01353 0.06412 0.00064
1461.64600 1.35307 0.01353 0.06422 0.00064
1460.68201 1.35355 0.01354 0.06434 0.00064
1459.71802 1.35412 0.01354 0.06443 0.00064
1458.75403 1.35460 0.01355 0.06445 0.00064
1457.79004 1.35512 0.01355 0.06434 0.00064
1456.82605 1.35569 0.01356 0.06405 0.00064
1455.86206 1.35604 0.01356 0.06359 0.00064
1454.89795 1.35607 0.01356 0.06299 0.00063
1453.93396 1.35599 0.01356 0.06237 0.00062
1452.96997 1.35599 0.01356 0.06178 0.00062
1452.00598 1.35600 0.01356 0.06124 0.00061
1451.04199 1.35598 0.01356 0.06073 0.00061
1450.07800 1.35601 0.01356 0.06026 0.00060
1449.11401 1.35608 0.01356 0.05985 0.00060
1448.15002 1.35594 0.01356 0.05952 0.00060
1447.18604 1.35548 0.01355 0.05928 0.00059
1446.22205 1.35486 0.01355 0.05914 0.00059
1445.25806 1.35429 0.01354 0.05906 0.00059
1444.29395 1.35396 0.01354 0.05905 0.00059
1443.32996 1.35394 0.01354 0.05908 0.00059
1442.36597 1.35401 0.01354 0.05910 0.00059
1441.40198 1.35402 0.01354 0.05912 0.00059
1440.43799 1.35400 0.01354 0.05911 0.00059
1439.47400 1.35400 0.01354 0.05908 0.00059
1438.51001 1.35400 0.01354 0.05904 0.00059
1437.54602 1.35400 0.01354 0.05900 0.00059
1436.58203 1.35400 0.01354 0.05892 0.00059
1435.61804 1.35400 0.01354 0.05878 0.00059
1434.65405 1.35400 0.01354 0.05857 0.00059
1433.68994 1.35401 0.01354 0.05832 0.00058
1432.72595 1.35399 0.01354 0.05806 0.00058
1431.76196 1.35397 0.01354 0.05782 0.00058
1430.79797 1.35402 0.01354 0.05764 0.00058
1429.83398 1.35411 0.01354 0.05750 0.00058
1428.87000 1.35392 0.01354 0.05741 0.00057
1427.90601 1.35338 0.01353 0.05737 0.00057
1426.94202 1.35295 0.01353 0.05739 0.00057
1425.97900 1.35292 0.01353 0.05749 0.00057
1425.01501 1.35301 0.01353 0.05766 0.00058
1424.05103 1.35301 0.01353 0.05786 0.00058
1423.08704 1.35300 0.01353 0.05807 0.00058
1422.12305 1.35302 0.01353 0.05829 0.00058
1421.15906 1.35298 0.01353 0.05849 0.00058
1420.19495 1.35289 0.01353 0.05863 0.00059
1419.23096 1.35308 0.01353 0.05867 0.00059
1418.26697 1.35362 0.01354 0.05858 0.00059
1417.30298 1.35405 0.01354 0.05843 0.00058
1416.33899 1.35408 0.01354 0.05826 0.00058
1415.37500 1.35399 0.01354 0.05808 0.00058
1414.41101 1.35398 0.01354 0.05786 0.00058
1413.44702 1.35400 0.01354 0.05760 0.00058
1412.48303 1.35401 0.01354 0.05732 0.00057
1411.51904 1.35400 0.01354 0.05705 0.00057
1410.55505 1.35400 0.01354 0.05685 0.00057
1409.59094 1.35400 0.01354 0.05669 0.00057
1408.62695 1.35400 0.01354 0.05659 0.00057
1407.66296 1.35400 0.01354 0.05652 0.00057
1406.69897 1.35400 0.01354 0.05649 0.00056
1405.73499 1.35400 0.01354 0.05649 0.00056
1404.77100 1.35399 0.01354 0.05652 0.00057
1403.80701 1.35401 0.01354 0.05654 0.00057
1402.84302 1.35403 0.01354 0.05656 0.00057
1401.87903 1.35398 0.01354 0.05658 0.00057
1400.91504 1.35389 0.01354 0.05661 0.00057
1399.95105 1.35407 0.01354 0.05662 0.00057
1398.98706 1.35461 0.01355 0.05660 0.00057
1398.02295 1.35506 0.01355 0.05653 0.00057
1397.05896 1.35512 0.01355 0.05643 0.00056
1396.09497 1.35497 0.01355 0.05631 0.00056
1395.13098 1.35486 0.01355 0.05618 0.00056
1394.16699 1.35508 0.01355 0.05601 0.00056
1393.20300 1.35565 0.01356 0.05579 0.00056
1392.23901 1.35603 0.01356 0.05550 0.00055
1391.27502 1.35599 0.01356 0.05515 0.00055
1390.31104 1.35605 0.01356 0.05476 0.00055
1389.34705 1.35656 0.01357 0.05437 0.00054
1388.38306 1.35707 0.01357 0.05394 0.00054
1387.41895 1.35721 0.01357 0.05348 0.00053
1386.45496 1.35691 0.01357 0.05298 0.00053
1385.49097 1.35634 0.01356 0.05246 0.00052
1384.52698 1.35597 0.01356 0.05197 0.00052
1383.56299 1.35600 0.01356 0.05155 0.00052
1382.59900 1.35596 0.01356 0.05121 0.00051
1381.63501 1.35552 0.01356 0.05098 0.00051
1380.67102 1.35488 0.01355 0.05087 0.00051
1379.70703 1.35430 0.01354 0.05086 0.00051
1378.74304 1.35396 0.01354 0.05091 0.00051
1377.77905 1.35393 0.01354 0.05100 0.00051
1376.81494 1.35402 0.01354 0.05110 0.00051
1375.85095 1.35405 0.01354 0.05120 0.00051
1374.88696 1.35397 0.01354 0.05127 0.00051
1373.92297 1.35386 0.01354 0.05125 0.00051
1372.95898 1.35409 0.01354 0.05110 0.00051
1371.99500 1.35472 0.01355 0.05080 0.00051
1371.03101 1.35498 0.01355 0.05039 0.00050
1370.06702 1.35446 0.01354 0.04990 0.00050
1369.10303 1.35395 0.01354 0.04940 0.00049
1368.13904 1.35397 0.01354 0.04893 0.00049
1367.17505 1.35397 0.01354 0.04855 0.00049
1366.21106 1.35354 0.01354 0.04827 0.00048
1365.24695 1.35287 0.01353 0.04812 0.00048
1364.28296 1.35226 0.01352 0.04809 0.00048
1363.31897 1.35199 0.01352 0.04815 0.00048
1362.35498 1.35207 0.01352 0.04827 0.00048
1361.39099 1.35192 0.01352 0.04843 0.00048
1360.42700 1.35130 0.01351 0.04862 0.00049
1359.46301 1.35102 0.01351 0.04879 0.00049
1358.49902 1.35151 0.01352 0.04888 0.00049
1357.53503 1.35206 0.01352 0.04887 0.00049
1356.57104 1.35212 0.01352 0.04876 0.00049
1355.60706 1.35198 0.01352 0.04856 0.00049
1354.64294 1.35195 0.01352 0.04830 0.00048
1353.67896 1.35202 0.01352 0.04798 0.00048
1352.71497 1.35208 0.01352 0.04764 0.00048
1351.75098 1.35195 0.01352 0.04731 0.00047
1350.78699 1.35150 0.01352 0.04703 0.00047
1349.82300 1.35088 0.01351 0.04681 0.00047
1348.85901 1.35029 0.01350 0.04666 0.00047
1347.89502 1.34998 0.01350 0.04654 0.00047
1346.93103 1.35001 0.01350 0.04647 0.00046
1345.96704 1.34996 0.01350 0.04645 0.00046
1345.00305 1.34952 0.01350 0.04650 0.00046
1344.03894 1.34889 0.01349 0.04662 0.00047
1343.07495 1.34830 0.01348 0.04679 0.00047
1342.11096 1.34797 0.01348 0.04698 0.00047
1341.14697 1.34794 0.01348 0.04717 0.00047
1340.18298 1.34801 0.01348 0.04736 0.00047
1339.21899 1.34802 0.01348 0.04755 0.00048
1338.25500 1.34800 0.01348 0.04773 0.00048
1337.29102 1.34800 0.01348 0.04789 0.00048
1336.32800 1.34800 0.01348 0.04802 0.00048
1335.36401 1.34799 0.01348 0.04814 0.00048
1334.40002 1.34800 0.01348 0.04823 0.00048
1333.43604 1.34803 0.01348 0.04829 0.00048
1332.47205 1.34798 0.01348 0.04828 0.00048
1331.50806 1.34790 0.01348 0.04822 0.00048
1330.54395 1.34806 0.01348 0.04810 0.00048
1329.57996 1.34857 0.01349 0.04793 0.00048
1328.61597 1.34906 0.01349 0.04775 0.00048
1327.65198 1.34919 0.01349 0.04754 0.00048
1326.68799 1.34893 0.01349 0.04732 0.00047
1325.72400 1.34838 0.01348 0.04708 0.00047
1324.76001 1.34795 0.01348 0.04684 0.00047
1323.79602 1.34789 0.01348 0.04661 0.00047
1322.83203 1.34803 0.01348 0.04642 0.00046
1321.86804 1.34813 0.01348 0.04627 0.00046
1320.90405 1.34793 0.01348 0.04617 0.00046
1319.93994 1.34739 0.01347 0.04611 0.00046
1318.97595 1.34696 0.01347 0.04611 0.00046
1318.01196 1.34691 0.01347 0.04617 0.00046
1317.04797 1.34701 0.01347 0.04627 0.00046
1316.08398 1.34702 0.01347 0.04638 0.00046
1315.12000 1.34700 0.01347 0.04647 0.00046
1314.15601 1.34699 0.01347 0.04654 0.00047
1313.19202 1.34700 0.01347 0.04658 0.00047
1312.22803 1.34700 0.01347 0.04659 0.00047
1311.26404 1.34700 0.01347 0.04655 0.00047
1310.30005 1.34701 0.01347 0.04644 0.00046
1309.33606 1.34700 0.01347 0.04627 0.00046
1308.37195 1.34698 0.01347 0.04604 0.00046
1307.40796 1.34701 0.01347 0.04579 0.00046
1306.44397 1.34708 0.01347 0.04553 0.00046
1305.47998 1.34696 0.01347 0.04528 0.00045
1304.51599 1.34651 0.01347 0.04508 0.00045
1303.55200 1.34590 0.01346 0.04496 0.00045
1302.58801 1.34532 0.01345 0.04493 0.00045
1301.62402 1.34497 0.01345 0.04497 0.00045
1300.66003 1.34493 0.01345 0.04507 0.00045
1299.69604 1.34501 0.01345 0.04520 0.00045
1298.73206 1.34502 0.01345 0.04533 0.00045
1297.76794 1.34500 0.01345 0.04545 0.00045
1296.80396 1.34500 0.01345 0.04553 0.00046
1295.83997 1.34500 0.01345 0.04555 0.00046
1294.87598 1.34500 0.01345 0.04549 0.00045
1293.91199 1.34500 0.01345 0.04534 0.00045
1292.94800 1.34501 0.01345 0.04512 0.00045
1291.98401 1.34500 0.01345 0.04485 0.00045
1291.02002 1.34497 0.01345 0.04457 0.00045
1290.05603 1.34502 0.01345 0.04430 0.00044
1289.09204 1.34511 0.01345 0.04408 0.00044
1288.12805 1.34494 0.01345 0.04392 0.00044
1287.16394 1.34438 0.01344 0.04384 0.00044
1286.19995 1.34397 0.01344 0.04381 0.00044
1285.23596 1.34402 0.01344 0.04381 0.00044
1284.27197 1.34395 0.01344 0.04382 0.00044
1283.30798 1.34343 0.01343 0.04384 0.00044
1282.34399 1.34295 0.01343 0.04385 0.00044
1281.38000 1.34290 0.01343 0.04384 0.00044
1280.41602 1.34301 0.01343 0.04379 0.00044
1279.45203 1.34303 0.01343 0.04370 0.00044
1278.48804 1.34299 0.01343 0.04357 0.00044
1277.52405 1.34296 0.01343 0.04341 0.00043
1276.56006 1.34302 0.01343 0.04324 0.00043
1275.59595 1.34312 0.01343 0.04307 0.00043
1274.63196 1.34294 0.01343 0.04291 0.00043
1273.66797 1.34238 0.01342 0.04277 0.00043
1272.70398 1.34197 0.01342 0.04265 0.00043
1271.73999 1.34202 0.01342 0.04255 0.00043
1270.77600 1.34195 0.01342 0.04247 0.00042
1269.81201 1.34144 0.01341 0.04239 0.00042
1268.84802 1.34095 0.01341 0.04233 0.00042
1267.88403 1.34088 0.01341 0.04227 0.00042
1266.92004 1.34103 0.01341 0.04221 0.00042
1265.95605 1.34113 0.01341 0.04214 0.00042
1264.99194 1.34094 0.01341 0.04207 0.00042
1264.02795 1.34041 0.01340 0.04201 0.00042
1263.06396 1.33996 0.01340 0.04195 0.00042
1262.09998 1.33988 0.01340 0.04191 0.00042
1261.13599 1.34003 0.01340 0.04185 0.00042
1260.17200 1.34014 0.01340 0.04177 0.00042
1259.20801 1.33994 0.01340 0.04167 0.00042
1258.24402 1.33938 0.01339 0.04156 0.00042
1257.28003 1.33897 0.01339 0.04143 0.00041
1256.31604 1.33899 0.01339 0.04131 0.00041
1255.35205 1.33897 0.01339 0.04122 0.00041
1254.38794 1.33855 0.01339 0.04118 0.00041
1253.42395 1.33790 0.01338 0.04118 0.00041
1252.45996 1.33729 0.01337 0.04121 0.00041
1251.49597 1.33699 0.01337 0.04127 0.00041
1250.53198 1.33704 0.01337 0.04134 0.00041
1249.56799 1.33695 0.01337 0.04145 0.00041
1248.60400 1.33643 0.01336 0.04158 0.00042
1247.64001 1.33596 0.01336 0.04172 0.00042
1246.67700 1.33591 0.01336 0.04183 0.00042
1245.71301 1.33601 0.01336 0.04192 0.00042
1244.74902 1.33599 0.01336 0.04197 0.00042
1243.78503 1.33601 0.01336 0.04197 0.00042
1242.82104 1.33611 0.01336 0.04191 0.00042
1241.85706 1.33594 0.01336 0.04182 0.00042
1240.89294 1.33538 0.01335 0.04172 0.00042
1239.92896 1.33497 0.01335 0.04164 0.00042
1238.96497 1.33502 0.01335 0.04162 0.00042
1238.00098 1.33496 0.01335 0.04163 0.00042
1237.03699 1.33441 0.01334 0.04168 0.00042
1236.07300 1.33397 0.01334 0.04175 0.00042
1235.10901 1.33401 0.01334 0.04184 0.00042
1234.14502 1.33396 0.01334 0.04195 0.00042
1233.18103 1.33344 0.01333 0.04209 0.00042
1232.21704 1.33296 0.01333 0.04224 0.00042
1231.25305 1.33291 0.01333 0.04238 0.00042
1230.28894 1.33301 0.01333 0.04251 0.00043
1229.32495 1.33300 0.01333 0.04261 0.00043
1228.36096 1.33301 0.01333 0.04268 0.00043
1227.39697 1.33310 0.01333 0.04271 0.00043
1226.43298 1.33295 0.01333 0.04271 0.00043
1225.46899 1.33242 0.01332 0.04271 0.00043
1224.50500 1.33196 0.01332 0.04272 0.00043
1223.54102 1.33191 0.01332 0.04278 0.00043
1222.57703 1.33201 0.01332 0.04285 0.00043
1221.61304 1.33202 0.01332 0.04294 0.00043
1220.64905 1.33200 0.01332 0.04302 0.00043
1219.68506 1.33199 0.01332 0.04311 0.00043
1218.72095 1.33200 0.01332 0.04319 0.00043
1217.75696 1.33201 0.01332 0.04328 0.00043
1216.79297 1.33200 0.01332 0.04334 0.00043
1215.82898 1.33197 0.01332 0.04335 0.00043
1214.86499 1.33201 0.01332 0.04331 0.00043
1213.90100 1.33211 0.01332 0.04321 0.00043
1212.93701 1.33195 0.01332 0.04306 0.00043
1211.97302 1.33139 0.01331 0.04288 0.00043
1211.00903 1.33098 0.01331 0.04270 0.00043
1210.04504 1.33102 0.01331 0.04252 0.00043
1209.08105 1.33096 0.01331 0.04237 0.00042
1208.11694 1.33042 0.01330 0.04224 0.00042
1207.15295 1.32997 0.01330 0.04215 0.00042
1206.18896 1.33001 0.01330 0.04212 0.00042
1205.22498 1.32996 0.01330 0.04216 0.00042
1204.26099 1.32945 0.01329 0.04225 0.00042
1203.29700 1.32896 0.01329 0.04238 0.00042
1202.33301 1.32890 0.01329 0.04253 0.00043
1201.36902 1.32901 0.01329 0.04268 0.00043
1200.40503 1.32902 0.01329 0.04278 0.00043
1199.44104 1.32900 0.01329 0.04282 0.00043
1198.47705 1.32900 0.01329 0.04277 0.00043
1197.51294 1.32900 0.01329 0.04264 0.00043
1196.54895 1.32898 0.01329 0.04243 0.00042
1195.58496 1.32901 0.01329 0.04217 0.00042
1194.62097 1.32908 0.01329 0.04188 0.00042
1193.65698 1.32896 0.01329 0.04157 0.00042
1192.69299 1.32851 0.01329 0.04126 0.00041
1191.72900 1.32793 0.01328 0.04098 0.00041
1190.76501 1.32741 0.01327 0.04078 0.00041
1189.80103 1.32694 0.01327 0.04066 0.00041
1188.83704 1.32647 0.01326 0.04063 0.00041
1187.87305 1.32592 0.01326 0.04068 0.00041
1186.90906 1.32532 0.01325 0.04078 0.00041
1185.94495 1.32498 0.01325 0.04093 0.00041
1184.98096 1.32504 0.01325 0.04113 0.00041
1184.01697 1.32496 0.01325 0.04133 0.00041
1183.05298 1.32442 0.01324 0.04150 0.00041
1182.08899 1.32397 0.01324 0.04161 0.00042
1181.12500 1.32401 0.01324 0.04168 0.00042
1180.16101 1.32397 0.01324 0.04174 0.00042
1179.19702 1.32346 0.01323 0.04180 0.00042
1178.23303 1.32296 0.01323 0.04187 0.00042
1177.26904 1.32287 0.01323 0.04191 0.00042
1176.30505 1.32302 0.01323 0.04194 0.00042
1175.34094 1.32314 0.01323 0.04197 0.00042
1174.37695 1.32295 0.01323 0.04198 0.00042
1173.41296 1.32240 0.01322 0.04197 0.00042
1172.44897 1.32197 0.01322 0.04193 0.00042
1171.48499 1.32200 0.01322 0.04189 0.00042
1170.52100 1.32197 0.01322 0.04185 0.00042
1169.55701 1.32153 0.01322 0.04183 0.00042
1168.59302 1.32093 0.01321 0.04181 0.00042
1167.62903 1.32044 0.01320 0.04176 0.00042
1166.66504 1.31993 0.01320 0.04170 0.00042
1165.70105 1.31934 0.01319 0.04167 0.00042
1164.73706 1.31898 0.01319 0.04170 0.00042
1163.77295 1.31900 0.01319 0.04180 0.00042
1162.80896 1.31898 0.01319 0.04195 0.00042
1161.84497 1.31856 0.01319 0.04211 0.00042
1160.88098 1.31792 0.01318 0.04229 0.00042
1159.91699 1.31730 0.01317 0.04249 0.00042
1158.95300 1.31699 0.01317 0.04272 0.00043
1157.98901 1.31705 0.01317 0.04296 0.00043
1157.02600 1.31696 0.01317 0.04320 0.00043
1156.06201 1.31642 0.01316 0.04343 0.00043
1155.09802 1.31598 0.01316 0.04366 0.00044
1154.13403 1.31601 0.01316 0.04387 0.00044
1153.17004 1.31597 0.01316 0.04406 0.00044
1152.20605 1.31547 0.01315 0.04420 0.00044
1151.24194 1.31496 0.01315 0.04432 0.00044
1150.27795 1.31487 0.01315 0.04445 0.00044
1149.31396 1.31502 0.01315 0.04459 0.00045
1148.34998 1.31514 0.01315 0.04473 0.00045
1147.38599 1.31495 0.01315 0.04488 0.00045
1146.42200 1.31439 0.01314 0.04502 0.00045
1145.45801 1.31398 0.01314 0.04516 0.00045
1144.49402 1.31402 0.01314 0.04529 0.00045
1143.53003 1.31397 0.01314 0.04543 0.00045
1142.56604 1.31343 0.01313 0.04557 0.00046
1141.60205 1.31298 0.01313 0.04572 0.00046
1140.63794 1.31300 0.01313 0.04587 0.00046
1139.67395 1.31297 0.01313 0.04604 0.00046
1138.70996 1.31247 0.01312 0.04623 0.00046
1137.74597 1.31196 0.01312 0.04644 0.00046
1136.78198 1.31187 0.01312 0.04666 0.00047
1135.81799 1.31202 0.01312 0.04690 0.00047
1134.85400 1.31213 0.01312 0.04714 0.00047
1133.89001 1.31196 0.01312 0.04740 0.00047
1132.92603 1.31142 0.01311 0.04766 0.00048
1131.96204 1.31097 0.01311 0.04788 0.00048
1130.99805 1.31092 0.01311 0.04806 0.00048
1130.03406 1.31101 0.01311 0.04816 0.00048
1129.06995 1.31100 0.01311 0.04817 0.00048
1128.10596 1.31101 0.01311 0.04813 0.00048
1127.14197 1.31110 0.01311 0.04807 0.00048
1126.17798 1.31096 0.01311 0.04803 0.00048
1125.21399 1.31044 0.01310 0.04806 0.00048
1124.25000 1.30997 0.01310 0.04820 0.00048
1123.28601 1.30991 0.01310 0.04844 0.00048
1122.32202 1.31001 0.01310 0.04878 0.00049
1121.35803 1.31002 0.01310 0.04916 0.00049
1120.39404 1.31000 0.01310 0.04955 0.00050
1119.43005 1.31002 0.01310 0.04991 0.00050
1118.46594 1.30999 0.01310 0.05021 0.00050
1117.50195 1.30989 0.01310 0.05045 0.00050
1116.53796 1.31004 0.01310 0.05059 0.00051
1115.57397 1.31057 0.01311 0.05061 0.00051
1114.60999 1.31103 0.01311 0.05048 0.00050
1113.64600 1.31106 0.01311 0.05021 0.00050
1112.68201 1.31100 0.01311 0.04983 0.00050
1111.71802 1.31109 0.01311 0.04939 0.00049
1110.75403 1.31097 0.01311 0.04896 0.00049
1109.79004 1.31043 0.01310 0.04861 0.00049
1108.82605 1.30998 0.01310 0.04835 0.00048
1107.86206 1.30998 0.01310 0.04819 0.00048
1106.89795 1.30998 0.01310 0.04810 0.00048
1105.93396 1.30957 0.01310 0.04808 0.00048
1104.96997 1.30893 0.01309 0.04809 0.00048
1104.00598 1.30834 0.01308 0.04814 0.00048
1103.04199 1.30798 0.01308 0.04820 0.00048
1102.07800 1.30794 0.01308 0.04826 0.00048
1101.11401 1.30800 0.01308 0.04833 0.00048
1100.15002 1.30799 0.01308 0.04836 0.00048
1099.18604 1.30801 0.01308 0.04836 0.00048
1098.22205 1.30811 0.01308 0.04829 0.00048
1097.25806 1.30797 0.01308 0.04815 0.00048
1096.29395 1.30742 0.01307 0.04795 0.00048
1095.32996 1.30698 0.01307 0.04770 0.00048
1094.36597 1.30702 0.01307 0.04742 0.00047
1093.40198 1.30697 0.01307 0.04715 0.00047
1092.43799 1.30644 0.01306 0.04690 0.00047
1091.47400 1.30598 0.01306 0.04666 0.00047
1090.51001 1.30598 0.01306 0.04644 0.00046
1089.54602 1.30598 0.01306 0.04625 0.00046
1088.58203 1.30555 0.01306 0.04613 0.00046
1087.61804 1.30494 0.01305 0.04604 0.00046
1086.65405 1.30442 0.01304 0.04600 0.00046
1085.68994 1.30396 0.01304 0.04600 0.00046
1084.72595 1.30348 0.01303 0.04605 0.00046
1083.76196 1.30295 0.01303 0.04613 0.00046
1082.79797 1.30237 0.01302 0.04623 0.00046
1081.83398 1.30198 0.01302 0.04632 0.00046
1080.87000 1.30193 0.01302 0.04633 0.00046
1079.90601 1.30200 0.01302 0.04628 0.00046
1078.94202 1.30200 0.01302 0.04616 0.00046
1077.97803 1.30201 0.01302 0.04598 0.00046
1077.01404 1.30208 0.01302 0.04578 0.00046
1076.05005 1.30197 0.01302 0.04554 0.00046
1075.08606 1.30152 0.01302 0.04525 0.00045
1074.12195 1.30095 0.01301 0.04494 0.00045
1073.15796 1.30046 0.01300 0.04460 0.00045
1072.19397 1.29995 0.01300 0.04426 0.00044
1071.22998 1.29936 0.01299 0.04392 0.00044
1070.26599 1.29899 0.01299 0.04362 0.00044
1069.30200 1.29901 0.01299 0.04336 0.00043
1068.33801 1.29898 0.01299 0.04313 0.00043
1067.37500 1.29855 0.01299 0.04291 0.00043
1066.41101 1.29795 0.01298 0.04264 0.00043
1065.44702 1.29743 0.01297 0.04230 0.00042
1064.48303 1.29696 0.01297 0.04188 0.00042
1063.51904 1.29644 0.01296 0.04142 0.00041
1062.55505 1.29596 0.01296 0.04096 0.00041
1061.59094 1.29553 0.01296 0.04053 0.00041
1060.62695 1.29494 0.01295 0.04012 0.00040
1059.66296 1.29402 0.01294 0.03973 0.00040
1058.69897 1.29290 0.01293 0.03937 0.00039
1057.73499 1.29178 0.01292 0.03907 0.00039
1056.77100 1.29095 0.01291 0.03883 0.00039
1055.80701 1.29050 0.01290 0.03865 0.00039
1054.84302 1.28994 0.01290 0.03852 0.00039
1053.87903 1.28890 0.01289 0.03842 0.00038
1052.91504 1.28793 0.01288 0.03831 0.00038
1051.95105 1.28744 0.01287 0.03816 0.00038
1050.98706 1.28694 0.01287 0.03794 0.00038
1050.02295 1.28602 0.01286 0.03764 0.00038
1049.05896 1.28491 0.01285 0.03729 0.00037
1048.09497 1.28389 0.01284 0.03693 0.00037
1047.13098 1.28292 0.01283 0.03659 0.00037
1046.16699 1.28193 0.01282 0.03631 0.00036
1045.20300 1.28092 0.01281 0.03607 0.00036
1044.23901 1.27992 0.01280 0.03588 0.00036
1043.27502 1.27892 0.01279 0.03575 0.00036
1042.31104 1.27793 0.01278 0.03569 0.00036
1041.34705 1.27692 0.01277 0.03568 0.00036
1040.38306 1.27592 0.01276 0.03572 0.00036
1039.41895 1.27492 0.01275 0.03576 0.00036
1038.45496 1.27392 0.01274 0.03578 0.00036
1037.49097 1.27292 0.01273 0.03575 0.00036
1036.52698 1.27190 0.01272 0.03566 0.00036
1035.56299 1.27093 0.01271 0.03552 0.00036
1034.59900 1.27000 0.01270 0.03533 0.00035
1033.63501 1.26890 0.01269 0.03513 0.00035
1032.67102 1.26746 0.01267 0.03495 0.00035
1031.70703 1.26588 0.01266 0.03480 0.00035
1030.74304 1.26437 0.01264 0.03471 0.00035
1029.77905 1.26289 0.01263 0.03467 0.00035
1028.81494 1.26140 0.01261 0.03470 0.00035
1027.85095 1.25989 0.01260 0.03483 0.00035
1026.88696 1.25838 0.01258 0.03508 0.00035
1025.92297 1.25688 0.01257 0.03543 0.00035
1024.95898 1.25541 0.01255 0.03585 0.00036
1023.99500 1.25388 0.01254 0.03630 0.00036
1023.03101 1.25228 0.01252 0.03675 0.00037
1022.06702 1.25091 0.01251 0.03717 0.00037
1021.10303 1.24993 0.01250 0.03758 0.00038
1020.13898 1.24891 0.01249 0.03799 0.00038
1019.17499 1.24748 0.01247 0.03840 0.00038
1018.21100 1.24589 0.01246 0.03883 0.00039
1017.24701 1.24440 0.01244 0.03930 0.00039
1016.28302 1.24289 0.01243 0.03978 0.00040
1015.31897 1.24130 0.01241 0.04029 0.00040
1014.35498 1.23992 0.01240 0.04080 0.00041
1013.39099 1.23893 0.01239 0.04133 0.00041
1012.42700 1.23791 0.01238 0.04188 0.00042
1011.46301 1.23651 0.01237 0.04245 0.00042
1010.49902 1.23488 0.01235 0.04302 0.00043
1009.53497 1.23327 0.01233 0.04357 0.00044
1008.57098 1.23192 0.01232 0.04407 0.00044
1007.60699 1.23091 0.01231 0.04453 0.00045
1006.64301 1.22992 0.01230 0.04496 0.00045
1005.67902 1.22860 0.01229 0.04540 0.00045
1004.71503 1.22687 0.01227 0.04587 0.00046
1003.75098 1.22482 0.01225 0.04640 0.00046
1002.78699 1.22289 0.01223 0.04698 0.00047
1001.82300 1.22139 0.01221 0.04763 0.00048
1000.85901 1.21990 0.01220 0.04837 0.00048
 999.89502 1.21799 0.01218 0.04922 0.00049
 998.93103 1.21585 0.01216 0.05017 0.00050
 997.96698 1.21375 0.01214 0.05120 0.00051
 997.00299 1.21188 0.01212 0.05231 0.00052
 996.03900 1.21033 0.01210 0.05347 0.00053
 995.07501 1.20890 0.01209 0.05465 0.00055
 994.11102 1.20742 0.01207 0.05581 0.00056
 993.14697 1.20590 0.01206 0.05696 0.00057
 992.18298 1.20440 0.01204 0.05811 0.00058
 991.21899 1.20291 0.01203 0.05924 0.00059
 990.25500 1.20141 0.01201 0.06036 0.00060
 989.29102 1.19991 0.01200 0.06143 0.00061
 988.32703 1.19839 0.01198 0.06246 0.00062
 987.36298 1.19692 0.01197 0.06344 0.00063
 986.39899 1.19549 0.01195 0.06439 0.00064
 985.43500 1.19388 0.01194 0.06537 0.00065
 984.47101 1.19194 0.01192 0.06639 0.00066
 983.50702 1.18987 0.01190 0.06747 0.00067
 982.54303 1.18785 0.01188 0.06862 0.00069
 981.57898 1.18588 0.01186 0.06982 0.00070
 980.61499 1.18389 0.01184 0.07105 0.00071
 979.65100 1.18188 0.01182 0.07234 0.00072
 978.68701 1.17985 0.01180 0.07371 0.00074
 977.72400 1.17789 0.01178 0.07521 0.00075
 976.76001 1.17599 0.01176 0.07686 0.00077
 975.79602 1.17387 0.01174 0.07865 0.00079
 974.83197 1.17135 0.01171 0.08059 0.00081
 973.86798 1.16888 0.01169 0.08262 0.00083
 972.90399 1.16681 0.01167 0.08474 0.00085
 971.94000 1.16487 0.01165 0.08691 0.00087
 970.97601 1.16280 0.01163 0.08913 0.00089
 970.01202 1.16090 0.01161 0.09141 0.00091
 969.04797 1.15940 0.01159 0.09377 0.00094
 968.08398 1.15790 0.01158 0.09618 0.00096
 967.12000 1.15601 0.01156 0.09861 0.00099
 966.15601 1.15388 0.01154 0.10105 0.00101
 965.19202 1.15175 0.01152 0.10348 0.00103
 964.22803 1.14991 0.01150 0.10595 0.00106
 963.26398 1.14846 0.01148 0.10849 0.00108
 962.29999 1.14691 0.01147 0.11113 0.00111
 961.33600 1.14489 0.01145 0.11387 0.00114
 960.37201 1.14291 0.01143 0.11672 0.00117
 959.40802 1.14142 0.01141 0.11966 0.00120
 958.44397 1.13990 0.01140 0.12266 0.00123
 957.47998 1.13791 0.01138 0.12571 0.00126
 956.51599 1.13590 0.01136 0.12880 0.00129
 955.55200 1.13432 0.01134 0.13197 0.00132
 954.58801 1.13292 0.01133 0.13523 0.00135
 953.62402 1.13144 0.01131 0.13858 0.00139
 952.65997 1.12992 0.01130 0.14203 0.00142
 951.69598 1.12844 0.01128 0.14560 0.00146
 950.73199 1.12692 0.01127 0.14930 0.00149
 949.76801 1.12534 0.01125 0.15311 0.00153
 948.80402 1.12394 0.01124 0.15705 0.00157
 947.84003 1.12289 0.01123 0.16111 0.00161
 946.87598 1.12196 0.01122 0.16526 0.00165
 945.91199 1.12092 0.01121 0.16948 0.00169
 944.94800 1.11995 0.01120 0.17371 0.00174
 943.98401 1.11929 0.01119 0.17788 0.00178
 943.02002 1.11899 0.01119 0.18201 0.00182
 942.05603 1.11902 0.01119 0.18612 0.00186
 941.09198 1.11899 0.01119 0.19022 0.00190
 940.12799 1.11859 0.01119 0.19431 0.00194
 939.16400 1.11797 0.01118 0.19841 0.00198
 938.20001 1.11737 0.01117 0.20257 0.00203
 937.23602 1.11699 0.01117 0.20682 0.00207
 936.27197 1.11692 0.01117 0.21120 0.00211
 935.30798 1.11700 0.01117 0.21572 0.00216
 934.34399 1.11706 0.01117 0.22038 0.00220
 933.38000 1.11699 0.01117 0.22519 0.00225
 932.41602 1.11683 0.01117 0.23014 0.00230
 931.45203 1.11703 0.01117 0.23518 0.00235
 930.48798 1.11791 0.01118 0.24022 0.00240
 929.52399 1.11905 0.01119 0.24525 0.00245
 928.56000 1.12003 0.01120 0.25021 0.00250
 927.59601 1.12105 0.01121 0.25512 0.00255
 926.63202 1.12240 0.01122 0.25995 0.00260
 925.66803 1.12408 0.01124 0.26472 0.00265
 924.70398 1.12603 0.01126 0.26944 0.00269
 923.73999 1.12808 0.01128 0.27410 0.00274
 922.77600 1.13011 0.01130 0.27868 0.00279
 921.81201 1.13207 0.01132 0.28317 0.00283
 920.84802 1.13401 0.01134 0.28756 0.00288
 919.88397 1.13608 0.01136 0.29185 0.00292
 918.91998 1.13843 0.01138 0.29605 0.00296
 917.95599 1.14113 0.01141 0.30017 0.00300
 916.99200 1.14415 0.01144 0.30419 0.00304
 916.02802 1.14712 0.01147 0.30810 0.00308
 915.06403 1.14973 0.01150 0.31190 0.00312
 914.09998 1.15209 0.01152 0.31557 0.00316
 913.13599 1.15447 0.01154 0.31913 0.00319
 912.17200 1.15711 0.01157 0.32263 0.00323
 911.20801 1.16015 0.01160 0.32613 0.00326
 910.24402 1.16310 0.01163 0.32965 0.00330
 909.28003 1.16560 0.01166 0.33322 0.00333
 908.31598 1.16809 0.01168 0.33685 0.00337
 907.35199 1.17102 0.01171 0.34049 0.00340
 906.38800 1.17410 0.01174 0.34414 0.00344
 905.42401 1.17705 0.01177 0.34775 0.00348
 904.46002 1.18013 0.01180 0.35129 0.00351
 903.49597 1.18358 0.01184 0.35476 0.00355
 902.53198 1.18713 0.01187 0.35815 0.00358
 901.56799 1.19057 0.01191 0.36144 0.00361
 900.60400 1.19414 0.01194 0.36459 0.00365
 899.64001 1.19807 0.01198 0.36754 0.00368
 898.67603 1.20214 0.01202 0.37030 0.00370
 897.71198 1.20613 0.01206 0.37290 0.00373
 896.74799 1.21013 0.01210 0.37534 0.00375
 895.78400 1.21423 0.01214 0.37763 0.00378
 894.82001 1.21811 0.01218 0.37978 0.00380
 893.85602 1.22158 0.01222 0.38182 0.00382
 892.89203 1.22510 0.01225 0.38377 0.00384
 891.92798 1.22908 0.01229 0.38565 0.00386
 890.96399 1.23314 0.01233 0.38745 0.00387
 890.00000 1.23684 0.01237 0.38920 0.00389
 889.03601 1.24010 0.01240 0.39095 0.00391
 888.07300 1.24306 0.01243 0.39274 0.00393
 887.10901 1.24610 0.01246 0.39456 0.00395
 886.14502 1.24955 0.01250 0.39638 0.00396
 885.18103 1.25310 0.01253 0.39819 0.00398
 884.21698 1.25652 0.01257 0.40000 0.00400
 883.25299 1.26011 0.01260 0.40180 0.00402
 882.28900 1.26413 0.01264 0.40360 0.00404
 881.32501 1.26810 0.01268 0.40534 0.00405
 880.36102 1.27158 0.01272 0.40696 0.00407
 879.39697 1.27509 0.01275 0.40846 0.00408
 878.43298 1.27909 0.01279 0.40985 0.00410
 877.46899 1.28312 0.01283 0.41115 0.00411
 876.50500 1.28671 0.01287 0.41238 0.00412
 875.54102 1.29010 0.01290 0.41357 0.00414
 874.57703 1.29360 0.01294 0.41475 0.00415
 873.61298 1.29710 0.01297 0.41595 0.00416
 872.64899 1.30049 0.01300 0.41721 0.00417
 871.68500 1.30410 0.01304 0.41848 0.00418
 870.72101 1.30812 0.01308 0.41975 0.00420
 869.75702 1.31209 0.01312 0.42101 0.00421
 868.79303 1.31560 0.01316 0.42225 0.00422
 867.82898 1.31908 0.01319 0.42346 0.00423
 866.86499 1.32298 0.01323 0.42461 0.00425
 865.90100 1.32708 0.01327 0.42566 0.00426
 864.93701 1.33110 0.01331 0.42658 0.00427
 863.97302 1.33511 0.01335 0.42735 0.00427
 863.00897 1.33919 0.01339 0.42798 0.00428
 862.04498 1.34310 0.01343 0.42852 0.00429
 861.08099 1.34666 0.01347 0.42903 0.00429
 860.11700 1.35008 0.01350 0.42953 0.00430
 859.15302 1.35359 0.01354 0.43006 0.00430
 858.18903 1.35707 0.01357 0.43063 0.00431
 857.22498 1.36047 0.01360 0.43126 0.00431
 856.26099 1.36407 0.01364 0.43192 0.00432
 855.29700 1.36810 0.01368 0.43258 0.00433
 854.33301 1.37206 0.01372 0.43323 0.00433
 853.36902 1.37557 0.01376 0.43386 0.00434
 852.40503 1.37906 0.01379 0.43445 0.00434
 851.44098 1.38298 0.01383 0.43498 0.00435
 850.47699 1.38710 0.01387 0.43542 0.00435
 849.51300 1.39109 0.01391 0.43576 0.00436
 848.54901 1.39509 0.01395 0.43600 0.00436
 847.58502 1.39917 0.01399 0.43618 0.00436
 846.62097 1.40307 0.01403 0.43632 0.00436
 845.65698 1.40657 0.01407 0.43645 0.00436
 844.69299 1.41006 0.01410 0.43661 0.00437
 843.72900 1.41396 0.01414 0.43685 0.00437
 842.76501 1.41806 0.01418 0.43718 0.00437
 841.80103 1.42211 0.01422 0.43757 0.00438
 840.83698 1.42605 0.01426 0.43800 0.00438
 839.87299 1.42995 0.01430 0.43839 0.00438
 838.90900 1.43405 0.01434 0.43873 0.00439
 837.94501 1.43852 0.01439 0.43901 0.00439
 836.98102 1.44309 0.01443 0.43917 0.00439
 836.01703 1.44750 0.01447 0.43916 0.00439
 835.05298 1.45208 0.01452 0.43892 0.00439
 834.08899 1.45708 0.01457 0.43843 0.00438
 833.12500 1.46207 0.01462 0.43773 0.00438
 832.16101 1.46664 0.01467 0.43687 0.00437
 831.19702 1.47106 0.01471 0.43586 0.00436
 830.23297 1.47561 0.01476 0.43472 0.00435
 829.26898 1.48005 0.01480 0.43351 0.00434
 828.30499 1.48412 0.01484 0.43229 0.00432
 827.34100 1.48803 0.01488 0.43111 0.00431
 826.37701 1.49203 0.01492 0.42999 0.00430
 825.41302 1.49603 0.01496 0.42884 0.00429
 824.44897 1.49994 0.01500 0.42761 0.00428
 823.48499 1.50406 0.01504 0.42634 0.00426
 822.52100 1.50859 0.01509 0.42509 0.00425
 821.55701 1.51305 0.01513 0.42382 0.00424
 820.59302 1.51705 0.01517 0.42247 0.00422
 819.62903 1.52104 0.01521 0.42096 0.00421
 818.66498 1.52549 0.01525 0.41926 0.00419
 817.70099 1.53004 0.01530 0.41741 0.00417
 816.73700 1.53424 0.01534 0.41547 0.00415
 815.77301 1.53802 0.01538 0.41346 0.00413
 814.80902 1.54149 0.01541 0.41143 0.00411
 813.84497 1.54502 0.01545 0.40942 0.00409
 812.88098 1.54892 0.01549 0.40748 0.00407
 811.91699 1.55301 0.01553 0.40560 0.00406
 810.95300 1.55705 0.01557 0.40371 0.00404
 809.98901 1.56104 0.01561 0.40175 0.00402
 809.02502 1.56503 0.01565 0.39963 0.00400
 808.06097 1.56903 0.01569 0.39734 0.00397
 807.09698 1.57304 0.01573 0.39490 0.00395
 806.13300 1.57702 0.01577 0.39228 0.00392
 805.16901 1.58098 0.01581 0.38946 0.00389
 804.20502 1.58502 0.01585 0.38640 0.00386
 803.24103 1.58916 0.01589 0.38306 0.00383
 802.27698 1.59301 0.01593 0.37953 0.00380
 801.31299 1.59620 0.01596 0.37590 0.00376
 800.34900 1.59900 0.01599 0.37221 0.00372
