#SUBSTANCE=Sulphuric acid
#DESCRIPTION=Refractive indices of 38 wt% sulphuric acid from 400 to 7500 cm-1 at 243 K
#TEMPERATURE=243 K
#CONCENTRATION=38 wt%
#DOI=10.1021/jp026576n
#REFERENCE=Spectroscopic Study of Aqueous H2SO4 at Different Temperatures and Compositions:  Variations in Dissociation and Optical Properties
##Cathrine E. Lund Myhre,†, Daniel H. Christensen,‡, Flemming M. Nicolaisen,‡ and, and Claus J. Nielsen*,†
##The Journal of Physical Chemistry A 2003 107 (12), 1979-1991 
#FORMAT=WAVN N K
7498.52083	1.37693	0.01234
7497.02072	1.37696	0.01237
7495.52061	1.37704	0.0124
7494.0205	1.37715	0.0124
7492.52039	1.37728	0.01237
7491.02027	1.3774	0.01232
7489.52016	1.37746	0.01224
7488.02005	1.37745	0.01216
7486.51994	1.3774	0.01208
7485.01983	1.37734	0.01203
7483.51971	1.37731	0.012
7482.0196	1.37728	0.01197
7480.51949	1.37727	0.01196
7479.01938	1.37726	0.01195
7477.51927	1.37726	0.01195
7476.01916	1.37723	0.01195
7474.51904	1.3772	0.01196
7473.01893	1.37718	0.01198
7471.51882	1.37718	0.01201
7470.01871	1.37723	0.01202
7468.5186	1.3773	0.01203
7467.01848	1.37738	0.01203
7465.51837	1.37746	0.01199
7464.01826	1.37753	0.01194
7462.51815	1.3776	0.01187
7461.01804	1.37763	0.01177
7459.51793	1.37762	0.01168
7458.01781	1.37758	0.01159
7456.5177	1.37754	0.01151
7455.01759	1.37746	0.01145
7453.51748	1.37737	0.01142
7452.01737	1.37726	0.01141
7450.51725	1.37716	0.01143
7449.01714	1.37711	0.01146
7447.51703	1.37713	0.01149
7446.01692	1.37721	0.01148
7444.51681	1.37728	0.01146
7443.0167	1.37729	0.01143
7441.51658	1.37723	0.01139
7440.01647	1.37712	0.01137
7438.51636	1.37701	0.01139
7437.01625	1.37692	0.01143
7435.51614	1.37692	0.01149
7434.01602	1.37698	0.01153
7432.51591	1.37709	0.01155
7431.0158	1.3772	0.01154
7429.51569	1.37726	0.01149
7428.01558	1.37727	0.01143
7426.51547	1.37725	0.01136
7425.01535	1.37721	0.0113
7423.51524	1.37715	0.01125
7422.01513	1.37708	0.01122
7420.51502	1.377	0.01122
7419.01491	1.37692	0.01124
7417.51479	1.37685	0.01128
7416.01468	1.37682	0.01132
7414.51457	1.37683	0.01137
7413.01446	1.37689	0.0114
7411.51435	1.37696	0.01142
7410.01424	1.37702	0.01143
7408.51412	1.37703	0.01141
7407.01401	1.37703	0.0114
7405.5139	1.37704	0.01137
7404.01379	1.3771	0.01133
7402.51368	1.37718	0.01129
7401.01356	1.37722	0.01121
7399.51345	1.37719	0.01114
7398.01334	1.3771	0.01109
7396.51323	1.377	0.01104
7395.01312	1.37692	0.01102
7393.51301	1.37688	0.01102
7392.01289	1.37684	0.01103
7390.51278	1.37681	0.01104
7389.01267	1.37679	0.01105
7387.51256	1.37678	0.01107
7386.01245	1.37677	0.01107
7384.51233	1.37675	0.01107
7383.01222	1.37675	0.01106
7381.51211	1.37677	0.01105
7380.012	1.37677	0.01103
7378.51189	1.37673	0.01103
7377.01178	1.37662	0.01104
7375.51166	1.37652	0.01107
7374.01155	1.37649	0.01111
7372.51144	1.37655	0.01115
7371.01133	1.37662	0.01118
7369.51122	1.37667	0.01119
7368.0111	1.37667	0.01119
7366.51099	1.37666	0.01118
7365.01088	1.37668	0.01116
7363.51077	1.37671	0.01113
7362.01066	1.37673	0.0111
7360.51055	1.3767	0.01108
7359.01043	1.37663	0.01108
7357.51032	1.37654	0.01111
7356.01021	1.37648	0.01114
7354.5101	1.37649	0.01119
7353.00999	1.37659	0.01121
7351.50987	1.37674	0.0112
7350.00976	1.37688	0.01115
7348.50965	1.37695	0.01106
7347.00954	1.37694	0.01094
7345.50943	1.37688	0.01082
7344.00932	1.37678	0.01073
7342.5092	1.37662	0.01067
7341.00909	1.3764	0.01069
7339.50898	1.37615	0.01077
7338.00887	1.37598	0.0109
7336.50876	1.37597	0.01104
7335.00864	1.37613	0.01115
7333.50853	1.37637	0.0112
7332.00842	1.37659	0.01118
7330.50831	1.37668	0.01113
7329.0082	1.37663	0.01105
7327.50809	1.37647	0.01101
7326.00797	1.37632	0.011
7324.50786	1.37625	0.01104
7323.00775	1.37628	0.01109
7321.50764	1.37637	0.01114
7320.00753	1.37647	0.01116
7318.50741	1.37655	0.01114
7317.0073	1.37661	0.01109
7315.50719	1.37667	0.01102
7314.00708	1.3767	0.01093
7312.50697	1.37666	0.01085
7311.00686	1.37657	0.01078
7309.50674	1.37643	0.01074
7308.00663	1.37629	0.01074
7306.50652	1.37618	0.01078
7305.00641	1.37614	0.01084
7303.5063	1.37615	0.01088
7302.00619	1.37622	0.01091
7300.50607	1.37631	0.01092
7299.00596	1.37636	0.01089
7297.50585	1.37636	0.01086
7296.00574	1.37629	0.01082
7294.50563	1.37617	0.01081
7293.00551	1.37608	0.01082
7291.5054	1.37604	0.01084
7290.00529	1.37603	0.01088
7288.50518	1.37602	0.01092
7287.00507	1.37599	0.01098
7285.50496	1.37597	0.01103
7284.00484	1.37597	0.01109
7282.50473	1.376	0.01114
7281.00462	1.37606	0.01119
7279.50451	1.37617	0.01121
7278.0044	1.37629	0.01119
7276.50428	1.37643	0.01114
7275.00417	1.37651	0.01106
7273.50406	1.37654	0.01096
7272.00395	1.37649	0.01085
7270.50384	1.37638	0.01078
7269.00373	1.37626	0.01074
7267.50361	1.37614	0.01072
7266.0035	1.37606	0.01073
7264.50339	1.37602	0.01077
7263.00328	1.37599	0.01082
7261.50317	1.37598	0.01085
7260.00305	1.376	0.01088
7258.50294	1.37603	0.0109
7257.00283	1.37609	0.01089
7255.50272	1.37613	0.01087
7254.00261	1.37613	0.01087
7252.5025	1.37606	0.01085
7251.00238	1.376	0.01085
7249.50227	1.37601	0.01083
7248.00216	1.37609	0.0108
7246.50205	1.37618	0.01075
7245.00194	1.37617	0.0107
7243.50182	1.37602	0.01068
7242.00171	1.3758	0.01069
7240.5016	1.37564	0.01074
7239.00149	1.37563	0.0108
7237.50138	1.37579	0.01083
7236.00127	1.37599	0.01083
7234.50115	1.37607	0.01079
7233.00104	1.37596	0.01075
7231.50093	1.37572	0.01075
7230.00082	1.37554	0.01078
7228.50071	1.37549	0.01084
7227.00059	1.37559	0.0109
7225.50048	1.37576	0.01093
7224.00037	1.37587	0.01093
7222.50026	1.37587	0.01089
7221.00015	1.37576	0.01087
7219.50004	1.37561	0.01089
7217.99992	1.37549	0.01093
7216.49981	1.37549	0.011
7214.9997	1.37558	0.01107
7213.49959	1.37571	0.0111
7211.99948	1.37583	0.01109
7210.49936	1.3759	0.01105
7208.99925	1.37595	0.01098
7207.49914	1.37594	0.01089
7205.99903	1.37586	0.01083
7204.49892	1.37574	0.01079
7202.99881	1.37557	0.01081
7201.49869	1.37543	0.01086
7199.99858	1.37535	0.01095
7198.49847	1.37535	0.01105
7196.99836	1.37543	0.01114
7195.49825	1.37553	0.01121
7193.99813	1.37565	0.01125
7192.49802	1.37575	0.01124
7190.99791	1.37583	0.01121
7189.4978	1.37589	0.01116
7187.99769	1.37593	0.01109
7186.49758	1.37594	0.01102
7184.99746	1.37588	0.01097
7183.49735	1.37578	0.01094
7181.99724	1.37567	0.01094
7180.49713	1.37561	0.01097
7178.99702	1.37562	0.01101
7177.4969	1.37567	0.01104
7175.99679	1.37574	0.01104
7174.49668	1.37581	0.01103
7172.99657	1.37587	0.01099
7171.49646	1.3759	0.01093
7169.99635	1.37588	0.01086
7168.49623	1.37584	0.01079
7166.99612	1.37578	0.01071
7165.49601	1.37572	0.01066
7163.9959	1.37562	0.01062
7162.49579	1.37546	0.01062
7160.99567	1.37527	0.01067
7159.49556	1.37509	0.01076
7157.99545	1.37497	0.01089
7156.49534	1.37495	0.01106
7154.99523	1.37501	0.01122
7153.49512	1.37514	0.01134
7151.995	1.37532	0.01142
7150.49489	1.37554	0.01143
7148.99478	1.37573	0.01139
7147.49467	1.37584	0.0113
7145.99456	1.37588	0.0112
7144.49444	1.37583	0.0111
7142.99433	1.37574	0.01102
7141.49422	1.37564	0.01097
7139.99411	1.37553	0.01096
7138.494	1.37545	0.01099
7136.99389	1.3754	0.01102
7135.49377	1.37539	0.01108
7133.99366	1.37542	0.01113
7132.49355	1.37547	0.01117
7130.99344	1.37551	0.0112
7129.49333	1.37556	0.0112
7127.99321	1.3756	0.01119
7126.4931	1.37566	0.01116
7124.99299	1.3757	0.01111
7123.49288	1.37572	0.01106
7121.99277	1.3757	0.01101
7120.49266	1.37563	0.01097
7118.99254	1.37553	0.01096
7117.49243	1.37541	0.01098
7115.99232	1.37533	0.01103
7114.49221	1.37531	0.01109
7112.9921	1.37535	0.01116
7111.49198	1.37544	0.0112
7109.99187	1.37551	0.01124
7108.49176	1.37554	0.01125
7106.99165	1.37556	0.01125
7105.49154	1.37559	0.01125
7103.99143	1.37566	0.01123
7102.49131	1.37576	0.01119
7100.9912	1.37584	0.01113
7099.49109	1.37585	0.01106
7097.99098	1.37578	0.01101
7096.49087	1.37568	0.01097
7094.99076	1.3756	0.01095
7093.49064	1.37556	0.01096
7091.99053	1.37559	0.01096
7090.49042	1.37565	0.01095
7088.99031	1.3757	0.01091
7087.4902	1.3757	0.01087
7085.99008	1.37564	0.01083
7084.48997	1.37554	0.0108
7082.98986	1.37544	0.0108
7081.48975	1.37535	0.01083
7079.98964	1.37528	0.01088
7078.48953	1.37528	0.01095
7076.98941	1.37533	0.01099
7075.4893	1.3754	0.01101
7073.98919	1.37547	0.01102
7072.48908	1.37552	0.01099
7070.98897	1.37556	0.01095
7069.48885	1.37555	0.0109
7067.98874	1.3755	0.01087
7066.48863	1.37542	0.01085
7064.98852	1.37533	0.01085
7063.48841	1.37527	0.01087
7061.9883	1.37526	0.0109
7060.48818	1.37528	0.01092
7058.98807	1.3753	0.01093
7057.48796	1.37529	0.01095
7055.98785	1.37525	0.01096
7054.48774	1.37523	0.01099
7052.98762	1.37523	0.011
7051.48751	1.37524	0.01101
7049.9874	1.37527	0.01103
7048.48729	1.37528	0.01103
7046.98718	1.37523	0.01106
7045.48707	1.37518	0.01109
7043.98695	1.37514	0.01113
7042.48684	1.37515	0.01118
7040.98673	1.37524	0.01122
7039.48662	1.37536	0.01122
7037.98651	1.37546	0.01121
7036.48639	1.37553	0.01118
7034.98628	1.37553	0.01112
7033.48617	1.37549	0.01106
7031.98606	1.37546	0.01102
7030.48595	1.37543	0.01099
7028.98584	1.3754	0.01097
7027.48572	1.37538	0.01096
7025.98561	1.37532	0.01097
7024.4855	1.37526	0.01098
7022.98539	1.3752	0.01101
7021.48528	1.37517	0.01106
7019.98516	1.37521	0.0111
7018.48505	1.37528	0.01112
7016.98494	1.37535	0.01112
7015.48483	1.37539	0.0111
7013.98472	1.37538	0.01109
7012.48461	1.37533	0.01108
7010.98449	1.37526	0.01109
7009.48438	1.37521	0.01112
7007.98427	1.3752	0.01117
7006.48416	1.37524	0.01122
7004.98405	1.37531	0.01125
7003.48393	1.37539	0.01127
7001.98382	1.37546	0.01128
7000.48371	1.37551	0.01126
6998.9836	1.37558	0.01122
6997.48349	1.37565	0.01116
6995.98338	1.3757	0.0111
6994.48326	1.37572	0.01103
6992.98315	1.37568	0.01096
6991.48304	1.37562	0.0109
6989.98293	1.37557	0.01085
6988.48282	1.37551	0.01082
6986.9827	1.37544	0.01082
6985.48259	1.37535	0.01083
6983.98248	1.37527	0.01088
6982.48237	1.37521	0.01094
6980.98226	1.37523	0.011
6979.48215	1.37529	0.01105
6977.98203	1.3754	0.01107
6976.48192	1.37551	0.01105
6974.98181	1.3756	0.011
6973.4817	1.37562	0.01095
6971.98159	1.37558	0.01089
6970.48147	1.37548	0.01086
6968.98136	1.37538	0.01086
6967.48125	1.37532	0.01088
6965.98114	1.37532	0.01091
6964.48103	1.37538	0.01093
6962.98092	1.37546	0.01093
6961.4808	1.37553	0.01092
6959.98069	1.37557	0.01089
6958.48058	1.37554	0.01084
6956.98047	1.37548	0.01081
6955.48036	1.37544	0.01078
6953.98024	1.37544	0.01076
6952.48013	1.37547	0.01073
6950.98002	1.37547	0.01071
6949.47991	1.37543	0.01069
6947.9798	1.37535	0.01069
6946.47969	1.37526	0.01069
6944.97957	1.3752	0.01071
6943.47946	1.37518	0.01076
6941.97935	1.3752	0.0108
6940.47924	1.37521	0.01085
6938.97913	1.37521	0.0109
6937.47901	1.37523	0.01094
6935.9789	1.37528	0.01097
6934.47879	1.37541	0.01097
6932.97868	1.37555	0.01094
6931.47857	1.37563	0.01088
6929.97846	1.37565	0.01081
6928.47834	1.37563	0.01073
6926.97823	1.37558	0.01067
6925.47812	1.37555	0.0106
6923.97801	1.37551	0.01056
6922.4779	1.37545	0.01053
6920.97778	1.37538	0.01052
6919.47767	1.37529	0.01054
6917.97756	1.37523	0.01057
6916.47745	1.3752	0.01062
6914.97734	1.37521	0.01066
6913.47723	1.37529	0.01068
6911.97711	1.3754	0.01068
6910.477	1.37551	0.01065
6908.97689	1.37556	0.01058
6907.47678	1.37554	0.01052
6905.97667	1.37544	0.01047
6904.47656	1.37535	0.01043
6902.97644	1.3753	0.01041
6901.47633	1.3753	0.0104
6899.97622	1.37533	0.01039
6898.47611	1.37534	0.01037
6896.976	1.37532	0.01035
6895.47588	1.37526	0.01033
6893.97577	1.3752	0.01032
6892.47566	1.37516	0.01032
6890.97555	1.37514	0.01032
6889.47544	1.37514	0.01032
6887.97533	1.37513	0.01031
6886.47521	1.37511	0.01031
6884.9751	1.37508	0.0103
6883.47499	1.37504	0.0103
6881.97488	1.37501	0.0103
6880.47477	1.37498	0.01031
6878.97465	1.37497	0.01031
6877.47454	1.37495	0.01033
6875.97443	1.37494	0.01033
6874.47432	1.37493	0.01033
6872.97421	1.37492	0.01033
6871.4741	1.37491	0.01033
6869.97398	1.37489	0.01032
6868.47387	1.37485	0.01033
6866.97376	1.37477	0.01035
6865.47365	1.37471	0.01038
6863.97354	1.37467	0.01044
6862.47342	1.37468	0.01049
6860.97331	1.37472	0.01054
6859.4732	1.37476	0.01057
6857.97309	1.37484	0.01059
6856.47298	1.37491	0.01057
6854.97287	1.37498	0.01054
6853.47275	1.37498	0.01051
6851.97264	1.37492	0.01049
6850.47253	1.37483	0.01048
6848.97242	1.37479	0.01049
6847.47231	1.37482	0.0105
6845.97219	1.37491	0.01049
6844.47208	1.37498	0.01046
6842.97197	1.37497	0.01044
6841.47186	1.37488	0.01042
6839.97175	1.37475	0.01043
6838.47164	1.37467	0.01047
6836.97152	1.37468	0.01052
6835.47141	1.37477	0.01055
6833.9713	1.37488	0.01056
6832.47119	1.37499	0.01053
6830.97108	1.37503	0.01048
6829.47096	1.37499	0.01044
6827.97085	1.3749	0.0104
6826.47074	1.3748	0.01039
6824.97063	1.37475	0.0104
6823.47052	1.37475	0.01043
6821.97041	1.37478	0.01045
6820.47029	1.37484	0.01045
6818.97018	1.3749	0.01044
6817.47007	1.37494	0.0104
6815.96996	1.37493	0.01037
6814.46985	1.37486	0.01033
6812.96973	1.37477	0.01032
6811.46962	1.37472	0.01032
6809.96951	1.37471	0.01033
6808.4694	1.37473	0.01033
6806.96929	1.37472	0.01035
6805.46918	1.37469	0.01036
6803.96906	1.37465	0.01038
6802.46895	1.37463	0.01039
6800.96884	1.37463	0.01041
6799.46873	1.37464	0.01044
6797.96862	1.37464	0.01047
6796.4685	1.37465	0.01049
6794.96839	1.37467	0.01051
6793.46828	1.37471	0.01053
6791.96817	1.37477	0.01053
6790.46806	1.37482	0.01052
6788.96795	1.37485	0.0105
6787.46783	1.37487	0.01047
6785.96772	1.37489	0.01044
6784.46761	1.3749	0.01041
6782.9675	1.37491	0.01037
6781.46739	1.37491	0.01034
6779.96727	1.37489	0.01029
6778.46716	1.37488	0.01026
6776.96705	1.37486	0.01023
6775.46694	1.37485	0.01021
6773.96683	1.37483	0.01018
6772.46672	1.37479	0.01016
6770.9666	1.37473	0.01016
6769.46649	1.37468	0.01017
6767.96638	1.37463	0.01019
6766.46627	1.37463	0.01021
6764.96616	1.37466	0.01022
6763.46604	1.37473	0.01021
6761.96593	1.37479	0.01018
6760.46582	1.3748	0.01015
6758.96571	1.37474	0.01012
6757.4656	1.37463	0.01011
6755.96549	1.37455	0.01013
6754.46537	1.37453	0.01014
6752.96526	1.37459	0.01017
6751.46515	1.37467	0.01017
6749.96504	1.37472	0.01015
6748.46493	1.37473	0.01012
6746.96481	1.37469	0.01009
6745.4647	1.37466	0.01005
6743.96459	1.37465	0.01002
6742.46448	1.37464	0.00999
6740.96437	1.37462	0.00996
6739.46426	1.37457	0.00994
6737.96414	1.37454	0.00992
6736.46403	1.37451	0.0099
6734.96392	1.37449	0.00988
6733.46381	1.37444	0.00988
6731.9637	1.37435	0.0099
6730.46358	1.37425	0.00992
6728.96347	1.37418	0.00997
6727.46336	1.37419	0.01001
6725.96325	1.37425	0.01005
6724.46314	1.37432	0.01005
6722.96303	1.37435	0.01005
6721.46291	1.37433	0.01005
6719.9628	1.37427	0.01004
6718.46269	1.37422	0.01005
6716.96258	1.37419	0.01006
6715.46247	1.3742	0.01008
6713.96236	1.37422	0.0101
6712.46224	1.37425	0.01011
6710.96213	1.37426	0.0101
6709.46202	1.37427	0.01009
6707.96191	1.37425	0.01008
6706.4618	1.37421	0.01009
6704.96168	1.37414	0.01011
6703.46157	1.3741	0.01013
6701.96146	1.3741	0.01018
6700.46135	1.37414	0.01022
6698.96124	1.37421	0.01024
6697.46113	1.37429	0.01025
6695.96101	1.37435	0.01023
6694.4609	1.37439	0.0102
6692.96079	1.37441	0.01015
6691.46068	1.37441	0.0101
6689.96057	1.37441	0.01004
6688.46045	1.37438	0.00999
6686.96034	1.37433	0.00995
6685.46023	1.37426	0.00994
6683.96012	1.37417	0.00993
6682.46001	1.37409	0.00996
6680.9599	1.37404	0.00999
6679.45978	1.37405	0.01002
6677.95967	1.37409	0.01005
6676.45956	1.37412	0.01007
6674.95945	1.37411	0.01009
6673.45934	1.37407	0.0101
6671.95922	1.37403	0.01013
6670.45911	1.37405	0.01014
6668.959	1.37413	0.01015
6667.45889	1.37421	0.01013
6665.95878	1.37425	0.01012
6664.45867	1.37422	0.0101
6662.95855	1.37415	0.01009
6661.45844	1.37409	0.01009
6659.95833	1.3741	0.01009
6658.45822	1.37415	0.01011
6656.95811	1.3742	0.01011
6655.45799	1.37423	0.01009
6653.95788	1.37422	0.01009
6652.45777	1.37422	0.01007
6650.95766	1.37423	0.01004
6649.45755	1.37424	0.01002
6647.95744	1.37427	0.00999
6646.45732	1.37429	0.00994
6644.95721	1.37429	0.00989
6643.4571	1.37426	0.00985
6641.95699	1.37419	0.00982
6640.45688	1.37411	0.00979
6638.95676	1.37406	0.00978
6637.45665	1.37403	0.00978
6635.95654	1.374	0.00979
6634.45643	1.37394	0.00981
6632.95632	1.37388	0.00985
6631.45621	1.37381	0.0099
6629.95609	1.37379	0.00996
6628.45598	1.37383	0.01001
6626.95587	1.3739	0.01005
6625.45576	1.37399	0.01006
6623.95565	1.37408	0.01005
6622.45553	1.37412	0.01001
6620.95542	1.37412	0.00998
6619.45531	1.37409	0.00993
6617.9552	1.37405	0.0099
6616.45509	1.37404	0.00989
6614.95498	1.37403	0.00988
6613.45486	1.374	0.00988
6611.95475	1.37398	0.00988
6610.45464	1.37396	0.0099
6608.95453	1.37396	0.0099
6607.45442	1.37399	0.00991
6605.9543	1.37402	0.00991
6604.45419	1.37405	0.0099
6602.95408	1.37407	0.00988
6601.45397	1.37409	0.00986
6599.95386	1.37409	0.00983
6598.45375	1.37407	0.00981
6596.95363	1.37406	0.00978
6595.45352	1.37408	0.00975
6593.95341	1.37412	0.00971
6592.4533	1.37416	0.00965
6590.95319	1.37415	0.00958
6589.45307	1.37409	0.00954
6587.95296	1.37398	0.00949
6586.45285	1.37388	0.00946
6584.95274	1.37381	0.00947
6583.45263	1.37374	0.00948
6581.95252	1.37369	0.00952
6580.4524	1.37365	0.00956
6578.95229	1.37362	0.00961
6577.45218	1.37362	0.00965
6575.95207	1.37365	0.00968
6574.45196	1.37372	0.0097
6572.95184	1.37378	0.00969
6571.45173	1.37383	0.00965
6569.95162	1.37384	0.0096
6568.45151	1.37383	0.00956
6566.9514	1.37376	0.00952
6565.45129	1.37367	0.00951
6563.95117	1.37357	0.00952
6562.45106	1.37351	0.00955
6560.95095	1.37351	0.00959
6559.45084	1.37357	0.00961
6557.95073	1.37363	0.00961
6556.45061	1.37367	0.00959
6554.9505	1.37364	0.00957
6553.45039	1.37357	0.00955
6551.95028	1.37349	0.00955
6550.45017	1.37341	0.00959
6548.95006	1.37339	0.00964
6547.44994	1.37341	0.00968
6545.94983	1.3735	0.00971
6544.44972	1.37363	0.0097
6542.94961	1.37374	0.00966
6541.4495	1.37378	0.00958
6539.94938	1.37373	0.00951
6538.44927	1.3736	0.00945
6536.94916	1.37347	0.00943
6535.44905	1.37337	0.00945
6533.94894	1.37332	0.00949
6532.44883	1.37332	0.00953
6530.94871	1.37336	0.00956
6529.4486	1.37342	0.00957
6527.94849	1.37346	0.00957
6526.44838	1.37346	0.00955
6524.94827	1.3734	0.00955
6523.44816	1.37333	0.00955
6521.94804	1.37328	0.00957
6520.44793	1.37329	0.0096
6518.94782	1.37333	0.00963
6517.44771	1.37339	0.00965
6515.9476	1.37342	0.00965
6514.44748	1.37346	0.00963
6512.94737	1.37351	0.00959
6511.44726	1.37357	0.00953
6509.94715	1.3736	0.00946
6508.44704	1.37356	0.0094
6506.94693	1.37343	0.00936
6505.44681	1.37327	0.00935
6503.9467	1.37315	0.00937
6502.44659	1.37313	0.00942
6500.94648	1.37318	0.00947
6499.44637	1.37322	0.0095
6497.94625	1.37324	0.00952
6496.44614	1.37326	0.00953
6494.94603	1.37326	0.00952
6493.44592	1.37327	0.00951
6491.94581	1.37328	0.0095
6490.4457	1.37329	0.0095
6488.94558	1.3733	0.00948
6487.44547	1.37331	0.00947
6485.94536	1.37333	0.00944
6484.44525	1.37334	0.00939
6482.94514	1.37334	0.00934
6481.44502	1.3733	0.00931
6479.94491	1.37324	0.00927
6478.4448	1.37315	0.00926
6476.94469	1.37306	0.00927
6475.44458	1.373	0.0093
6473.94447	1.37297	0.00933
6472.44435	1.37298	0.00937
6470.94424	1.37301	0.0094
6469.44413	1.37303	0.00942
6467.94402	1.37303	0.00943
6466.44391	1.37301	0.00945
6464.94379	1.373	0.00947
6463.44368	1.37303	0.00948
6461.94357	1.3731	0.00946
6460.44346	1.37318	0.00943
6458.94335	1.37323	0.00939
6457.44324	1.37325	0.00933
6455.94312	1.3732	0.00927
6454.44301	1.3731	0.00923
6452.9429	1.37297	0.00923
6451.44279	1.37289	0.00924
6449.94268	1.37288	0.00927
6448.44256	1.37293	0.00929
6446.94245	1.37301	0.00929
6445.44234	1.37307	0.00926
6443.94223	1.37307	0.00921
6442.44212	1.37301	0.00916
6440.94201	1.37293	0.00913
6439.44189	1.37283	0.00912
6437.94178	1.37273	0.00912
6436.44167	1.37267	0.00916
6434.94156	1.37265	0.0092
6433.44145	1.37266	0.00923
6431.94133	1.37266	0.00927
6430.44122	1.37266	0.00929
6428.94111	1.37267	0.00931
6427.441	1.37268	0.00931
6425.94089	1.3727	0.00931
6424.44078	1.3727	0.00932
6422.94066	1.37266	0.00932
6421.44055	1.37261	0.00934
6419.94044	1.37258	0.00936
6418.44033	1.3726	0.00939
6416.94022	1.37267	0.0094
6415.4401	1.37274	0.00938
6413.93999	1.37278	0.00936
6412.43988	1.37277	0.00932
6410.93977	1.3727	0.0093
6409.43966	1.37261	0.0093
6407.93955	1.37253	0.00933
6406.43943	1.37249	0.00938
6404.93932	1.37249	0.00943
6403.43921	1.37257	0.00948
6401.9391	1.37269	0.00949
6400.43899	1.37283	0.00946
6398.93887	1.3729	0.00941
6397.43876	1.37291	0.00934
6395.93865	1.37287	0.00927
6394.43854	1.37281	0.00921
6392.93843	1.37278	0.00916
6391.43832	1.37274	0.00912
6389.9382	1.37271	0.0091
6388.43809	1.37266	0.00907
6386.93798	1.37261	0.00906
6385.43787	1.37256	0.00905
6383.93776	1.37251	0.00904
6382.43764	1.37247	0.00904
6380.93753	1.37244	0.00904
6379.43742	1.3724	0.00905
6377.93731	1.37235	0.00907
6376.4372	1.37226	0.0091
6374.93709	1.37215	0.00917
6373.43697	1.37206	0.00925
6371.93686	1.37209	0.00933
6370.43675	1.37221	0.0094
6368.93664	1.37236	0.00943
6367.43653	1.37246	0.00943
6365.93641	1.37248	0.00942
6364.4363	1.37245	0.0094
6362.93619	1.37244	0.00938
6361.43608	1.37248	0.00935
6359.93597	1.37255	0.00932
6358.43586	1.37262	0.00928
6356.93574	1.37264	0.00923
6355.43563	1.37259	0.00918
6353.93552	1.37251	0.00914
6352.43541	1.37243	0.00912
6350.9353	1.3724	0.00911
6349.43518	1.37242	0.00911
6347.93507	1.37247	0.00908
6346.43496	1.37249	0.00905
6344.93485	1.37246	0.00902
6343.43474	1.37237	0.00899
6341.93463	1.37229	0.00897
6340.43451	1.37222	0.00897
6338.9344	1.3722	0.00898
6337.43429	1.37219	0.009
6335.93418	1.37218	0.00901
6334.43407	1.37215	0.00902
6332.93395	1.37211	0.00904
6331.43384	1.37207	0.00906
6329.93373	1.37206	0.00908
6328.43362	1.37207	0.00909
6326.93351	1.37211	0.0091
6325.4334	1.37211	0.0091
6323.93328	1.37209	0.00911
6322.43317	1.37204	0.00912
6320.93306	1.37199	0.00914
6319.43295	1.372	0.00915
6317.93284	1.37205	0.00917
6316.43273	1.37213	0.00916
6314.93261	1.37215	0.00915
6313.4325	1.37211	0.00913
6311.93239	1.37204	0.00913
6310.43228	1.37198	0.00913
6308.93217	1.37198	0.00914
6307.43205	1.37202	0.00916
6305.93194	1.37206	0.00917
6304.43183	1.37209	0.00917
6302.93172	1.37211	0.00915
6301.43161	1.37211	0.00913
6299.9315	1.37211	0.0091
6298.43138	1.3721	0.00908
6296.93127	1.37207	0.00905
6295.43116	1.37203	0.00905
6293.93105	1.37201	0.00903
6292.43094	1.37199	0.00903
6290.93082	1.37199	0.00902
6289.43071	1.37199	0.00901
6287.9306	1.37197	0.00901
6286.43049	1.37192	0.00901
6284.93038	1.37186	0.00901
6283.43027	1.37183	0.00904
6281.93015	1.37183	0.00906
6280.43004	1.37185	0.00909
6278.92993	1.37187	0.0091
6277.42982	1.37188	0.00912
6275.92971	1.37188	0.00912
6274.42959	1.37192	0.00912
6272.92948	1.37197	0.0091
6271.42937	1.37201	0.00906
6269.92926	1.37202	0.00903
6268.42915	1.37198	0.009
6266.92904	1.37191	0.009
6265.42892	1.37185	0.009
6263.92881	1.37184	0.00901
6262.4287	1.37188	0.00901
6260.92859	1.37196	0.009
6259.42848	1.37203	0.00896
6257.92836	1.37205	0.00891
6256.42825	1.37199	0.00886
6254.92814	1.3719	0.00882
6253.42803	1.37181	0.0088
6251.92792	1.37177	0.0088
6250.42781	1.37175	0.00882
6248.92769	1.37176	0.00883
6247.42758	1.37176	0.00883
6245.92747	1.37176	0.00882
6244.42736	1.37175	0.00882
6242.92725	1.37172	0.00881
6241.42713	1.37168	0.00881
6239.92702	1.37164	0.00882
6238.42691	1.37163	0.00883
6236.9268	1.37164	0.00883
6235.42669	1.37167	0.00883
6233.92658	1.37169	0.00883
6232.42646	1.37168	0.00882
6230.92635	1.37164	0.00882
6229.42624	1.3716	0.00882
6227.92613	1.37159	0.00882
6226.42602	1.37165	0.00881
6224.9259	1.37172	0.00879
6223.42579	1.37177	0.00874
6221.92568	1.37175	0.00869
6220.42557	1.37169	0.00864
6218.92546	1.3716	0.00861
6217.42535	1.37153	0.00858
6215.92523	1.3715	0.00856
6214.42512	1.37148	0.00856
6212.92501	1.37145	0.00856
6211.4249	1.37139	0.00856
6209.92479	1.37131	0.00858
6208.42467	1.37122	0.00862
6206.92456	1.37117	0.00867
6205.42445	1.37117	0.00872
6203.92434	1.3712	0.00877
6202.42423	1.37126	0.00881
6200.92412	1.37133	0.00882
6199.424	1.37139	0.0088
6197.92389	1.37144	0.00877
6196.42378	1.37145	0.00873
6194.92367	1.37143	0.00869
6193.42356	1.37138	0.00865
6191.92344	1.37134	0.00861
6190.42333	1.37133	0.0086
6188.92322	1.37129	0.00859
6187.42311	1.37126	0.00859
6185.923	1.37119	0.0086
6184.42289	1.37115	0.00862
6182.92277	1.37115	0.00863
6181.42266	1.37119	0.00863
6179.92255	1.37126	0.00862
6178.42244	1.37129	0.00858
6176.92233	1.37128	0.00852
6175.42221	1.37122	0.00847
6173.9221	1.37112	0.00845
6172.42199	1.37097	0.00847
6170.92188	1.37084	0.00851
6169.42177	1.37075	0.00859
6167.92166	1.37076	0.00868
6166.42154	1.37085	0.00876
6164.92143	1.37099	0.00879
6163.42132	1.37111	0.0088
6161.92121	1.37118	0.00876
6160.4211	1.37119	0.00871
6158.92098	1.37118	0.00865
6157.42087	1.37116	0.0086
6155.92076	1.37115	0.00855
6154.42065	1.37113	0.00851
6152.92054	1.37108	0.00847
6151.42043	1.37102	0.00844
6149.92031	1.37096	0.00844
6148.4202	1.37091	0.00843
6146.92009	1.37087	0.00843
6145.41998	1.37084	0.00844
6143.91987	1.37081	0.00846
6142.41975	1.37078	0.00847
6140.91964	1.37075	0.00849
6139.41953	1.37074	0.0085
6137.91942	1.37073	0.00852
6136.41931	1.37073	0.00853
6134.9192	1.37073	0.00854
6133.41908	1.37074	0.00854
6131.91897	1.37076	0.00853
6130.41886	1.37074	0.00852
6128.91875	1.37069	0.00853
6127.41864	1.37061	0.00854
6125.91853	1.37057	0.00857
6124.41841	1.37058	0.00859
6122.9183	1.37064	0.00862
6121.41819	1.37069	0.00863
6119.91808	1.37071	0.00863
6118.41797	1.37069	0.00864
6116.91785	1.37067	0.00863
6115.41774	1.37069	0.00862
6113.91763	1.37075	0.00861
6112.41752	1.37083	0.00856
6110.91741	1.37086	0.00851
6109.4173	1.37083	0.00846
6107.91718	1.37075	0.00841
6106.41707	1.37064	0.00839
6104.91696	1.37057	0.00839
6103.41685	1.37053	0.00841
6101.91674	1.37053	0.00842
6100.41662	1.37055	0.00843
6098.91651	1.37055	0.00844
6097.4164	1.37054	0.00844
6095.91629	1.37052	0.00843
6094.41618	1.37049	0.00843
6092.91607	1.37047	0.00844
6091.41595	1.37045	0.00846
6089.91584	1.37042	0.00848
6088.41573	1.37041	0.00851
6086.91562	1.37045	0.00851
6085.41551	1.37053	0.0085
6083.91539	1.37065	0.00846
6082.41528	1.3707	0.0084
6080.91517	1.37066	0.00833
6079.41506	1.37053	0.00829
6077.91495	1.37038	0.00827
6076.41484	1.37028	0.00829
6074.91472	1.37027	0.00833
6073.41461	1.37033	0.00836
6071.9145	1.3704	0.00838
6070.41439	1.37045	0.00837
6068.91428	1.37049	0.00832
6067.41416	1.3705	0.00826
6065.91405	1.37049	0.00821
6064.41394	1.37042	0.00816
6062.91383	1.37033	0.00813
6061.41372	1.37022	0.00812
6059.91361	1.37016	0.00813
6058.41349	1.37014	0.00814
6056.91338	1.37014	0.00815
6055.41327	1.37014	0.00816
6053.91316	1.37011	0.00816
6052.41305	1.37007	0.00816
6050.91293	1.37002	0.00818
6049.41282	1.36996	0.0082
6047.91271	1.36992	0.00823
6046.4126	1.36989	0.00828
6044.91249	1.3699	0.00833
6043.41238	1.36997	0.00835
6041.91226	1.37005	0.00835
6040.41215	1.37012	0.00832
6038.91204	1.37014	0.00828
6037.41193	1.37012	0.00824
6035.91182	1.37005	0.0082
6034.4117	1.36996	0.00819
6032.91159	1.36989	0.0082
6031.41148	1.36985	0.00823
6029.91137	1.36986	0.00827
6028.41126	1.36989	0.0083
6026.91115	1.36993	0.00832
6025.41103	1.36998	0.00831
6023.91092	1.37003	0.00829
6022.41081	1.37009	0.00824
6020.9107	1.37013	0.00817
6019.41059	1.37014	0.00809
6017.91047	1.37008	0.00802
6016.41036	1.36999	0.00796
6014.91025	1.36987	0.00793
6013.41014	1.36976	0.00792
6011.91003	1.36964	0.00794
6010.40992	1.36957	0.00799
6008.9098	1.36954	0.00804
6007.40969	1.36956	0.00809
6005.90958	1.36961	0.00813
6004.40947	1.36965	0.00814
6002.90936	1.36968	0.00813
6001.40924	1.3697	0.00811
5999.90913	1.3697	0.00808
5998.40902	1.36968	0.00805
5996.90891	1.36962	0.00804
5995.4088	1.36956	0.00803
5993.90869	1.36952	0.00803
5992.40857	1.36952	0.00803
5990.90846	1.36953	0.00803
5989.40835	1.36953	0.00803
5987.90824	1.3695	0.00802
5986.40813	1.36943	0.00802
5984.90801	1.36937	0.00803
5983.4079	1.36932	0.00805
5981.90779	1.3693	0.00808
5980.40768	1.3693	0.00811
5978.90757	1.36933	0.00814
5977.40746	1.36935	0.00816
5975.90734	1.36936	0.00817
5974.40723	1.36937	0.00817
5972.90712	1.3694	0.00816
5971.40701	1.36944	0.00813
5969.9069	1.36947	0.0081
5968.40678	1.36946	0.00807
5966.90667	1.3694	0.00805
5965.40656	1.36933	0.00802
5963.90645	1.36929	0.00802
5962.40634	1.36928	0.00802
5960.90623	1.36929	0.00802
5959.40611	1.36927	0.00802
5957.906	1.36922	0.00803
5956.40589	1.36917	0.00804
5954.90578	1.36916	0.00806
5953.40567	1.36918	0.00806
5951.90555	1.36922	0.00806
5950.40544	1.36923	0.00806
5948.90533	1.3692	0.00806
5947.40522	1.36916	0.00806
5945.90511	1.36914	0.00807
5944.405	1.36915	0.00807
5942.90488	1.36918	0.00807
5941.40477	1.36922	0.00806
5939.90466	1.36924	0.00805
5938.40455	1.36924	0.00802
5936.90444	1.36922	0.00801
5935.40433	1.36918	0.00798
5933.90421	1.36919	0.00797
5932.4041	1.36923	0.00794
5930.90399	1.36927	0.0079
5929.40388	1.3693	0.00784
5927.90377	1.36929	0.00777
5926.40365	1.36924	0.0077
5924.90354	1.36917	0.00764
5923.40343	1.36906	0.00759
5921.90332	1.36895	0.00757
5920.40321	1.36883	0.00758
5918.9031	1.36874	0.00761
5917.40298	1.36868	0.00764
5915.90287	1.36865	0.00769
5914.40276	1.36865	0.00773
5912.90265	1.36864	0.00776
5911.40254	1.36862	0.00779
5909.90242	1.3686	0.00783
5908.40231	1.36856	0.00787
5906.9022	1.36857	0.0079
5905.40209	1.36861	0.00792
5903.90198	1.36867	0.00793
5902.40187	1.36873	0.00792
5900.90175	1.36876	0.00789
5899.40164	1.36874	0.00787
5897.90153	1.36869	0.00784
5896.40142	1.36866	0.00782
5894.90131	1.36865	0.00781
5893.40119	1.36866	0.0078
5891.90108	1.36864	0.00779
5890.40097	1.36861	0.00779
5888.90086	1.36858	0.00779
5887.40075	1.36857	0.00778
5885.90064	1.36859	0.00777
5884.40052	1.36862	0.00775
5882.90041	1.36864	0.00771
5881.4003	1.36862	0.00767
5879.90019	1.36857	0.00763
5878.40008	1.36849	0.0076
5876.89996	1.36841	0.00759
5875.39985	1.36836	0.00759
5873.89974	1.36833	0.0076
5872.39963	1.36832	0.00761
5870.89952	1.3683	0.00763
5869.39941	1.36825	0.00763
5867.89929	1.36822	0.00765
5866.39918	1.36821	0.00765
5864.89907	1.36821	0.00765
5863.39896	1.36822	0.00765
5861.89885	1.36819	0.00765
5860.39873	1.36813	0.00767
5858.89862	1.36806	0.00768
5857.39851	1.36802	0.00771
5855.8984	1.36802	0.00775
5854.39829	1.36807	0.00778
5852.89818	1.36814	0.00778
5851.39806	1.36819	0.00777
5849.89795	1.36822	0.00774
5848.39784	1.36822	0.0077
5846.89773	1.36822	0.00764
5845.39762	1.36819	0.0076
5843.8975	1.36813	0.00756
5842.39739	1.36803	0.00756
5840.89728	1.36793	0.00757
5839.39717	1.36786	0.0076
5837.89706	1.36785	0.00764
5836.39695	1.36789	0.00765
5834.89683	1.36795	0.00767
5833.39672	1.368	0.00765
5831.89661	1.36802	0.00762
5830.3965	1.36799	0.00759
5828.89639	1.36792	0.00757
5827.39627	1.36784	0.00756
5825.89616	1.36778	0.00756
5824.39605	1.36779	0.00757
5822.89594	1.36784	0.00757
5821.39583	1.36787	0.00754
5819.89572	1.36786	0.00752
5818.3956	1.3678	0.00749
5816.89549	1.36771	0.00748
5815.39538	1.36763	0.00748
5813.89527	1.36756	0.00751
5812.39516	1.36753	0.00754
5810.89504	1.36757	0.00757
5809.39493	1.36762	0.00758
5807.89482	1.36768	0.00756
5806.39471	1.3677	0.00754
5804.8946	1.36765	0.0075
5803.39449	1.36759	0.00748
5801.89437	1.36752	0.00746
5800.39426	1.36747	0.00746
5798.89415	1.36745	0.00746
5797.39404	1.36744	0.00747
5795.89393	1.36743	0.00748
5794.39381	1.36743	0.00747
5792.8937	1.36741	0.00746
5791.39359	1.36739	0.00746
5789.89348	1.36735	0.00745
5788.39337	1.3673	0.00745
5786.89326	1.36726	0.00746
5785.39314	1.36723	0.00747
5783.89303	1.36723	0.00749
5782.39292	1.36724	0.00749
5780.89281	1.36724	0.00749
5779.3927	1.36726	0.00747
5777.89258	1.36726	0.00745
5776.39247	1.36726	0.00742
5774.89236	1.3672	0.00739
5773.39225	1.3671	0.00738
5771.89214	1.36698	0.0074
5770.39203	1.36687	0.00745
5768.89191	1.36682	0.00751
5767.3918	1.36685	0.00757
5765.89169	1.36693	0.00762
5764.39158	1.36701	0.00765
5762.89147	1.36707	0.00765
5761.39135	1.36709	0.00764
5759.89124	1.3671	0.00759
5758.39113	1.36711	0.00756
5756.89102	1.36712	0.00751
5755.39091	1.36711	0.00747
5753.8908	1.36708	0.00743
5752.39068	1.367	0.00741
5750.89057	1.36692	0.00741
5749.39046	1.36687	0.00742
5747.89035	1.36685	0.00742
5746.39024	1.36688	0.00743
5744.89013	1.36692	0.00741
5743.39001	1.36695	0.00738
5741.8899	1.36694	0.00734
5740.38979	1.36688	0.00731
5738.88968	1.36679	0.00728
5737.38957	1.3667	0.00726
5735.88945	1.36664	0.00727
5734.38934	1.3666	0.00728
5732.88923	1.36657	0.0073
5731.38912	1.36654	0.00731
5729.88901	1.36649	0.00734
5728.3889	1.36646	0.00736
5726.88878	1.36646	0.00737
5725.38867	1.36647	0.00738
5723.88856	1.36648	0.00739
5722.38845	1.36647	0.00738
5720.88834	1.36646	0.00737
5719.38822	1.36641	0.00736
5717.88811	1.36637	0.00735
5716.388	1.36633	0.00735
5714.88789	1.36629	0.00736
5713.38778	1.36625	0.00737
5711.88767	1.3662	0.0074
5710.38755	1.36617	0.00743
5708.88744	1.36613	0.00747
5707.38733	1.36613	0.00751
5705.88722	1.36616	0.00754
5704.38711	1.3662	0.00754
5702.88699	1.36625	0.00755
5701.38688	1.36627	0.00754
5699.88677	1.36626	0.00751
5698.38666	1.36621	0.00749
5696.88655	1.36618	0.00749
5695.38644	1.36618	0.00747
5693.88632	1.3662	0.00746
5692.38621	1.3662	0.00744
5690.8861	1.36618	0.00743
5689.38599	1.36611	0.00741
5687.88588	1.36604	0.00742
5686.38576	1.36599	0.00742
5684.88565	1.36598	0.00744
5683.38554	1.36601	0.00744
5681.88543	1.36603	0.00743
5680.38532	1.36602	0.00743
5678.88521	1.36598	0.00742
5677.38509	1.3659	0.00742
5675.88498	1.36585	0.00744
5674.38487	1.36582	0.00746
5672.88476	1.36582	0.00748
5671.38465	1.36584	0.00751
5669.88453	1.36587	0.00751
5668.38442	1.3659	0.00751
5666.88431	1.36591	0.00749
5665.3842	1.36592	0.00746
5663.88409	1.36591	0.00743
5662.38398	1.36587	0.00741
5660.88386	1.36582	0.00738
5659.38375	1.36579	0.00737
5657.88364	1.36576	0.00736
5656.38353	1.36573	0.00736
5654.88342	1.36569	0.00736
5653.3833	1.36565	0.00737
5651.88319	1.36561	0.00738
5650.38308	1.36559	0.00739
5648.88297	1.36557	0.00741
5647.38286	1.36556	0.00743
5645.88275	1.36556	0.00744
5644.38263	1.36558	0.00744
5642.88252	1.36559	0.00743
5641.38241	1.36561	0.0074
5639.8823	1.36559	0.00739
5638.38219	1.36555	0.00736
5636.88207	1.3655	0.00735
5635.38196	1.36545	0.00734
5633.88185	1.36543	0.00734
5632.38174	1.36542	0.00734
5630.88163	1.36539	0.00734
5629.38152	1.36534	0.00735
5627.8814	1.36529	0.00737
5626.38129	1.36526	0.00738
5624.88118	1.36525	0.00741
5623.38107	1.36527	0.00741
5621.88096	1.3653	0.00741
5620.38084	1.36532	0.00741
5618.88073	1.36531	0.00739
5617.38062	1.36527	0.00737
5615.88051	1.3652	0.00736
5614.3804	1.36515	0.00737
5612.88029	1.36512	0.00738
5611.38017	1.36512	0.0074
5609.88006	1.36514	0.0074
5608.37995	1.36516	0.0074
5606.87984	1.36515	0.00739
5605.37973	1.36512	0.00739
5603.87961	1.36509	0.00738
5602.3795	1.36507	0.00738
5600.87939	1.36505	0.00738
5599.37928	1.36505	0.00738
5597.87917	1.36506	0.00738
5596.37906	1.36507	0.00736
5594.87894	1.3651	0.00733
5593.37883	1.36511	0.00728
5591.87872	1.36509	0.00723
5590.37861	1.36503	0.00718
5588.8785	1.36496	0.00713
5587.37838	1.36485	0.00711
5585.87827	1.36475	0.00711
5584.37816	1.36465	0.00714
5582.87805	1.36456	0.00717
5581.37794	1.3645	0.00722
5579.87783	1.36446	0.00728
5578.37771	1.36444	0.00733
5576.8776	1.36443	0.00739
5575.37749	1.36443	0.00745
5573.87738	1.36446	0.00748
5572.37727	1.36448	0.00752
5570.87715	1.36449	0.00754
5569.37704	1.3645	0.00757
5567.87693	1.3645	0.00758
5566.37682	1.36452	0.0076
5564.87671	1.36456	0.00761
5563.3766	1.36461	0.0076
5561.87648	1.36465	0.00759
5560.37637	1.36469	0.00756
5558.87626	1.36472	0.0075
5557.37615	1.36474	0.00744
5555.87604	1.36472	0.00739
5554.37592	1.36465	0.00735
5552.87581	1.36456	0.00731
5551.3757	1.3645	0.0073
5549.87559	1.36445	0.0073
5548.37548	1.36441	0.00731
5546.87537	1.36437	0.00734
5545.37525	1.36431	0.00736
5543.87514	1.36431	0.00739
5542.37503	1.36435	0.00739
5540.87492	1.36442	0.00738
5539.37481	1.36446	0.00735
5537.8747	1.36444	0.00732
5536.37458	1.36436	0.00729
5534.87447	1.36426	0.00727
5533.37436	1.36419	0.00727
5531.87425	1.36416	0.00728
5530.37414	1.36416	0.0073
5528.87402	1.36416	0.00732
5527.37391	1.36415	0.00732
5525.8738	1.36412	0.00733
5524.37369	1.3641	0.00733
5522.87358	1.36409	0.00733
5521.37347	1.36408	0.00733
5519.87335	1.36407	0.00733
5518.37324	1.36405	0.00734
5516.87313	1.36401	0.00735
5515.37302	1.36397	0.00737
5513.87291	1.36395	0.00737
5512.37279	1.36398	0.00738
5510.87268	1.36403	0.00737
5509.37257	1.36407	0.00735
5507.87246	1.36404	0.00734
5506.37235	1.36396	0.00733
5504.87224	1.36388	0.00733
5503.37212	1.36384	0.00736
5501.87201	1.36387	0.00738
5500.3719	1.36394	0.00738
5498.87179	1.36405	0.00734
5497.37168	1.36413	0.00728
5495.87156	1.36415	0.00719
5494.37145	1.36407	0.00711
5492.87134	1.3639	0.00704
5491.37123	1.3637	0.00703
5489.87112	1.36354	0.00707
5488.37101	1.36346	0.00713
5486.87089	1.36344	0.00722
5485.37078	1.36344	0.00731
5483.87067	1.36347	0.00738
5482.37056	1.36354	0.00743
5480.87045	1.36366	0.00743
5479.37033	1.36379	0.0074
5477.87022	1.36385	0.00736
5476.37011	1.36382	0.00729
5474.87	1.36375	0.00725
5473.36989	1.36368	0.00721
5471.86978	1.36366	0.00718
5470.36966	1.36366	0.00716
5468.86955	1.36365	0.00713
5467.36944	1.36362	0.00712
5465.86933	1.36358	0.00709
5464.36922	1.36354	0.00708
5462.8691	1.3635	0.00706
5461.36899	1.36347	0.00706
5459.86888	1.36342	0.00707
5458.36877	1.36338	0.00709
5456.86866	1.36335	0.0071
5455.36855	1.36336	0.00711
5453.86843	1.3634	0.0071
5452.36832	1.36348	0.00707
5450.86821	1.36354	0.007
5449.3681	1.36354	0.00692
5447.86799	1.36347	0.00685
5446.36787	1.36335	0.00678
5444.86776	1.36319	0.00676
5443.36765	1.36304	0.00676
5441.86754	1.36293	0.0068
5440.36743	1.36287	0.00686
5438.86732	1.36288	0.00691
5437.3672	1.36293	0.00695
5435.86709	1.36299	0.00694
5434.36698	1.36302	0.00691
5432.86687	1.36301	0.00688
5431.36676	1.36293	0.00684
5429.86664	1.3628	0.00683
5428.36653	1.36263	0.00687
5426.86642	1.36249	0.00695
5425.36631	1.36244	0.00706
5423.8662	1.36249	0.00716
5422.36609	1.3626	0.00724
5420.86597	1.36278	0.00726
5419.36586	1.36298	0.00721
5417.86575	1.36317	0.00709
5416.36564	1.36326	0.00693
5414.86553	1.36316	0.00678
5413.36541	1.36292	0.00665
5411.8653	1.36262	0.0066
5410.36519	1.36238	0.00662
5408.86508	1.36223	0.00671
5407.36497	1.36215	0.00682
5405.86486	1.36213	0.00696
5404.36474	1.36217	0.00708
5402.86463	1.36228	0.00715
5401.36452	1.36247	0.00716
5399.86441	1.36267	0.00711
5398.3643	1.3628	0.007
5396.86418	1.36279	0.0069
5395.36407	1.36262	0.00681
5393.86396	1.36238	0.00676
5392.36385	1.36218	0.00677
5390.86374	1.36213	0.00681
5389.36363	1.36221	0.00685
5387.86351	1.36232	0.00688
5386.3634	1.36234	0.00688
5384.86329	1.36227	0.00687
5383.36318	1.36218	0.00687
5381.86307	1.36216	0.00685
5380.36295	1.36221	0.00683
5378.86284	1.36227	0.0068
5377.36273	1.36226	0.00677
5375.86262	1.36217	0.00674
5374.36251	1.36206	0.00672
5372.8624	1.36197	0.00672
5371.36228	1.36192	0.00674
5369.86217	1.36191	0.00676
5368.36206	1.36191	0.00679
5366.86195	1.36192	0.0068
5365.36184	1.36192	0.00681
5363.86172	1.36191	0.0068
5362.36161	1.3619	0.00679
5360.8615	1.36192	0.00677
5359.36139	1.36195	0.00673
5357.86128	1.36197	0.00669
5356.36117	1.36193	0.00664
5354.86105	1.36184	0.00662
5353.36094	1.36169	0.00662
5351.86083	1.36159	0.00664
5350.36072	1.3616	0.00665
5348.86061	1.36171	0.00665
5347.3605	1.36183	0.00661
5345.86038	1.36185	0.00654
5344.36027	1.36176	0.00646
5342.86016	1.36162	0.00639
5341.36005	1.36149	0.00635
5339.85994	1.36137	0.00634
5338.35982	1.36125	0.00637
5336.85971	1.36112	0.00643
5335.3596	1.36107	0.00649
5333.85949	1.36111	0.00653
5332.35938	1.36122	0.00653
5330.85927	1.36131	0.00649
5329.35915	1.36132	0.00643
5327.85904	1.36121	0.00638
5326.35893	1.361	0.00636
5324.85882	1.36081	0.00638
5323.35871	1.36068	0.00643
5321.85859	1.36066	0.00651
5320.35848	1.3607	0.00657
5318.85837	1.36076	0.00663
5317.35826	1.36079	0.00666
5315.85815	1.36079	0.00666
5314.35804	1.36078	0.00664
5312.85792	1.36081	0.00661
5311.35781	1.36083	0.00657
5309.8577	1.36083	0.00652
5308.35759	1.36074	0.00649
5306.85748	1.3606	0.00646
5305.35736	1.36047	0.00647
5303.85725	1.36037	0.00651
5302.35714	1.36032	0.00658
5300.85703	1.3603	0.00664
5299.35692	1.36033	0.00668
5297.85681	1.36041	0.00668
5296.35669	1.36053	0.00664
5294.85658	1.36059	0.00658
5293.35647	1.36055	0.0065
5291.85636	1.36038	0.00645
5290.35625	1.36016	0.00643
5288.85613	1.36	0.00646
5287.35602	1.35993	0.00651
5285.85591	1.35991	0.00657
5284.3558	1.35991	0.00664
5282.85569	1.35991	0.00669
5281.35558	1.35991	0.00673
5279.85546	1.35992	0.00675
5278.35535	1.35993	0.00676
5276.85524	1.35993	0.00676
5275.35513	1.35993	0.00676
5273.85502	1.35993	0.00675
5272.3549	1.35991	0.00673
5270.85479	1.35991	0.00669
5269.35468	1.3599	0.00665
5267.85457	1.35989	0.0066
5266.35446	1.35984	0.00657
5264.85435	1.3597	0.00654
5263.35423	1.35952	0.00655
5261.85412	1.35937	0.00658
5260.35401	1.35929	0.00664
5258.8539	1.35931	0.00669
5257.35379	1.35932	0.00674
5255.85367	1.3593	0.00678
5254.35356	1.35925	0.0068
5252.85345	1.35922	0.00681
5251.35334	1.35922	0.00681
5249.85323	1.3592	0.00681
5248.35312	1.35909	0.00684
5246.853	1.35892	0.00691
5245.35289	1.35876	0.00699
5243.85278	1.35869	0.00712
5242.35267	1.35873	0.00724
5240.85256	1.35884	0.00735
5239.35244	1.35897	0.00741
5237.85233	1.35908	0.00744
5236.35222	1.35918	0.00743
5234.85211	1.35924	0.00739
5233.352	1.35926	0.00734
5231.85189	1.35923	0.00729
5230.35177	1.35917	0.00726
5228.85166	1.3591	0.00724
5227.35155	1.35905	0.00724
5225.85144	1.35901	0.00725
5224.35133	1.35897	0.00727
5222.85121	1.35895	0.00729
5221.3511	1.35895	0.00731
5219.85099	1.35894	0.00734
5218.35088	1.3589	0.00737
5216.85077	1.35885	0.0074
5215.35066	1.35884	0.00744
5213.85054	1.35891	0.00744
5212.35043	1.35904	0.00741
5210.85032	1.35914	0.00736
5209.35021	1.35911	0.0073
5207.8501	1.35894	0.00727
5206.34998	1.35872	0.00727
5204.84987	1.35857	0.00732
5203.34976	1.35853	0.0074
5201.84965	1.35861	0.00748
5200.34954	1.3587	0.00755
5198.84943	1.35876	0.00758
5197.34931	1.35879	0.0076
5195.8492	1.35882	0.00758
5194.34909	1.35885	0.00756
5192.84898	1.35889	0.00753
5191.34887	1.35891	0.00749
5189.84875	1.3589	0.00745
5188.34864	1.35886	0.00741
5186.84853	1.3588	0.00738
5185.34842	1.35871	0.00737
5183.84831	1.35862	0.00737
5182.3482	1.35856	0.00741
5180.84808	1.35854	0.00744
5179.34797	1.35856	0.00748
5177.84786	1.35859	0.0075
5176.34775	1.35861	0.00751
5174.84764	1.35861	0.00751
5173.34752	1.3586	0.00751
5171.84741	1.35859	0.0075
5170.3473	1.35858	0.0075
5168.84719	1.35857	0.0075
5167.34708	1.35855	0.0075
5165.84697	1.35852	0.0075
5164.34685	1.3585	0.0075
5162.84674	1.35851	0.00751
5161.34663	1.35853	0.0075
5159.84652	1.35855	0.00749
5158.34641	1.35853	0.00747
5156.8463	1.35848	0.00747
5155.34618	1.35842	0.00747
5153.84607	1.35839	0.00748
5152.34596	1.35838	0.0075
5150.84585	1.3584	0.00751
5149.34574	1.35844	0.00752
5147.84562	1.35847	0.00751
5146.34551	1.35848	0.0075
5144.8454	1.35844	0.00749
5143.34529	1.35843	0.00748
5141.84518	1.35845	0.00746
5140.34507	1.35851	0.00742
5138.84495	1.35858	0.00736
5137.34484	1.3586	0.00728
5135.84473	1.35857	0.0072
5134.34462	1.35847	0.00713
5132.84451	1.35833	0.00707
5131.34439	1.35819	0.00706
5129.84428	1.35806	0.00708
5128.34417	1.35795	0.00713
5126.84406	1.35787	0.00719
5125.34395	1.35785	0.00727
5123.84384	1.35786	0.00733
5122.34372	1.3579	0.00739
5120.84361	1.35797	0.00742
5119.3435	1.35803	0.00743
5117.84339	1.35808	0.00742
5116.34328	1.35811	0.00739
5114.84316	1.35813	0.00734
5113.34305	1.35814	0.00729
5111.84294	1.35814	0.00723
5110.34283	1.35812	0.00717
5108.84272	1.35805	0.00712
5107.34261	1.35794	0.00709
5105.84249	1.35781	0.0071
5104.34238	1.35772	0.00712
5102.84227	1.35769	0.00714
5101.34216	1.35773	0.00716
5099.84205	1.35776	0.00717
5098.34193	1.35774	0.00719
5096.84182	1.35767	0.00719
5095.34171	1.35758	0.00722
5093.8416	1.35755	0.00725
5092.34149	1.35758	0.00728
5090.84138	1.35766	0.0073
5089.34126	1.35773	0.00729
5087.84115	1.35776	0.00727
5086.34104	1.35776	0.00723
5084.84093	1.35774	0.00719
5083.34082	1.35772	0.00715
5081.8407	1.35769	0.00712
5080.34059	1.35764	0.00709
5078.84048	1.35759	0.00708
5077.34037	1.35757	0.00707
5075.84026	1.35757	0.00705
5074.34015	1.35759	0.00702
5072.84003	1.35759	0.00699
5071.33992	1.35756	0.00696
5069.83981	1.35748	0.00693
5068.3397	1.35737	0.00692
5066.83959	1.35731	0.00693
5065.33947	1.3573	0.00693
5063.83936	1.35731	0.00693
5062.33925	1.35732	0.00693
5060.83914	1.35728	0.00693
5059.33903	1.35721	0.00694
5057.83892	1.35715	0.00695
5056.3388	1.35713	0.00697
5054.83869	1.35716	0.00697
5053.33858	1.35723	0.00695
5051.83847	1.35729	0.00693
5050.33836	1.35729	0.00689
5048.83824	1.35724	0.00683
5047.33813	1.35716	0.00679
5045.83802	1.35709	0.00676
5044.33791	1.35705	0.00675
5042.8378	1.35701	0.00674
5041.33769	1.35698	0.00674
5039.83757	1.35694	0.00675
5038.33746	1.35691	0.00676
5036.83735	1.35689	0.00676
5035.33724	1.3569	0.00675
5033.83713	1.35693	0.00673
5032.33701	1.35697	0.0067
5030.8369	1.35697	0.00665
5029.33679	1.35692	0.0066
5027.83668	1.35683	0.00656
5026.33657	1.35674	0.00653
5024.83646	1.35669	0.00652
5023.33634	1.35668	0.0065
5021.83623	1.35668	0.00649
5020.33612	1.35666	0.00646
5018.83601	1.35662	0.00642
5017.3359	1.35657	0.00639
5015.83578	1.3565	0.00636
5014.33567	1.35642	0.00634
5012.83556	1.35634	0.00634
5011.33545	1.35625	0.00634
5009.83534	1.35618	0.00637
5008.33523	1.35613	0.00639
5006.83511	1.3561	0.00642
5005.335	1.35609	0.00643
5003.83489	1.35609	0.00645
5002.33478	1.35608	0.00646
5000.83467	1.35604	0.00647
4999.33455	1.356	0.00648
4997.83444	1.35597	0.00649
4996.33433	1.35597	0.00649
4994.83422	1.35599	0.00649
4993.33411	1.35601	0.00648
4991.834	1.35601	0.00646
4990.33388	1.35599	0.00643
4988.83377	1.35597	0.0064
4987.33366	1.35594	0.00637
4985.83355	1.35588	0.00634
4984.33344	1.35582	0.00634
4982.83332	1.35578	0.00633
4981.33321	1.35575	0.00633
4979.8331	1.35575	0.00632
4978.33299	1.35575	0.00631
4976.83288	1.35575	0.00628
4975.33277	1.35573	0.00625
4973.83265	1.35569	0.00622
4972.33254	1.35564	0.00619
4970.83243	1.35559	0.00615
4969.33232	1.35555	0.00612
4967.83221	1.3555	0.00611
4966.3321	1.35546	0.00609
4964.83198	1.35542	0.00608
4963.33187	1.35536	0.00606
4961.83176	1.3553	0.00605
4960.33165	1.35525	0.00605
4958.83154	1.35522	0.00603
4957.33142	1.35523	0.006
4955.83131	1.35521	0.00597
4954.3312	1.35514	0.00595
4952.83109	1.35504	0.00594
4951.33098	1.35491	0.00594
4949.83087	1.35483	0.00595
4948.33075	1.3548	0.00596
4946.83064	1.35481	0.00597
4945.33053	1.3548	0.00598
4943.83042	1.35476	0.00597
4942.33031	1.35468	0.00597
4940.83019	1.35459	0.00598
4939.33008	1.35451	0.00601
4937.82997	1.35447	0.00603
4936.32986	1.35446	0.00606
4934.82975	1.35448	0.00608
4933.32964	1.35449	0.00609
4931.82952	1.35448	0.00608
4930.32941	1.35444	0.00607
4928.8293	1.35438	0.00608
4927.32919	1.35432	0.00608
4925.82908	1.35428	0.0061
4924.32896	1.35428	0.00611
4922.82885	1.35429	0.00612
4921.32874	1.3543	0.00612
4919.82863	1.35428	0.00612
4918.32852	1.35425	0.00612
4916.82841	1.35421	0.00612
4915.32829	1.3542	0.00612
4913.82818	1.35423	0.0061
4912.32807	1.35428	0.00607
4910.82796	1.35431	0.00602
4909.32785	1.35429	0.00597
4907.82773	1.3542	0.00593
4906.32762	1.35407	0.00591
4904.82751	1.35396	0.00592
4903.3274	1.35392	0.00594
4901.82729	1.35396	0.00595
4900.32718	1.35405	0.00594
4898.82706	1.35412	0.0059
4897.32695	1.35414	0.00583
4895.82684	1.35409	0.00576
4894.32673	1.354	0.00569
4892.82662	1.3539	0.00562
4891.3265	1.35382	0.00558
4889.82639	1.35377	0.00554
4888.32628	1.35372	0.00551
4886.82617	1.35365	0.00549
4885.32606	1.35355	0.00547
4883.82595	1.35346	0.00546
4882.32583	1.35337	0.00547
4880.82572	1.3533	0.00547
4879.32561	1.35328	0.00547
4877.8255	1.35326	0.00546
4876.32539	1.35323	0.00545
4874.82527	1.35317	0.00543
4873.32516	1.35306	0.00543
4871.82505	1.35294	0.00544
4870.32494	1.35284	0.00546
4868.82483	1.35279	0.00549
4867.32472	1.35278	0.00553
4865.8246	1.35281	0.00554
4864.32449	1.35282	0.00554
4862.82438	1.3528	0.00553
4861.32427	1.35275	0.00551
4859.82416	1.35268	0.0055
4858.32404	1.35262	0.00548
4856.82393	1.35255	0.00549
4855.32382	1.35249	0.00549
4853.82371	1.35242	0.00551
4852.3236	1.35238	0.00553
4850.82349	1.35235	0.00556
4849.32337	1.35233	0.00557
4847.82326	1.35232	0.00559
4846.32315	1.35231	0.00559
4844.82304	1.35232	0.00558
4843.32293	1.35233	0.00556
4841.82281	1.3523	0.00554
4840.3227	1.35225	0.00551
4838.82259	1.35218	0.0055
4837.32248	1.35212	0.00549
4835.82237	1.35209	0.00548
4834.32226	1.35208	0.00547
4832.82214	1.35208	0.00545
4831.32203	1.35206	0.00543
4829.82192	1.35201	0.0054
4828.32181	1.35194	0.00537
4826.8217	1.35187	0.00535
4825.32158	1.35179	0.00535
4823.82147	1.35174	0.00534
4822.32136	1.35169	0.00534
4820.82125	1.35167	0.00533
4819.32114	1.35165	0.00532
4817.82103	1.35161	0.00529
4816.32091	1.35154	0.00527
4814.8208	1.35145	0.00527
4813.32069	1.35136	0.00527
4811.82058	1.35129	0.00528
4810.32047	1.35124	0.0053
4808.82035	1.35121	0.00532
4807.32024	1.35118	0.00533
4805.82013	1.35115	0.00534
4804.32002	1.35113	0.00533
4802.81991	1.35111	0.00532
4801.3198	1.3511	0.0053
4799.81968	1.35106	0.00528
4798.31957	1.35098	0.00527
4796.81946	1.35087	0.00527
4795.31935	1.35079	0.00527
4793.81924	1.35073	0.00529
4792.31912	1.35072	0.0053
4790.81901	1.35071	0.00531
4789.3189	1.35067	0.00532
4787.81879	1.35061	0.00532
4786.31868	1.35053	0.00533
4784.81857	1.35048	0.00534
4783.31845	1.35045	0.00536
4781.81834	1.35045	0.00536
4780.31823	1.35044	0.00537
4778.81812	1.35042	0.00536
4777.31801	1.35038	0.00535
4775.81789	1.35031	0.00535
4774.31778	1.35024	0.00536
4772.81767	1.35018	0.00538
4771.31756	1.35015	0.00539
4769.81745	1.35013	0.00542
4768.31734	1.35013	0.00542
4766.81722	1.35015	0.00542
4765.31711	1.35015	0.00541
4763.817	1.35011	0.00539
4762.31689	1.35004	0.00539
4760.81678	1.34997	0.00539
4759.31667	1.34994	0.0054
4757.81655	1.34993	0.00541
4756.31644	1.34995	0.0054
4754.81633	1.34996	0.00539
4753.31622	1.34996	0.00537
4751.81611	1.34994	0.00534
4750.31599	1.3499	0.0053
4748.81588	1.34984	0.00527
4747.31577	1.3498	0.00525
4745.81566	1.34976	0.00523
4744.31555	1.34974	0.00521
4742.81544	1.34971	0.00519
4741.31532	1.34964	0.00518
4739.81521	1.34958	0.00517
4738.3151	1.34954	0.00517
4736.81499	1.34954	0.00515
4735.31488	1.34955	0.00513
4733.81476	1.34954	0.00509
4732.31465	1.34951	0.00505
4730.81454	1.34945	0.005
4729.31443	1.34938	0.00496
4727.81432	1.34932	0.00493
4726.31421	1.34924	0.00491
4724.81409	1.34916	0.0049
4723.31398	1.34909	0.0049
4721.81387	1.34904	0.00491
4720.31376	1.34902	0.00491
4718.81365	1.349	0.0049
4717.31353	1.34899	0.00489
4715.81342	1.34898	0.00486
4714.31331	1.34897	0.00482
4712.8132	1.34895	0.00476
4711.31309	1.34893	0.00469
4709.81298	1.34887	0.00461
4708.31286	1.34879	0.00454
4706.81275	1.34867	0.00448
4705.31264	1.34852	0.00444
4703.81253	1.34835	0.00443
4702.31242	1.34817	0.00445
4700.8123	1.34804	0.0045
4699.31219	1.34796	0.00456
4697.81208	1.34793	0.00462
4696.31197	1.34794	0.00467
4694.81186	1.34796	0.00469
4693.31175	1.34796	0.00469
4691.81163	1.34794	0.00469
4690.31152	1.34788	0.00468
4688.81141	1.34782	0.00467
4687.3113	1.34775	0.00467
4685.81119	1.3477	0.00467
4684.31107	1.34767	0.00467
4682.81096	1.34766	0.00467
4681.31085	1.34765	0.00467
4679.81074	1.34762	0.00466
4678.31063	1.34757	0.00464
4676.81052	1.34754	0.00463
4675.3104	1.34752	0.0046
4673.81029	1.34752	0.00457
4672.31018	1.34749	0.00453
4670.81007	1.34744	0.00449
4669.30996	1.34737	0.00445
4667.80984	1.34728	0.00442
4666.30973	1.34719	0.00441
4664.80962	1.34712	0.0044
4663.30951	1.34709	0.00439
4661.8094	1.34706	0.00437
4660.30929	1.34704	0.00434
4658.80917	1.34701	0.0043
4657.30906	1.34696	0.00426
4655.80895	1.34687	0.00422
4654.30884	1.34675	0.0042
4652.80873	1.34662	0.00419
4651.30861	1.34653	0.0042
4649.8085	1.3465	0.0042
4648.30839	1.3465	0.00419
4646.80828	1.3465	0.00417
4645.30817	1.34647	0.00413
4643.80806	1.34639	0.00409
4642.30794	1.3463	0.00404
4640.80783	1.34619	0.004
4639.30772	1.34608	0.00398
4637.80761	1.34597	0.00398
4636.3075	1.34584	0.00399
4634.80738	1.34572	0.00402
4633.30727	1.34565	0.00406
4631.80716	1.34563	0.00409
4630.30705	1.34563	0.00411
4628.80694	1.34564	0.0041
4627.30683	1.34561	0.00409
4625.80671	1.34558	0.00405
4624.3066	1.34552	0.00401
4622.80649	1.34546	0.00396
4621.30638	1.34537	0.00393
4619.80627	1.34527	0.00391
4618.30615	1.34516	0.00389
4616.80604	1.34507	0.00389
4615.30593	1.345	0.00389
4613.80582	1.34494	0.00389
4612.30571	1.34487	0.00388
4610.8056	1.3448	0.00388
4609.30548	1.34471	0.00387
4607.80537	1.34463	0.00387
4606.30526	1.34455	0.00386
4604.80515	1.34448	0.00386
4603.30504	1.34439	0.00387
4601.80492	1.3443	0.00387
4600.30481	1.34421	0.0039
4598.8047	1.34411	0.00391
4597.30459	1.34404	0.00394
4595.80448	1.34399	0.00397
4594.30437	1.34396	0.00399
4592.80425	1.34393	0.004
4591.30414	1.34388	0.00401
4589.80403	1.34383	0.00401
4588.30392	1.34379	0.00401
4586.80381	1.34374	0.004
4585.30369	1.34369	0.00399
4583.80358	1.34364	0.00397
4582.30347	1.34358	0.00396
4580.80336	1.34353	0.00393
4579.30325	1.34345	0.00392
4577.80314	1.34334	0.00391
4576.30302	1.34322	0.00392
4574.80291	1.34312	0.00394
4573.3028	1.34305	0.00397
4571.80269	1.34301	0.00399
4570.30258	1.34296	0.00402
4568.80247	1.34291	0.00404
4567.30235	1.34287	0.00406
4565.80224	1.34284	0.00406
4564.30213	1.34282	0.00406
4562.80202	1.34278	0.00405
4561.30191	1.34272	0.00403
4559.80179	1.34266	0.00402
4558.30168	1.3426	0.00401
4556.80157	1.34255	0.004
4555.30146	1.34249	0.00399
4553.80135	1.34243	0.00397
4552.30124	1.34236	0.00396
4550.80112	1.34229	0.00394
4549.30101	1.34223	0.00393
4547.8009	1.34216	0.00391
4546.30079	1.34207	0.0039
4544.80068	1.34195	0.00391
4543.30056	1.34183	0.00393
4541.80045	1.34174	0.00397
4540.30034	1.34167	0.004
4538.80023	1.34164	0.00404
4537.30012	1.34162	0.00407
4535.80001	1.34161	0.00408
4534.29989	1.34159	0.00408
4532.79978	1.34155	0.00408
4531.29967	1.34151	0.00407
4529.79956	1.34146	0.00405
4528.29945	1.34141	0.00404
4526.79933	1.34137	0.00402
4525.29922	1.34133	0.004
4523.79911	1.3413	0.00396
4522.299	1.34126	0.00393
4520.79889	1.34119	0.0039
4519.29878	1.34108	0.00387
4517.79866	1.34097	0.00385
4516.29855	1.34087	0.00385
4514.79844	1.3408	0.00385
4513.29833	1.34074	0.00385
4511.79822	1.3407	0.00384
4510.2981	1.34065	0.00382
4508.79799	1.3406	0.0038
4507.29788	1.34052	0.00378
4505.79777	1.3404	0.00376
4504.29766	1.34028	0.00376
4502.79755	1.34017	0.00377
4501.29743	1.34009	0.00379
4499.79732	1.34002	0.00381
4498.29721	1.33997	0.00383
4496.7971	1.33992	0.00385
4495.29699	1.33988	0.00385
4493.79687	1.33982	0.00385
4492.29676	1.33977	0.00384
4490.79665	1.33973	0.00384
4489.29654	1.33969	0.00381
4487.79643	1.33964	0.00378
4486.29632	1.33958	0.00375
4484.7962	1.33949	0.00372
4483.29609	1.33937	0.0037
4481.79598	1.33924	0.00369
4480.29587	1.33912	0.00371
4478.79576	1.33901	0.00373
4477.29564	1.33894	0.00376
4475.79553	1.3389	0.00379
4474.29542	1.33889	0.00379
4472.79531	1.33888	0.00378
4471.2952	1.33884	0.00376
4469.79509	1.33876	0.00373
4468.29497	1.33867	0.00371
4466.79486	1.33858	0.00368
4465.29475	1.33849	0.00366
4463.79464	1.33839	0.00365
4462.29453	1.33828	0.00365
4460.79441	1.33816	0.00366
4459.2943	1.33805	0.00369
4457.79419	1.33796	0.00371
4456.29408	1.3379	0.00373
4454.79397	1.33786	0.00376
4453.29386	1.33783	0.00376
4451.79374	1.33778	0.00376
4450.29363	1.3377	0.00375
4448.79352	1.33762	0.00375
4447.29341	1.33752	0.00375
4445.7933	1.33744	0.00375
4444.29318	1.33736	0.00375
4442.79307	1.33728	0.00377
4441.29296	1.33721	0.00378
4439.79285	1.33713	0.0038
4438.29274	1.33707	0.00382
4436.79263	1.33704	0.00382
4435.29251	1.337	0.00382
4433.7924	1.33695	0.00381
4432.29229	1.33688	0.0038
4430.79218	1.33679	0.0038
4429.29207	1.3367	0.00379
4427.79195	1.33664	0.00379
4426.29184	1.33657	0.00379
4424.79173	1.3365	0.00378
4423.29162	1.33643	0.00378
4421.79151	1.33637	0.00377
4420.2914	1.33631	0.00376
4418.79128	1.33625	0.00373
4417.29117	1.33617	0.00372
4415.79106	1.33606	0.00371
4414.29095	1.33594	0.00371
4412.79084	1.33582	0.00373
4411.29072	1.33572	0.00375
4409.79061	1.33565	0.00378
4408.2905	1.33561	0.00381
4406.79039	1.3356	0.00381
4405.29028	1.33557	0.00381
4403.79017	1.33552	0.0038
4402.29005	1.33545	0.00378
4400.78994	1.33538	0.00375
4399.28983	1.33532	0.00373
4397.78972	1.33526	0.0037
4396.28961	1.33519	0.00367
4394.78949	1.3351	0.00364
4393.28938	1.33498	0.00361
4391.78927	1.33484	0.0036
4390.28916	1.33472	0.0036
4388.78905	1.33461	0.00361
4387.28894	1.33453	0.00363
4385.78882	1.33446	0.00364
4384.28871	1.33438	0.00366
4382.7886	1.33429	0.00367
4381.28849	1.3342	0.00368
4379.78838	1.33413	0.00369
4378.28827	1.33407	0.0037
4376.78815	1.33403	0.0037
4375.28804	1.33398	0.00369
4373.78793	1.33392	0.00368
4372.28782	1.33385	0.00365
4370.78771	1.33377	0.00363
4369.28759	1.33369	0.00361
4367.78748	1.33359	0.00358
4366.28737	1.33349	0.00357
4364.78726	1.33338	0.00355
4363.28715	1.33329	0.00354
4361.78704	1.33319	0.00352
4360.28692	1.33309	0.00351
4358.78681	1.33298	0.00351
4357.2867	1.33286	0.00352
4355.78659	1.33274	0.00353
4354.28648	1.33262	0.00355
4352.78636	1.33251	0.00357
4351.28625	1.33244	0.0036
4349.78614	1.33239	0.00361
4348.28603	1.33234	0.00361
4346.78592	1.33228	0.0036
4345.28581	1.33217	0.00359
4343.78569	1.33205	0.00358
4342.28558	1.33191	0.00359
4340.78547	1.33178	0.00361
4339.28536	1.33168	0.00365
4337.78525	1.33162	0.00368
4336.28513	1.33156	0.00371
4334.78502	1.33153	0.00371
4333.28491	1.3315	0.00371
4331.7848	1.33144	0.00368
4330.28469	1.33135	0.00365
4328.78458	1.33121	0.00363
4327.28446	1.33107	0.00362
4325.78435	1.33094	0.00362
4324.28424	1.33081	0.00365
4322.78413	1.33069	0.00368
4321.28402	1.33057	0.00373
4319.7839	1.33048	0.00378
4318.28379	1.33043	0.00382
4316.78368	1.3304	0.00385
4315.28357	1.33037	0.00387
4313.78346	1.33033	0.00387
4312.28335	1.33026	0.00387
4310.78323	1.33018	0.00386
4309.28312	1.3301	0.00385
4307.78301	1.33003	0.00384
4306.2829	1.32996	0.00383
4304.78279	1.32987	0.00382
4303.28267	1.32977	0.00382
4301.78256	1.32967	0.00381
4300.28245	1.3296	0.00381
4298.78234	1.32954	0.0038
4297.28223	1.32946	0.00379
4295.78212	1.32936	0.00379
4294.282	1.32925	0.00378
4292.78189	1.32913	0.00378
4291.28178	1.32904	0.00378
4289.78167	1.32896	0.00378
4288.28156	1.32891	0.00377
4286.78144	1.32887	0.00375
4285.28133	1.32879	0.00371
4283.78122	1.32868	0.00368
4282.28111	1.32854	0.00366
4280.781	1.32835	0.00366
4279.28089	1.3282	0.00367
4277.78077	1.32806	0.00371
4276.28066	1.32798	0.00374
4274.78055	1.32795	0.00376
4273.28044	1.32792	0.00376
4271.78033	1.32786	0.00375
4270.28021	1.32776	0.00373
4268.7801	1.32763	0.00371
4267.27999	1.32749	0.00369
4265.77988	1.32735	0.00369
4264.27977	1.32722	0.00371
4262.77966	1.32709	0.00374
4261.27954	1.32699	0.00376
4259.77943	1.3269	0.0038
4258.27932	1.32682	0.00383
4256.77921	1.32675	0.00385
4255.2791	1.32667	0.00386
4253.77898	1.3266	0.00386
4252.27887	1.32654	0.00386
4250.77876	1.32647	0.00385
4249.27865	1.32638	0.00383
4247.77854	1.32627	0.00383
4246.27843	1.32616	0.00381
4244.77831	1.32606	0.0038
4243.2782	1.32598	0.00379
4241.77809	1.32588	0.00378
4240.27798	1.32576	0.00376
4238.77787	1.32564	0.00374
4237.27775	1.32551	0.00374
4235.77764	1.32539	0.00373
4234.27753	1.32527	0.00373
4232.77742	1.32512	0.00374
4231.27731	1.32497	0.00376
4229.7772	1.32482	0.00379
4228.27708	1.32469	0.00383
4226.77697	1.32459	0.00388
4225.27686	1.32452	0.00393
4223.77675	1.32446	0.00396
4222.27664	1.32439	0.00399
4220.77652	1.32433	0.00399
4219.27641	1.32427	0.00398
4217.7763	1.32421	0.00397
4216.27619	1.32413	0.00395
4214.77608	1.32402	0.00392
4213.27597	1.32389	0.00391
4211.77585	1.32375	0.00391
4210.27574	1.32362	0.00391
4208.77563	1.32353	0.00391
4207.27552	1.32345	0.00391
4205.77541	1.32338	0.00389
4204.27529	1.32329	0.00387
4202.77518	1.32315	0.00385
4201.27507	1.323	0.00383
4199.77496	1.32284	0.00382
4198.27485	1.32269	0.00381
4196.77474	1.32256	0.00381
4195.27462	1.32243	0.00383
4193.77451	1.32227	0.00384
4192.2744	1.32208	0.00388
4190.77429	1.32189	0.00395
4189.27418	1.32172	0.00402
4187.77407	1.32162	0.00411
4186.27395	1.32158	0.00418
4184.77384	1.32158	0.00423
4183.27373	1.32157	0.00426
4181.77362	1.32152	0.00426
4180.27351	1.32143	0.00425
4178.77339	1.32133	0.00424
4177.27328	1.32122	0.00424
4175.77317	1.32112	0.00423
4174.27306	1.32102	0.00423
4172.77295	1.32094	0.00423
4171.27284	1.32085	0.00421
4169.77272	1.32075	0.0042
4168.27261	1.32065	0.00418
4166.7725	1.32054	0.00417
4165.27239	1.32042	0.00415
4163.77228	1.32028	0.00414
4162.27216	1.32015	0.00413
4160.77205	1.32002	0.00413
4159.27194	1.31988	0.00414
4157.77183	1.31974	0.00415
4156.27172	1.3196	0.00418
4154.77161	1.31947	0.00421
4153.27149	1.31939	0.00423
4151.77138	1.31932	0.00425
4150.27127	1.31924	0.00425
4148.77116	1.31916	0.00425
4147.27105	1.31904	0.00423
4145.77093	1.31892	0.00423
4144.27082	1.31879	0.00421
4142.77071	1.31868	0.0042
4141.2706	1.31859	0.00418
4139.77049	1.31848	0.00416
4138.27038	1.31836	0.00413
4136.77026	1.3182	0.00411
4135.27015	1.31799	0.00411
4133.77004	1.31779	0.00413
4132.26993	1.31762	0.00416
4130.76982	1.31749	0.00421
4129.2697	1.31738	0.00425
4127.76959	1.31731	0.00428
4126.26948	1.31723	0.0043
4124.76937	1.31715	0.0043
4123.26926	1.31705	0.00429
4121.76915	1.31692	0.00427
4120.26903	1.31677	0.00426
4118.76892	1.31661	0.00426
4117.26881	1.31645	0.00426
4115.7687	1.31631	0.00429
4114.26859	1.31617	0.00431
4112.76847	1.31604	0.00434
4111.26836	1.31592	0.00438
4109.76825	1.31581	0.00439
4108.26814	1.31573	0.00441
4106.76803	1.31564	0.00441
4105.26792	1.31554	0.0044
4103.7678	1.31542	0.00438
4102.26769	1.31527	0.00437
4100.76758	1.3151	0.00437
4099.26747	1.31494	0.00437
4097.76736	1.31479	0.00439
4096.26724	1.31465	0.00441
4094.76713	1.31453	0.00443
4093.26702	1.31441	0.00446
4091.76691	1.31429	0.00447
4090.2668	1.31416	0.00449
4088.76669	1.31404	0.00449
4087.26657	1.31392	0.00451
4085.76646	1.31379	0.00451
4084.26635	1.31367	0.00452
4082.76624	1.31355	0.00452
4081.26613	1.31344	0.00452
4079.76601	1.31332	0.00452
4078.2659	1.3132	0.0045
4076.76579	1.31307	0.00448
4075.26568	1.31293	0.00447
4073.76557	1.31275	0.00446
4072.26546	1.31258	0.00446
4070.76534	1.31241	0.00448
4069.26523	1.31224	0.00449
4067.76512	1.3121	0.00452
4066.26501	1.31196	0.00454
4064.7649	1.31184	0.00456
4063.26478	1.31172	0.00458
4061.76467	1.3116	0.00459
4060.26456	1.31147	0.00459
4058.76445	1.31131	0.00459
4057.26434	1.31117	0.0046
4055.76423	1.31102	0.00461
4054.26411	1.31088	0.00462
4052.764	1.31074	0.00463
4051.26389	1.31061	0.00465
4049.76378	1.31048	0.00465
4048.26367	1.31036	0.00465
4046.76355	1.31022	0.00464
4045.26344	1.31006	0.00464
4043.76333	1.30991	0.00463
4042.26322	1.30974	0.00463
4040.76311	1.30957	0.00465
4039.263	1.30941	0.00466
4037.76288	1.30926	0.00469
4036.26277	1.30912	0.00471
4034.76266	1.30899	0.00472
4033.26255	1.30888	0.00473
4031.76244	1.30877	0.00472
4030.26232	1.30865	0.0047
4028.76221	1.3085	0.00467
4027.2621	1.30833	0.00465
4025.76199	1.30813	0.00463
4024.26188	1.30792	0.00464
4022.76177	1.30772	0.00466
4021.26165	1.30753	0.00468
4019.76154	1.30738	0.00471
4018.26143	1.30724	0.00475
4016.76132	1.30711	0.00477
4015.26121	1.30699	0.00478
4013.76109	1.30687	0.00478
4012.26098	1.30673	0.00477
4010.76087	1.30659	0.00475
4009.26076	1.30641	0.00473
4007.76065	1.30621	0.00472
4006.26054	1.306	0.00473
4004.76042	1.3058	0.00474
4003.26031	1.30563	0.00477
4001.7602	1.30549	0.00478
4000.26009	1.30536	0.00479
3998.75998	1.30521	0.0048
3997.25986	1.30503	0.0048
3995.75975	1.30484	0.0048
3994.25964	1.30465	0.00481
3992.75953	1.30447	0.00482
3991.25942	1.30431	0.00483
3989.75931	1.30417	0.00484
3988.25919	1.304	0.00484
3986.75908	1.3038	0.00485
3985.25897	1.3036	0.00487
3983.75886	1.30339	0.0049
3982.25875	1.30321	0.00493
3980.75864	1.30305	0.00497
3979.25852	1.3029	0.005
3977.75841	1.30279	0.00502
3976.2583	1.30267	0.00502
3974.75819	1.30254	0.00502
3973.25808	1.30238	0.005
3971.75796	1.3022	0.00498
3970.25785	1.30201	0.00496
3968.75774	1.30181	0.00495
3967.25763	1.30161	0.00495
3965.75752	1.30141	0.00496
3964.25741	1.30122	0.00496
3962.75729	1.30104	0.00498
3961.25718	1.30087	0.00498
3959.75707	1.30069	0.005
3958.25696	1.3005	0.005
3956.75685	1.3003	0.00502
3955.25673	1.30011	0.00504
3953.75662	1.29993	0.00505
3952.25651	1.29978	0.00507
3950.7564	1.29961	0.00507
3949.25629	1.29943	0.00508
3947.75618	1.29926	0.00508
3946.25606	1.2991	0.00507
3944.75595	1.29898	0.00505
3943.25584	1.29882	0.00502
3941.75573	1.29862	0.00499
3940.25562	1.29837	0.00496
3938.7555	1.29812	0.00494
3937.25539	1.2979	0.00494
3935.75528	1.29773	0.00493
3934.25517	1.29755	0.00492
3932.75506	1.29735	0.00491
3931.25495	1.29711	0.0049
3929.75483	1.29688	0.0049
3928.25472	1.29666	0.0049
3926.75461	1.29645	0.0049
3925.2545	1.29624	0.0049
3923.75439	1.29604	0.0049
3922.25427	1.29585	0.00487
3920.75416	1.29567	0.00485
3919.25405	1.29545	0.00482
3917.75394	1.29516	0.00481
3916.25383	1.29482	0.00482
3914.75372	1.29448	0.00487
3913.2536	1.2942	0.00496
3911.75349	1.29401	0.00504
3910.25338	1.29387	0.00512
3908.75327	1.2938	0.00517
3907.25316	1.29374	0.00516
3905.75304	1.29367	0.00509
3904.25293	1.29355	0.005
3902.75282	1.29334	0.00488
3901.25271	1.29302	0.00479
3899.7526	1.29262	0.00473
3898.25249	1.29222	0.00471
3896.75237	1.29188	0.00472
3895.25226	1.29164	0.00477
3893.75215	1.29146	0.00481
3892.25204	1.29127	0.00483
3890.75193	1.29103	0.00484
3889.25181	1.29077	0.00484
3887.7517	1.29051	0.00484
3886.25159	1.29026	0.00483
3884.75148	1.29003	0.00482
3883.25137	1.28979	0.00483
3881.75126	1.28951	0.00484
3880.25114	1.2892	0.00486
3878.75103	1.28886	0.0049
3877.25092	1.28858	0.00496
3875.75081	1.28839	0.00501
3874.2507	1.28826	0.00504
3872.75058	1.28813	0.00505
3871.25047	1.28795	0.00502
3869.75036	1.28771	0.00497
3868.25025	1.28745	0.00491
3866.75014	1.28718	0.00486
3865.25003	1.28688	0.00483
3863.74991	1.28653	0.00483
3862.2498	1.28615	0.00486
3860.74969	1.28584	0.0049
3859.24958	1.28567	0.00492
3857.74947	1.28563	0.00488
3856.24935	1.28558	0.00479
3854.74924	1.28541	0.00466
3853.24913	1.285	0.00453
3851.74902	1.28443	0.00444
3850.24891	1.28387	0.00442
3848.7488	1.28343	0.00446
3847.24868	1.28312	0.00454
3845.74857	1.2829	0.00462
3844.24846	1.28271	0.00467
3842.74835	1.28251	0.00467
3841.24824	1.28229	0.00463
3839.74812	1.28205	0.00456
3838.24801	1.28174	0.00447
3836.7479	1.28136	0.0044
3835.24779	1.28093	0.00435
3833.74768	1.28048	0.00434
3832.24757	1.28003	0.00436
3830.74745	1.27963	0.00443
3829.24734	1.27928	0.0045
3827.74723	1.27899	0.00456
3826.24712	1.27876	0.00461
3824.74701	1.27854	0.00461
3823.24689	1.27831	0.00458
3821.74678	1.27805	0.00451
3820.24667	1.27773	0.00441
3818.74656	1.27734	0.00433
3817.24645	1.27689	0.00428
3815.74634	1.27638	0.00425
3814.24622	1.27584	0.00428
3812.74611	1.27538	0.00433
3811.246	1.27502	0.00441
3809.74589	1.27473	0.00447
3808.24578	1.27449	0.00449
3806.74566	1.27421	0.00448
3805.24555	1.2739	0.00443
3803.74544	1.27353	0.00436
3802.24533	1.27312	0.00427
3800.74522	1.27264	0.0042
3799.24511	1.27214	0.00416
3797.74499	1.2716	0.00416
3796.24488	1.27104	0.00419
3794.74477	1.27048	0.00427
3793.24466	1.26998	0.00436
3791.74455	1.26957	0.00446
3790.24444	1.26921	0.00455
3788.74432	1.26884	0.00462
3787.24421	1.26843	0.00468
3785.7441	1.26796	0.00475
3784.24399	1.26749	0.00481
3782.74388	1.26706	0.00488
3781.24376	1.26667	0.00494
3779.74365	1.26627	0.00502
3778.24354	1.26584	0.00508
3776.74343	1.26537	0.00516
3775.24332	1.26493	0.00522
3773.74321	1.26453	0.00529
3772.24309	1.26417	0.00533
3770.74298	1.2638	0.00536
3769.24287	1.26338	0.00538
3767.74276	1.26288	0.00541
3766.24265	1.26235	0.00547
3764.74253	1.26184	0.00552
3763.24242	1.26138	0.0056
3761.74231	1.26099	0.00568
3760.2422	1.26059	0.00575
3758.74209	1.26016	0.00581
3757.24198	1.25973	0.00585
3755.74186	1.25934	0.00586
3754.24175	1.25899	0.00584
3752.74164	1.25863	0.0058
3751.24153	1.25821	0.00571
3749.74142	1.2577	0.0056
3748.2413	1.25713	0.0055
3746.74119	1.25653	0.00542
3745.24108	1.25586	0.00538
3743.74097	1.25512	0.00538
3742.24086	1.2544	0.00543
3740.74075	1.25381	0.00548
3739.24063	1.25335	0.0055
3737.74052	1.25294	0.00548
3736.24041	1.25241	0.00544
3734.7403	1.2517	0.00538
3733.24019	1.25085	0.00535
3731.74007	1.24998	0.00537
3730.23996	1.24916	0.00545
3728.73985	1.24844	0.00557
3727.23974	1.24778	0.0057
3725.73963	1.24713	0.00583
3724.23952	1.24643	0.00596
3722.7394	1.24571	0.00608
3721.23929	1.24497	0.00621
3719.73918	1.24425	0.00635
3718.23907	1.24358	0.00648
3716.73896	1.24295	0.00659
3715.23884	1.24236	0.00665
3713.73873	1.24172	0.00668
3712.23862	1.24098	0.0067
3710.73851	1.2401	0.00673
3709.2384	1.23911	0.0068
3707.73829	1.23808	0.00693
3706.23817	1.23711	0.00712
3704.73806	1.23621	0.00736
3703.23795	1.23536	0.00762
3701.73784	1.23451	0.00789
3700.23773	1.23366	0.00817
3698.73761	1.23281	0.00844
3697.2375	1.23201	0.00871
3695.73739	1.23123	0.00892
3694.23728	1.23046	0.00912
3692.73717	1.22966	0.00929
3691.23706	1.22874	0.00945
3689.73694	1.22771	0.00964
3688.23683	1.22654	0.00988
3686.73672	1.22533	0.0102
3685.23661	1.22417	0.0106
3683.7365	1.22308	0.01106
3682.23638	1.2221	0.01153
3680.73627	1.2212	0.012
3679.23616	1.22038	0.01244
3677.73605	1.21952	0.01283
3676.23594	1.21858	0.01317
3674.73583	1.2175	0.0135
3673.23571	1.21633	0.01387
3671.7356	1.2151	0.0143
3670.23549	1.21378	0.01479
3668.73538	1.21241	0.01539
3667.23527	1.21103	0.01609
3665.73515	1.20973	0.01689
3664.23504	1.20855	0.01773
3662.73493	1.20751	0.0186
3661.23482	1.20655	0.01946
3659.73471	1.20559	0.02033
3658.2346	1.20459	0.02118
3656.73448	1.20351	0.02204
3655.23437	1.20242	0.02291
3653.73426	1.20142	0.0238
3652.23415	1.20051	0.02469
3650.73404	1.19961	0.02557
3649.23392	1.19864	0.02646
3647.73381	1.19751	0.02737
3646.2337	1.1963	0.02836
3644.73359	1.1951	0.02942
3643.23348	1.19401	0.03055
3641.73337	1.19302	0.03174
3640.23325	1.19212	0.03297
3638.73314	1.19127	0.03421
3637.23303	1.19046	0.03543
3635.73292	1.18969	0.03663
3634.23281	1.18897	0.03782
3632.73269	1.18824	0.03898
3631.23258	1.1875	0.04013
3629.73247	1.1867	0.04129
3628.23236	1.18582	0.04248
3626.73225	1.18491	0.04373
3625.23214	1.18406	0.04501
3623.73202	1.1833	0.04634
3622.23191	1.18265	0.04768
3620.7318	1.18204	0.04902
3619.23169	1.18141	0.05035
3617.73158	1.18075	0.05167
3616.23146	1.18009	0.05301
3614.73135	1.17946	0.05436
3613.23124	1.17884	0.05571
3611.73113	1.17823	0.05708
3610.23102	1.17764	0.05847
3608.73091	1.17706	0.05988
3607.23079	1.1765	0.06131
3605.73068	1.17595	0.06276
3604.23057	1.17542	0.06423
3602.73046	1.17491	0.06572
3601.23035	1.17445	0.06722
3599.73024	1.17405	0.06873
3598.23012	1.1737	0.07024
3596.73001	1.17337	0.07174
3595.2299	1.17303	0.07324
3593.72979	1.1727	0.07473
3592.22968	1.17237	0.07622
3590.72956	1.17211	0.07772
3589.22945	1.1719	0.0792
3587.72934	1.17169	0.08068
3586.22923	1.17144	0.08214
3584.72912	1.17116	0.08361
3583.22901	1.17086	0.0851
3581.72889	1.1706	0.08662
3580.22878	1.17037	0.08815
3578.72867	1.17017	0.0897
3577.22856	1.17	0.09128
3575.72845	1.16982	0.09287
3574.22833	1.16968	0.09448
3572.72822	1.16958	0.0961
3571.22811	1.16958	0.09772
3569.728	1.16965	0.09931
3568.22789	1.16974	0.10087
3566.72778	1.16982	0.10241
3565.22766	1.16985	0.10392
3563.72755	1.16984	0.10544
3562.22744	1.16982	0.10698
3560.72733	1.16981	0.10854
3559.22722	1.16984	0.11014
3557.7271	1.16995	0.11175
3556.22699	1.17013	0.11337
3554.72688	1.17036	0.11496
3553.22677	1.1706	0.11653
3551.72666	1.17083	0.11808
3550.22655	1.17105	0.11962
3548.72643	1.17127	0.12116
3547.22632	1.17152	0.12269
3545.72621	1.1718	0.12422
3544.2261	1.17209	0.12575
3542.72599	1.17239	0.12726
3541.22587	1.17268	0.12879
3539.72576	1.17297	0.13031
3538.22565	1.17326	0.13185
3536.72554	1.17358	0.13341
3535.22543	1.17392	0.13499
3533.72532	1.17432	0.13657
3532.2252	1.17477	0.13814
3530.72509	1.17528	0.1397
3529.22498	1.17579	0.14124
3527.72487	1.17632	0.14276
3526.22476	1.17687	0.14426
3524.72464	1.17743	0.14574
3523.22453	1.178	0.1472
3521.72442	1.17857	0.14865
3520.22431	1.17912	0.15009
3518.7242	1.17966	0.15154
3517.22409	1.18021	0.15299
3515.72397	1.18078	0.15446
3514.22386	1.1814	0.15593
3512.72375	1.18204	0.15741
3511.22364	1.18271	0.15889
3509.72353	1.1834	0.16036
3508.22341	1.18413	0.16182
3506.7233	1.18491	0.16326
3505.22319	1.18574	0.16466
3503.72308	1.18657	0.16605
3502.22297	1.18738	0.1674
3500.72286	1.18816	0.16872
3499.22274	1.18893	0.17004
3497.72263	1.1897	0.17137
3496.22252	1.1905	0.17271
3494.72241	1.19133	0.17403
3493.2223	1.19218	0.17537
3491.72218	1.19303	0.1767
3490.22207	1.19392	0.17802
3488.72196	1.19481	0.17933
3487.22185	1.19572	0.18063
3485.72174	1.19665	0.18193
3484.22163	1.1976	0.1832
3482.72151	1.19859	0.18448
3481.2214	1.1996	0.18573
3479.72129	1.20063	0.18696
3478.22118	1.20166	0.18817
3476.72107	1.20269	0.18936
3475.22095	1.20372	0.19054
3473.72084	1.20475	0.1917
3472.22073	1.20578	0.19287
3470.72062	1.20687	0.19402
3469.22051	1.20798	0.19516
3467.7204	1.20911	0.19628
3466.22028	1.21025	0.19737
3464.72017	1.21137	0.19843
3463.22006	1.21249	0.19947
3461.71995	1.21361	0.20051
3460.21984	1.21473	0.20154
3458.71972	1.21584	0.20257
3457.21961	1.21696	0.20359
3455.7195	1.21811	0.20462
3454.21939	1.21929	0.20563
3452.71928	1.22049	0.20663
3451.21917	1.22171	0.20761
3449.71905	1.22293	0.20856
3448.21894	1.22415	0.2095
3446.71883	1.22535	0.21044
3445.21872	1.22654	0.21136
3443.71861	1.22774	0.2123
3442.21849	1.22898	0.21323
3440.71838	1.23027	0.21416
3439.21827	1.2316	0.21506
3437.71816	1.23296	0.21593
3436.21805	1.23431	0.21678
3434.71794	1.23566	0.21759
3433.21782	1.23699	0.21837
3431.71771	1.23833	0.21915
3430.2176	1.23969	0.2199
3428.71749	1.24106	0.22063
3427.21738	1.24242	0.22136
3425.71726	1.24379	0.22207
3424.21715	1.24516	0.22276
3422.71704	1.24654	0.22343
3421.21693	1.24795	0.22409
3419.71682	1.24935	0.22473
3418.21671	1.25076	0.22535
3416.71659	1.25217	0.22595
3415.21648	1.2536	0.22653
3413.71637	1.25505	0.22708
3412.21626	1.25651	0.22761
3410.71615	1.25795	0.22812
3409.21604	1.25938	0.2286
3407.71592	1.26078	0.22908
3406.21581	1.26219	0.22955
3404.7157	1.26362	0.23
3403.21559	1.2651	0.23044
3401.71548	1.26661	0.23086
3400.21536	1.26813	0.23124
3398.71525	1.26961	0.23158
3397.21514	1.27107	0.2319
3395.71503	1.27254	0.23218
3394.21492	1.27402	0.23245
3392.71481	1.27551	0.23267
3391.21469	1.27701	0.23287
3389.71458	1.27845	0.23304
3388.21447	1.27985	0.2332
3386.71436	1.28123	0.23333
3385.21425	1.2826	0.23347
3383.71413	1.284	0.2336
3382.21402	1.28541	0.23372
3380.71391	1.2868	0.23382
3379.2138	1.28818	0.23391
3377.71369	1.28955	0.234
3376.21358	1.29092	0.23408
3374.71346	1.29231	0.23413
3373.21335	1.29373	0.23416
3371.71324	1.29517	0.23416
3370.21313	1.29663	0.23411
3368.71302	1.29805	0.23402
3367.2129	1.29943	0.23389
3365.71279	1.30074	0.23373
3364.21268	1.302	0.23356
3362.71257	1.30323	0.23339
3361.21246	1.30446	0.23322
3359.71235	1.30568	0.23308
3358.21223	1.3069	0.23292
3356.71212	1.30813	0.23278
3355.21201	1.30936	0.23261
3353.7119	1.31061	0.23242
3352.21179	1.31187	0.23221
3350.71167	1.3131	0.23198
3349.21156	1.31428	0.23173
3347.71145	1.31542	0.23145
3346.21134	1.31655	0.23119
3344.71123	1.31767	0.23091
3343.21112	1.3188	0.23063
3341.711	1.31993	0.23034
3340.21089	1.32105	0.23003
3338.71078	1.32215	0.22971
3337.21067	1.32321	0.22937
3335.71056	1.32422	0.22903
3334.21044	1.32519	0.2287
3332.71033	1.32614	0.22839
3331.21022	1.32711	0.22808
3329.71011	1.32809	0.22777
3328.21	1.32909	0.22746
3326.70989	1.33008	0.22715
3325.20977	1.33105	0.22682
3323.70966	1.33197	0.22648
3322.20955	1.33285	0.22616
3320.70944	1.33371	0.22585
3319.20933	1.33455	0.22555
3317.70921	1.33542	0.22529
3316.2091	1.33632	0.22504
3314.70899	1.33723	0.2248
3313.20888	1.33817	0.22456
3311.70877	1.33913	0.22428
3310.20866	1.34012	0.22399
3308.70854	1.34111	0.22367
3307.20843	1.34209	0.22331
3305.70832	1.34301	0.22292
3304.20821	1.34387	0.22253
3302.7081	1.34468	0.22215
3301.20798	1.34544	0.22178
3299.70787	1.34623	0.22144
3298.20776	1.34705	0.22112
3296.70765	1.34792	0.22079
3295.20754	1.3488	0.22046
3293.70743	1.34966	0.22011
3292.20731	1.3505	0.21974
3290.7072	1.35128	0.21937
3289.20709	1.35203	0.21901
3287.70698	1.35276	0.21866
3286.20687	1.35352	0.21833
3284.70675	1.35428	0.21802
3283.20664	1.35506	0.21773
3281.70653	1.35585	0.21743
3280.20642	1.35666	0.21714
3278.70631	1.35748	0.21684
3277.2062	1.35832	0.21653
3275.70608	1.35917	0.2162
3274.20597	1.36004	0.21583
3272.70586	1.3609	0.21545
3271.20575	1.36173	0.21504
3269.70564	1.36251	0.21463
3268.20552	1.36324	0.21421
3266.70541	1.36393	0.21383
3265.2053	1.36463	0.21345
3263.70519	1.36535	0.21311
3262.20508	1.36612	0.21277
3260.70497	1.36691	0.21243
3259.20485	1.36773	0.21208
3257.70474	1.36855	0.2117
3256.20463	1.36935	0.21133
3254.70452	1.37013	0.21092
3253.20441	1.37089	0.21052
3251.70429	1.37167	0.21011
3250.20418	1.37245	0.2097
3248.70407	1.37326	0.20927
3247.20396	1.37407	0.20882
3245.70385	1.37486	0.20836
3244.20374	1.37561	0.2079
3242.70362	1.37632	0.20743
3241.20351	1.37702	0.20696
3239.7034	1.37774	0.20652
3238.20329	1.37849	0.20607
3236.70318	1.37927	0.20561
3235.20306	1.38009	0.20513
3233.70295	1.3809	0.20462
3232.20284	1.38168	0.20408
3230.70273	1.3824	0.20352
3229.20262	1.38308	0.20296
3227.70251	1.38375	0.2024
3226.20239	1.38442	0.20185
3224.70228	1.3851	0.2013
3223.20217	1.38578	0.20076
3221.70206	1.38647	0.2002
3220.20195	1.38715	0.19964
3218.70183	1.38782	0.19906
3217.20172	1.38849	0.19848
3215.70161	1.38914	0.19788
3214.2015	1.38978	0.19729
3212.70139	1.39042	0.19668
3211.20128	1.39106	0.19606
3209.70116	1.39168	0.19544
3208.20105	1.39228	0.19482
3206.70094	1.39285	0.1942
3205.20083	1.39341	0.19356
3203.70072	1.39397	0.19294
3202.20061	1.39454	0.19232
3200.70049	1.39513	0.1917
3199.20038	1.3957	0.19105
3197.70027	1.39626	0.19041
3196.20016	1.3968	0.18975
3194.70005	1.39731	0.18909
3193.19993	1.39782	0.18842
3191.69982	1.39835	0.18775
3190.19971	1.39886	0.18708
3188.6996	1.39934	0.1864
3187.19949	1.39979	0.18572
3185.69938	1.40022	0.18504
3184.19926	1.40066	0.18437
3182.69915	1.4011	0.1837
3181.19904	1.40155	0.18302
3179.69893	1.40199	0.18234
3178.19882	1.40242	0.18166
3176.6987	1.40281	0.18096
3175.19859	1.40319	0.18027
3173.69848	1.40354	0.17958
3172.19837	1.40389	0.1789
3170.69826	1.40421	0.17823
3169.19815	1.40454	0.17758
3167.69803	1.40487	0.17693
3166.19792	1.4052	0.17628
3164.69781	1.40555	0.17564
3163.1977	1.40591	0.17499
3161.69759	1.40626	0.17433
3160.19747	1.40658	0.17366
3158.69736	1.40688	0.173
3157.19725	1.40719	0.17232
3155.69714	1.40751	0.17163
3154.19703	1.40785	0.17094
3152.69692	1.40816	0.17023
3151.1968	1.40842	0.1695
3149.69669	1.40858	0.1688
3148.19658	1.40872	0.16812
3146.69647	1.40887	0.16746
3145.19636	1.40904	0.16682
3143.69624	1.40926	0.1662
3142.19613	1.40951	0.16557
3140.69602	1.40975	0.16492
3139.19591	1.40997	0.16426
3137.6958	1.41014	0.16359
3136.19569	1.41027	0.16292
3134.69557	1.41036	0.16228
3133.19546	1.41046	0.16164
3131.69535	1.41057	0.16104
3130.19524	1.41068	0.16043
3128.69513	1.41078	0.15987
3127.19501	1.41088	0.15931
3125.6949	1.41098	0.15876
3124.19479	1.41113	0.15823
3122.69468	1.41132	0.15767
3121.19457	1.41156	0.1571
3119.69446	1.41181	0.15648
3118.19434	1.41202	0.15583
3116.69423	1.41217	0.15516
3115.19412	1.41223	0.15447
3113.69401	1.41224	0.15381
3112.1939	1.41224	0.15316
3110.69378	1.41224	0.15254
3109.19367	1.41224	0.15195
3107.69356	1.41222	0.15137
3106.19345	1.41221	0.15082
3104.69334	1.41219	0.15028
3103.19323	1.41219	0.14975
3101.69311	1.4122	0.14924
3100.193	1.41223	0.14872
3098.69289	1.41223	0.14822
3097.19278	1.41221	0.14773
3095.69267	1.41221	0.14724
3094.19255	1.41223	0.14677
3092.69244	1.41227	0.14629
3091.19233	1.41233	0.14582
3089.69222	1.41239	0.14533
3088.19211	1.41246	0.14483
3086.692	1.41252	0.14433
3085.19188	1.41258	0.1438
3083.69177	1.41264	0.14326
3082.19166	1.41268	0.1427
3080.69155	1.4127	0.14212
3079.19144	1.41266	0.14154
3077.69132	1.41256	0.14099
3076.19121	1.4124	0.14047
3074.6911	1.41223	0.13999
3073.19099	1.41209	0.13955
3071.69088	1.41202	0.13913
3070.19077	1.412	0.13871
3068.69065	1.41202	0.13828
3067.19054	1.41203	0.13784
3065.69043	1.41199	0.13737
3064.19032	1.41188	0.13691
3062.69021	1.41176	0.13646
3061.19009	1.41164	0.13604
3059.68998	1.41154	0.13564
3058.18987	1.41147	0.13525
3056.68976	1.41141	0.13487
3055.18965	1.41138	0.13448
3053.68954	1.41133	0.13409
3052.18942	1.41132	0.13369
3050.68931	1.41128	0.13328
3049.1892	1.41124	0.13287
3047.68909	1.41117	0.13245
3046.18898	1.4111	0.13202
3044.68886	1.41102	0.1316
3043.18875	1.41092	0.13119
3041.68864	1.41082	0.13079
3040.18853	1.41067	0.1304
3038.68842	1.41055	0.13002
3037.18831	1.41046	0.12966
3035.68819	1.4104	0.12928
3034.18808	1.41035	0.1289
3032.68797	1.41028	0.12851
3031.18786	1.41015	0.12811
3029.68775	1.40998	0.12772
3028.18763	1.40978	0.12736
3026.68752	1.40959	0.12702
3025.18741	1.40942	0.12672
3023.6873	1.40927	0.12643
3022.18719	1.40912	0.12616
3020.68708	1.409	0.12591
3019.18696	1.40893	0.12565
3017.68685	1.4089	0.12537
3016.18674	1.4089	0.12507
3014.68663	1.40889	0.12473
3013.18652	1.40882	0.12438
3011.68641	1.40869	0.12403
3010.18629	1.40849	0.12369
3008.68618	1.40829	0.12338
3007.18607	1.4081	0.12311
3005.68596	1.40795	0.12286
3004.18585	1.40784	0.12263
3002.68573	1.40776	0.12241
3001.18562	1.4077	0.12216
2999.68551	1.40765	0.12192
2998.1854	1.4076	0.12165
2996.68529	1.40756	0.12136
2995.18518	1.4075	0.12105
2993.68506	1.40741	0.12075
2992.18495	1.40729	0.12044
2990.68484	1.40713	0.12015
2989.18473	1.40695	0.11987
2987.68462	1.40678	0.11962
2986.1845	1.40665	0.11939
2984.68439	1.40654	0.11917
2983.18428	1.40647	0.11893
2981.68417	1.40639	0.1187
2980.18406	1.4063	0.11846
2978.68395	1.40622	0.11821
2977.18383	1.40612	0.11795
2975.68372	1.406	0.11769
2974.18361	1.40586	0.11744
2972.6835	1.40573	0.1172
2971.18339	1.40556	0.11698
2969.68327	1.40541	0.11677
2968.18316	1.40527	0.11657
2966.68305	1.40516	0.11639
2965.18294	1.40509	0.11619
2963.68283	1.40504	0.11599
2962.18272	1.40496	0.11578
2960.6826	1.40487	0.11555
2959.18249	1.40474	0.11534
2957.68238	1.40461	0.11512
2956.18227	1.40448	0.11492
2954.68216	1.40436	0.11472
2953.18204	1.40424	0.11454
2951.68193	1.40412	0.11437
2950.18182	1.40401	0.1142
2948.68171	1.40392	0.11403
2947.1816	1.40384	0.11386
2945.68149	1.40378	0.11367
2944.18137	1.4037	0.11349
2942.68126	1.40359	0.11331
2941.18115	1.40345	0.11314
2939.68104	1.40331	0.11298
2938.18093	1.40318	0.11286
2936.68081	1.40309	0.11274
2935.1807	1.40302	0.11264
2933.68059	1.40302	0.11253
2932.18048	1.40305	0.11239
2930.68037	1.40309	0.11224
2929.18026	1.40311	0.11207
2927.68014	1.40309	0.11189
2926.18003	1.40304	0.1117
2924.67992	1.40301	0.11153
2923.17981	1.40304	0.11133
2921.6797	1.40314	0.11111
2920.17958	1.40329	0.11083
2918.67947	1.40341	0.11049
2917.17936	1.40347	0.1101
2915.67925	1.4034	0.10967
2914.17914	1.4032	0.10925
2912.67903	1.4029	0.10887
2911.17891	1.40255	0.10854
2909.6788	1.40219	0.10829
2908.17869	1.40187	0.1081
2906.67858	1.4016	0.10796
2905.17847	1.4014	0.10786
2903.67835	1.40124	0.10775
2902.17824	1.40111	0.10765
2900.67813	1.401	0.10753
2899.17802	1.40087	0.1074
2897.67791	1.40074	0.10727
2896.1778	1.4006	0.10713
2894.67768	1.40046	0.10699
2893.17757	1.4003	0.10686
2891.67746	1.40014	0.10675
2890.17735	1.39998	0.10664
2888.67724	1.39982	0.10655
2887.17712	1.39969	0.10647
2885.67701	1.39956	0.10639
2884.1769	1.39946	0.10632
2882.67679	1.39936	0.10626
2881.17668	1.39928	0.1062
2879.67657	1.39921	0.10612
2878.17645	1.39918	0.10603
2876.67634	1.39917	0.10592
2875.17623	1.39916	0.10579
2873.67612	1.39912	0.10565
2872.17601	1.39903	0.1055
2870.67589	1.39888	0.10537
2869.17578	1.39872	0.10525
2867.67567	1.39859	0.10517
2866.17556	1.39849	0.1051
2864.67545	1.39842	0.10505
2863.17534	1.39838	0.10499
2861.67522	1.39836	0.10494
2860.17511	1.39836	0.10487
2858.675	1.39837	0.10479
2857.17489	1.3984	0.10469
2855.67478	1.39847	0.10456
2854.17466	1.39856	0.10439
2852.67455	1.39866	0.10417
2851.17444	1.39874	0.10389
2849.67433	1.39873	0.1036
2848.17422	1.3986	0.1033
2846.67411	1.39838	0.10302
2845.17399	1.39809	0.10279
2843.67388	1.39782	0.1026
2842.17377	1.3976	0.10247
2840.67366	1.39743	0.10237
2839.17355	1.3973	0.10228
2837.67343	1.39716	0.1022
2836.17332	1.39701	0.10213
2834.67321	1.39686	0.10206
2833.1731	1.39672	0.102
2831.67299	1.3966	0.10195
2830.17288	1.3965	0.10191
2828.67276	1.39643	0.10187
2827.17265	1.39638	0.10182
2825.67254	1.39635	0.10177
2824.17243	1.39632	0.1017
2822.67232	1.39628	0.10162
2821.17221	1.39624	0.10154
2819.67209	1.3962	0.10144
2818.17198	1.39615	0.10135
2816.67187	1.39611	0.10125
2815.17176	1.39609	0.10115
2813.67165	1.39606	0.10104
2812.17153	1.39604	0.10092
2810.67142	1.39601	0.1008
2809.17131	1.39596	0.10067
2807.6712	1.39589	0.10054
2806.17109	1.39583	0.10041
2804.67098	1.39577	0.10029
2803.17086	1.39571	0.10017
2801.67075	1.39567	0.10004
2800.17064	1.39561	0.09991
2798.67053	1.39556	0.09978
2797.17042	1.39549	0.09966
2795.6703	1.39543	0.09952
2794.17019	1.39536	0.09939
2792.67008	1.39532	0.09926
2791.16997	1.39527	0.09911
2789.66986	1.39522	0.09897
2788.16975	1.39514	0.09881
2786.66963	1.39504	0.09866
2785.16952	1.39491	0.09852
2783.66941	1.39478	0.09841
2782.1693	1.39466	0.0983
2780.66919	1.39458	0.0982
2779.16907	1.39454	0.09809
2777.66896	1.3945	0.09798
2776.16885	1.39446	0.09786
2774.66874	1.39438	0.09772
2773.16863	1.39428	0.09759
2771.66852	1.39419	0.09746
2770.1684	1.3941	0.09733
2768.66829	1.39402	0.09719
2767.16818	1.39395	0.09707
2765.66807	1.39385	0.09693
2764.16796	1.39375	0.09681
2762.66784	1.39364	0.09668
2761.16773	1.39353	0.09657
2759.66762	1.39344	0.09645
2758.16751	1.39335	0.09634
2756.6674	1.39327	0.09623
2755.16729	1.3932	0.0961
2753.66717	1.39312	0.09598
2752.16706	1.39303	0.09584
2750.66695	1.39293	0.0957
2749.16684	1.39281	0.09557
2747.66673	1.3927	0.09544
2746.16661	1.39258	0.09531
2744.6665	1.39245	0.09518
2743.16639	1.39231	0.09506
2741.66628	1.39218	0.09496
2740.16617	1.39205	0.09486
2738.66606	1.39192	0.09475
2737.16594	1.3918	0.09466
2735.66583	1.39168	0.09458
2734.16572	1.39156	0.09448
2732.66561	1.39145	0.09439
2731.1655	1.39135	0.0943
2729.66538	1.39124	0.0942
2728.16527	1.39114	0.09411
2726.66516	1.39102	0.09401
2725.16505	1.39089	0.09391
2723.66494	1.39077	0.09381
2722.16483	1.39064	0.09372
2720.66471	1.39049	0.09363
2719.1646	1.39036	0.09356
2717.66449	1.39023	0.09349
2716.16438	1.39012	0.09342
2714.66427	1.39002	0.09335
2713.16415	1.3899	0.09328
2711.66404	1.38977	0.09322
2710.16393	1.38965	0.09316
2708.66382	1.38955	0.0931
2707.16371	1.38945	0.09303
2705.6636	1.38938	0.09297
2704.16348	1.38929	0.0929
2702.66337	1.38919	0.09281
2701.16326	1.3891	0.09273
2699.66315	1.389	0.09265
2698.16304	1.38888	0.09257
2696.66292	1.38877	0.09249
2695.16281	1.38865	0.09241
2693.6627	1.38854	0.09233
2692.16259	1.38842	0.09227
2690.66248	1.38831	0.0922
2689.16237	1.38819	0.09215
2687.66225	1.38808	0.09209
2686.16214	1.38799	0.09203
2684.66203	1.38794	0.09197
2683.16192	1.38789	0.09189
2681.66181	1.38783	0.0918
2680.16169	1.38774	0.09169
2678.66158	1.38762	0.09158
2677.16147	1.3875	0.09147
2675.66136	1.38738	0.09138
2674.16125	1.38725	0.09129
2672.66114	1.38712	0.09119
2671.16102	1.38699	0.09111
2669.66091	1.38687	0.09103
2668.1608	1.38674	0.09095
2666.66069	1.38661	0.09087
2665.16058	1.38649	0.0908
2663.66046	1.38635	0.09072
2662.16035	1.38623	0.09065
2660.66024	1.3861	0.09058
2659.16013	1.38598	0.09051
2657.66002	1.38584	0.09044
2656.15991	1.38572	0.09037
2654.65979	1.38559	0.0903
2653.15968	1.38548	0.09023
2651.65957	1.38535	0.09016
2650.15946	1.38523	0.09008
2648.65935	1.38509	0.09
2647.15923	1.38493	0.08992
2645.65912	1.38478	0.08986
2644.15901	1.38462	0.0898
2642.6589	1.38448	0.08974
2641.15879	1.38434	0.08969
2639.65868	1.3842	0.08963
2638.15856	1.38406	0.08958
2636.65845	1.38392	0.08952
2635.15834	1.38377	0.08947
2633.65823	1.38362	0.08941
2632.15812	1.38347	0.08935
2630.658	1.38329	0.08931
2629.15789	1.38312	0.08928
2627.65778	1.38295	0.08925
2626.15767	1.3828	0.08923
2624.65756	1.38266	0.08921
2623.15745	1.38253	0.0892
2621.65733	1.38239	0.08917
2620.15722	1.38225	0.08916
2618.65711	1.38211	0.08914
2617.157	1.38197	0.08911
2615.65689	1.38185	0.0891
2614.15678	1.38172	0.08908
2612.65666	1.38159	0.08907
2611.15655	1.38146	0.08905
2609.65644	1.38133	0.08903
2608.15633	1.38119	0.08901
2606.65622	1.38107	0.08899
2605.1561	1.38095	0.08897
2603.65599	1.38082	0.08895
2602.15588	1.3807	0.08893
2600.65577	1.38057	0.08891
2599.15566	1.38043	0.08889
2597.65555	1.38029	0.08887
2596.15543	1.38016	0.08887
2594.65532	1.38002	0.08885
2593.15521	1.3799	0.08885
2591.6551	1.37977	0.08884
2590.15499	1.37963	0.08884
2588.65487	1.37949	0.08885
2587.15476	1.37936	0.08886
2585.65465	1.37926	0.08887
2584.15454	1.37917	0.08887
2582.65443	1.37911	0.08887
2581.15432	1.37903	0.08885
2579.6542	1.37893	0.08883
2578.15409	1.37883	0.0888
2576.65398	1.37872	0.08877
2575.15387	1.3786	0.08873
2573.65376	1.37848	0.08871
2572.15364	1.37837	0.08868
2570.65353	1.37826	0.08865
2569.15342	1.37815	0.08861
2567.65331	1.37802	0.08858
2566.1532	1.3779	0.08855
2564.65309	1.37777	0.08852
2563.15297	1.37765	0.08849
2561.65286	1.37753	0.08846
2560.15275	1.3774	0.08843
2558.65264	1.37729	0.0884
2557.15253	1.37717	0.08836
2555.65241	1.37705	0.08831
2554.1523	1.37691	0.08826
2552.65219	1.37674	0.08823
2551.15208	1.37657	0.0882
2549.65197	1.37639	0.08817
2548.15186	1.37623	0.08816
2546.65174	1.37609	0.08815
2545.15163	1.37597	0.08814
2543.65152	1.37582	0.08812
2542.15141	1.37569	0.0881
2540.6513	1.37553	0.08807
2539.15118	1.37537	0.08806
2537.65107	1.3752	0.08804
2536.15096	1.37504	0.08802
2534.65085	1.37487	0.08801
2533.15074	1.37471	0.088
2531.65063	1.37454	0.08799
2530.15051	1.37436	0.08799
2528.6504	1.37418	0.08799
2527.15029	1.374	0.088
2525.65018	1.37384	0.08801
2524.15007	1.37367	0.08803
2522.64995	1.3735	0.08804
2521.14984	1.3733	0.08806
2519.64973	1.37312	0.08808
2518.14962	1.37293	0.08811
2516.64951	1.37274	0.08815
2515.1494	1.37257	0.0882
2513.64928	1.3724	0.08824
2512.14917	1.37223	0.0883
2510.64906	1.37207	0.08836
2509.14895	1.3719	0.08841
2507.64884	1.37173	0.08847
2506.14872	1.37156	0.08853
2504.64861	1.3714	0.08861
2503.1485	1.37125	0.08868
2501.64839	1.3711	0.08875
2500.14828	1.37096	0.08883
2498.64817	1.37083	0.08891
2497.14805	1.3707	0.08899
2495.64794	1.37057	0.08906
2494.14783	1.37043	0.08913
2492.64772	1.37032	0.08921
2491.14761	1.3702	0.08928
2489.64749	1.37009	0.08935
2488.14738	1.36998	0.08942
2486.64727	1.36986	0.08948
2485.14716	1.36974	0.08956
2483.64705	1.36961	0.08963
2482.14694	1.36949	0.08971
2480.64682	1.36939	0.08978
2479.14671	1.36929	0.08987
2477.6466	1.36921	0.08994
2476.14649	1.36914	0.09
2474.64638	1.36907	0.09005
2473.14626	1.36899	0.0901
2471.64615	1.36889	0.09014
2470.14604	1.36877	0.09018
2468.64593	1.36864	0.09023
2467.14582	1.36851	0.09029
2465.64571	1.36841	0.09036
2464.14559	1.36834	0.09042
2462.64548	1.36829	0.09046
2461.14537	1.36824	0.0905
2459.64526	1.36818	0.09052
2458.14515	1.36808	0.09053
2456.64503	1.36794	0.09055
2455.14492	1.3678	0.09057
2453.64481	1.36767	0.0906
2452.1447	1.36756	0.09064
2450.64459	1.36745	0.09068
2449.14448	1.36734	0.09071
2447.64436	1.36722	0.09076
2446.14425	1.36708	0.0908
2444.64414	1.36696	0.09084
2443.14403	1.36684	0.09089
2441.64392	1.36674	0.09093
2440.1438	1.36664	0.09096
2438.64369	1.36654	0.09099
2437.14358	1.36642	0.09102
2435.64347	1.36628	0.09105
2434.14336	1.36613	0.09109
2432.64325	1.36597	0.09114
2431.14313	1.36583	0.09118
2429.64302	1.36569	0.09124
2428.14291	1.36556	0.0913
2426.6428	1.36545	0.09135
2425.14269	1.36534	0.09141
2423.64258	1.36521	0.09146
2422.14246	1.36506	0.0915
2420.64235	1.36491	0.09156
2419.14224	1.36475	0.09162
2417.64213	1.36461	0.09169
2416.14202	1.36448	0.09176
2414.6419	1.36437	0.09183
2413.14179	1.36424	0.09189
2411.64168	1.3641	0.09196
2410.14157	1.36396	0.09203
2408.64146	1.36382	0.09209
2407.14135	1.36368	0.09216
2405.64123	1.36355	0.09223
2404.14112	1.3634	0.09232
2402.64101	1.36325	0.0924
2401.1409	1.36309	0.0925
2399.64079	1.36293	0.09261
2398.14067	1.36281	0.09272
2396.64056	1.36272	0.09282
2395.14045	1.36266	0.09291
2393.64034	1.36258	0.09299
2392.14023	1.36248	0.09305
2390.64012	1.36236	0.09312
2389.14	1.36222	0.09318
2387.63989	1.36209	0.09324
2386.13978	1.36196	0.0933
2384.63967	1.36183	0.09337
2383.13956	1.36168	0.09343
2381.63944	1.36152	0.0935
2380.13933	1.36133	0.09358
2378.63922	1.36112	0.09369
2377.13911	1.36093	0.09381
2375.639	1.36076	0.09395
2374.13889	1.36064	0.09408
2372.63877	1.36056	0.09421
2371.13866	1.36047	0.09433
2369.63855	1.36036	0.09443
2368.13844	1.3602	0.09453
2366.63833	1.36001	0.09464
2365.13821	1.3598	0.09477
2363.6381	1.35963	0.09492
2362.13799	1.35944	0.09509
2360.63788	1.35924	0.0953
2359.13777	1.35906	0.09553
2357.63766	1.35892	0.09578
2356.13754	1.35886	0.09604
2354.63743	1.35886	0.09629
2353.13732	1.35889	0.09652
2351.63721	1.35895	0.09672
2350.1371	1.35903	0.09687
2348.63698	1.35911	0.09698
2347.13687	1.35915	0.09706
2345.63676	1.35913	0.09712
2344.13665	1.35908	0.09718
2342.63654	1.35899	0.09724
2341.13643	1.3589	0.09732
2339.63631	1.35882	0.0974
2338.1362	1.35874	0.09748
2336.63609	1.35868	0.09759
2335.13598	1.35861	0.09768
2333.63587	1.35853	0.09777
2332.13575	1.35843	0.09788
2330.63564	1.35832	0.09799
2329.13553	1.35823	0.09812
2327.63542	1.35815	0.09825
2326.13531	1.35809	0.09839
2324.6352	1.35803	0.09852
2323.13508	1.35799	0.09866
2321.63497	1.35798	0.09877
2320.13486	1.35798	0.09887
2318.63475	1.35795	0.09897
2317.13464	1.35789	0.09906
2315.63452	1.35782	0.09914
2314.13441	1.35772	0.09924
2312.6343	1.35764	0.09934
2311.13419	1.35757	0.09945
2309.63408	1.35751	0.09957
2308.13397	1.35745	0.09969
2306.63385	1.3574	0.09981
2305.13374	1.35736	0.09993
2303.63363	1.35731	0.10004
2302.13352	1.35728	0.10015
2300.63341	1.35724	0.10025
2299.13329	1.35721	0.10034
2297.63318	1.35717	0.10043
2296.13307	1.35711	0.10052
2294.63296	1.35703	0.10061
2293.13285	1.35696	0.10071
2291.63274	1.3569	0.10082
2290.13262	1.35685	0.10092
2288.63251	1.35679	0.10103
2287.1324	1.35674	0.10113
2285.63229	1.35667	0.10124
2284.13218	1.3566	0.10135
2282.63206	1.35654	0.10148
2281.13195	1.35649	0.1016
2279.63184	1.35645	0.10172
2278.13173	1.35643	0.10184
2276.63162	1.3564	0.10195
2275.13151	1.35638	0.10206
2273.63139	1.35634	0.10217
2272.13128	1.35631	0.10226
2270.63117	1.35626	0.10236
2269.13106	1.35621	0.10247
2267.63095	1.35615	0.10258
2266.13083	1.35612	0.1027
2264.63072	1.35609	0.10282
2263.13061	1.35608	0.10293
2261.6305	1.35608	0.10305
2260.13039	1.35606	0.10315
2258.63028	1.35604	0.10325
2257.13016	1.35602	0.10335
2255.63005	1.35601	0.10346
2254.12994	1.35602	0.10355
2252.62983	1.35604	0.10364
2251.12972	1.35605	0.10371
2249.6296	1.35604	0.10378
2248.12949	1.35602	0.10384
2246.62938	1.35599	0.10391
2245.12927	1.35597	0.10398
2243.62916	1.35594	0.10406
2242.12905	1.35591	0.10412
2240.62893	1.35591	0.1042
2239.12882	1.35592	0.10427
2237.62871	1.35593	0.10432
2236.1286	1.35594	0.10437
2234.62849	1.35594	0.10442
2233.12838	1.35591	0.10445
2231.62826	1.35588	0.10449
2230.12815	1.35584	0.10452
2228.62804	1.3558	0.10456
2227.12793	1.35578	0.10459
2225.62782	1.35575	0.10463
2224.1277	1.35573	0.10466
2222.62759	1.3557	0.10469
2221.12748	1.35566	0.10471
2219.62737	1.35562	0.10473
2218.12726	1.35558	0.10474
2216.62715	1.35553	0.10475
2215.12703	1.35547	0.10477
2213.62692	1.35539	0.10477
2212.12681	1.3553	0.10479
2210.6267	1.35522	0.10481
2209.12659	1.35513	0.10483
2207.62647	1.35506	0.10486
2206.12636	1.35496	0.1049
2204.62625	1.35487	0.10493
2203.12614	1.35478	0.10496
2201.62603	1.3547	0.10499
2200.12592	1.35461	0.10502
2198.6258	1.35451	0.10505
2197.12569	1.3544	0.10508
2195.62558	1.35428	0.10511
2194.12547	1.35417	0.10516
2192.62536	1.35404	0.1052
2191.12524	1.35391	0.10525
2189.62513	1.35377	0.10533
2188.12502	1.35363	0.10539
2186.62491	1.35351	0.10548
2185.1248	1.3534	0.10557
2183.62469	1.35331	0.10565
2182.12457	1.35323	0.10572
2180.62446	1.35312	0.1058
2179.12435	1.35301	0.10588
2177.62424	1.35287	0.10596
2176.12413	1.35273	0.10606
2174.62401	1.3526	0.10617
2173.1239	1.3525	0.10628
2171.62379	1.35242	0.1064
2170.12368	1.35235	0.10651
2168.62357	1.35229	0.10662
2167.12346	1.3522	0.10673
2165.62334	1.35212	0.10683
2164.12323	1.35203	0.10693
2162.62312	1.35197	0.10703
2161.12301	1.35192	0.10713
2159.6229	1.35186	0.10722
2158.12278	1.35179	0.10732
2156.62267	1.35171	0.1074
2155.12256	1.35165	0.10749
2153.62245	1.35159	0.10757
2152.12234	1.35153	0.10767
2150.62223	1.35148	0.10775
2149.12211	1.35142	0.10784
2147.622	1.35137	0.1079
2146.12189	1.35131	0.10798
2144.62178	1.35125	0.10804
2143.12167	1.35118	0.10812
2141.62155	1.35111	0.10819
2140.12144	1.35103	0.10825
2138.62133	1.35096	0.10833
2137.12122	1.35091	0.10841
2135.62111	1.35087	0.10847
2134.121	1.35084	0.10853
2132.62088	1.3508	0.10857
2131.12077	1.35073	0.10862
2129.62066	1.35065	0.10865
2128.12055	1.35057	0.1087
2126.62044	1.3505	0.10874
2125.12032	1.35044	0.10878
2123.62021	1.35037	0.10883
2122.1201	1.35031	0.10886
2120.61999	1.35027	0.10887
2119.11988	1.35021	0.10889
2117.61977	1.35014	0.10889
2116.11965	1.35005	0.10889
2114.61954	1.34994	0.10888
2113.11943	1.34981	0.10888
2111.61932	1.34968	0.10888
2110.11921	1.34956	0.10889
2108.61909	1.34943	0.1089
2107.11898	1.34931	0.1089
2105.61887	1.34917	0.10892
2104.11876	1.34902	0.10893
2102.61865	1.34886	0.10894
2101.11854	1.34872	0.10895
2099.61842	1.34856	0.10896
2098.11831	1.34839	0.10899
2096.6182	1.3482	0.10901
2095.11809	1.34803	0.10903
2093.61798	1.34785	0.10906
2092.11786	1.34766	0.10909
2090.61775	1.34747	0.10913
2089.11764	1.34727	0.10918
2087.61753	1.34705	0.10924
2086.11742	1.34683	0.1093
2084.61731	1.34663	0.10938
2083.11719	1.34645	0.10946
2081.61708	1.34628	0.10954
2080.11697	1.3461	0.10962
2078.61686	1.34592	0.10969
2077.11675	1.34572	0.10977
2075.61663	1.34552	0.10985
2074.11652	1.34532	0.10993
2072.61641	1.34513	0.11
2071.1163	1.34495	0.11009
2069.61619	1.34475	0.11017
2068.11608	1.34456	0.11026
2066.61596	1.34434	0.11034
2065.11585	1.34412	0.11042
2063.61574	1.34389	0.11053
2062.11563	1.34368	0.11063
2060.61552	1.34346	0.11074
2059.1154	1.34324	0.11086
2057.61529	1.34303	0.11098
2056.11518	1.34282	0.11111
2054.61507	1.34263	0.11124
2053.11496	1.34242	0.11136
2051.61485	1.34222	0.1115
2050.11473	1.34202	0.11163
2048.61462	1.34181	0.11176
2047.11451	1.34161	0.1119
2045.6144	1.34143	0.11204
2044.11429	1.34124	0.11218
2042.61418	1.34106	0.11231
2041.11406	1.34088	0.11244
2039.61395	1.3407	0.11256
2038.11384	1.34053	0.11268
2036.61373	1.34035	0.11279
2035.11362	1.34016	0.1129
2033.6135	1.33994	0.11301
2032.11339	1.33972	0.11312
2030.61328	1.3395	0.11323
2029.11317	1.33927	0.11335
2027.61306	1.33904	0.11349
2026.11295	1.3388	0.11363
2024.61283	1.33857	0.11377
2023.11272	1.33836	0.11392
2021.61261	1.33817	0.11406
2020.1125	1.338	0.11418
2018.61239	1.33781	0.1143
2017.11227	1.33759	0.11441
2015.61216	1.33734	0.11452
2014.11205	1.33707	0.11464
2012.61194	1.3368	0.11476
2011.11183	1.33654	0.1149
2009.61172	1.3363	0.11503
2008.1116	1.33605	0.11517
2006.61149	1.33579	0.11531
2005.11138	1.33551	0.11546
2003.61127	1.33523	0.11562
2002.11116	1.33495	0.11577
2000.61104	1.33469	0.11593
1999.11093	1.33444	0.11608
1997.61082	1.33418	0.11623
1996.11071	1.3339	0.11637
1994.6106	1.33359	0.11651
1993.11049	1.33326	0.11666
1991.61037	1.33291	0.11682
1990.11026	1.33256	0.117
1988.61015	1.33222	0.1172
1987.11004	1.3319	0.11741
1985.60993	1.33157	0.11761
1984.10981	1.33124	0.11783
1982.6097	1.33089	0.11805
1981.10959	1.33054	0.11828
1979.60948	1.33018	0.11852
1978.10937	1.32981	0.11877
1976.60926	1.32945	0.11904
1975.10914	1.32911	0.11931
1973.60903	1.32875	0.1196
1972.10892	1.3284	0.11989
1970.60881	1.32807	0.1202
1969.1087	1.32774	0.1205
1967.60858	1.3274	0.1208
1966.10847	1.32706	0.12111
1964.60836	1.32671	0.12142
1963.10825	1.32634	0.12175
1961.60814	1.32597	0.1221
1960.10803	1.3256	0.12245
1958.60791	1.32523	0.12283
1957.1078	1.32489	0.12321
1955.60769	1.32456	0.12362
1954.10758	1.32422	0.12402
1952.60747	1.32387	0.12445
1951.10735	1.32354	0.12489
1949.60724	1.32323	0.12533
1948.10713	1.32298	0.12578
1946.60702	1.32274	0.1262
1945.10691	1.32252	0.12663
1943.6068	1.32227	0.12703
1942.10668	1.32198	0.12744
1940.60657	1.32166	0.12785
1939.10646	1.32131	0.12828
1937.60635	1.32099	0.12873
1936.10624	1.32069	0.12921
1934.60612	1.32042	0.1297
1933.10601	1.32018	0.13018
1931.6059	1.31994	0.13067
1930.10579	1.31971	0.13115
1928.60568	1.31945	0.13164
1927.10557	1.3192	0.13212
1925.60545	1.31894	0.13262
1924.10534	1.31869	0.13312
1922.60523	1.31848	0.13363
1921.10512	1.31827	0.13413
1919.60501	1.31806	0.13463
1918.10489	1.31782	0.13514
1916.60478	1.31756	0.13565
1915.10467	1.31731	0.13618
1913.60456	1.31708	0.13672
1912.10445	1.3169	0.13727
1910.60434	1.31673	0.13781
1909.10422	1.31655	0.13836
1907.60411	1.31635	0.13889
1906.104	1.31614	0.13944
1904.60389	1.31595	0.13998
1903.10378	1.31574	0.14054
1901.60366	1.31553	0.1411
1900.10355	1.31533	0.14169
1898.60344	1.31516	0.14228
1897.10333	1.31499	0.14289
1895.60322	1.31484	0.14348
1894.10311	1.31471	0.14409
1892.60299	1.31459	0.14468
1891.10288	1.31448	0.14526
1889.60277	1.31435	0.14584
1888.10266	1.3142	0.14641
1886.60255	1.31402	0.147
1885.10243	1.31384	0.14761
1883.60232	1.31367	0.14823
1882.10221	1.31352	0.14887
1880.6021	1.31339	0.14953
1879.10199	1.31326	0.15019
1877.60188	1.31314	0.15087
1876.10176	1.31301	0.15157
1874.60165	1.31291	0.15227
1873.10154	1.31285	0.15296
1871.60143	1.31286	0.15365
1870.10132	1.3129	0.15432
1868.6012	1.31291	0.15495
1867.10109	1.31287	0.15559
1865.60098	1.31276	0.15622
1864.10087	1.31264	0.15687
1862.60076	1.31253	0.15754
1861.10065	1.31245	0.15824
1859.60053	1.31237	0.15896
1858.10042	1.31231	0.15971
1856.60031	1.31225	0.16047
1855.1002	1.31221	0.16125
1853.60009	1.31219	0.16206
1852.09997	1.31221	0.16287
1850.59986	1.31229	0.16369
1849.09975	1.31243	0.16448
1847.59964	1.31263	0.16524
1846.09953	1.31283	0.16597
1844.59942	1.31297	0.16667
1843.0993	1.31303	0.16736
1841.59919	1.31302	0.16807
1840.09908	1.31301	0.16881
1838.59897	1.31304	0.1696
1837.09886	1.31313	0.17042
1835.59875	1.31327	0.17126
1834.09863	1.31347	0.17209
1832.59852	1.31372	0.17291
1831.09841	1.314	0.17369
1829.5983	1.31427	0.17445
1828.09819	1.3145	0.17518
1826.59807	1.31468	0.17592
1825.09796	1.31485	0.17666
1823.59785	1.31503	0.17743
1822.09774	1.31522	0.1782
1820.59763	1.31544	0.17901
1819.09752	1.31568	0.17983
1817.5974	1.31595	0.18066
1816.09729	1.31625	0.18148
1814.59718	1.3166	0.1823
1813.09707	1.31697	0.1831
1811.59696	1.31735	0.1839
1810.09684	1.31773	0.18467
1808.59673	1.3181	0.18544
1807.09662	1.31846	0.18622
1805.59651	1.31886	0.18698
1804.0964	1.31929	0.18775
1802.59629	1.31973	0.18851
1801.09617	1.32017	0.18927
1799.59606	1.3206	0.19003
1798.09595	1.32103	0.1908
1796.59584	1.32153	0.19153
1795.09573	1.3221	0.19226
1793.59561	1.3227	0.19294
1792.0955	1.32326	0.1936
1790.59539	1.32372	0.19424
1789.09528	1.32413	0.1949
1787.59517	1.3245	0.19559
1786.09506	1.32492	0.19629
1784.59494	1.32543	0.19704
1783.09483	1.32598	0.19781
1781.59472	1.32655	0.19858
1780.09461	1.32713	0.19935
1778.5945	1.32774	0.20012
1777.09438	1.32841	0.20087
1775.59427	1.32917	0.20157
1774.09416	1.33003	0.20223
1772.59405	1.33088	0.20282
1771.09394	1.33164	0.20336
1769.59383	1.33227	0.20387
1768.09371	1.33283	0.20441
1766.5936	1.33338	0.20496
1765.09349	1.33398	0.20555
1763.59338	1.33468	0.20617
1762.09327	1.33542	0.2068
1760.59315	1.33618	0.20742
1759.09304	1.33692	0.20804
1757.59293	1.33764	0.20866
1756.09282	1.3384	0.20928
1754.59271	1.33925	0.20989
1753.0926	1.34021	0.21048
1751.59248	1.34125	0.21102
1750.09237	1.34229	0.21148
1748.59226	1.34328	0.21188
1747.09215	1.34417	0.21225
1745.59204	1.34501	0.2126
1744.09192	1.34585	0.21296
1742.59181	1.34674	0.21333
1741.0917	1.34766	0.2137
1739.59159	1.34863	0.21406
1738.09148	1.34967	0.21437
1736.59137	1.35078	0.2146
1735.09125	1.35192	0.21476
1733.59114	1.35299	0.21482
1732.09103	1.35388	0.21484
1730.59092	1.35461	0.21487
1729.09081	1.35528	0.21494
1727.59069	1.35594	0.21505
1726.09058	1.35665	0.21525
1724.59047	1.35744	0.21551
1723.09036	1.35832	0.21576
1721.59025	1.35936	0.21596
1720.09014	1.36055	0.21607
1718.59002	1.36179	0.21605
1717.08991	1.36292	0.21591
1715.5898	1.3638	0.21568
1714.08969	1.36443	0.21546
1712.58958	1.36492	0.21529
1711.08946	1.36541	0.21519
1709.58935	1.36602	0.21519
1708.08924	1.36674	0.21525
1706.58913	1.36754	0.21532
1705.08902	1.36839	0.21534
1703.58891	1.3693	0.2153
1702.08879	1.37026	0.21517
1700.58868	1.37121	0.21494
1699.08857	1.37203	0.21462
1697.58846	1.37264	0.21428
1696.08835	1.37304	0.21398
1694.58823	1.37325	0.21376
1693.08812	1.37342	0.21368
1691.58801	1.37367	0.21376
1690.0879	1.37407	0.21393
1688.58779	1.37473	0.21411
1687.08768	1.37558	0.21426
1685.58756	1.37652	0.21434
1684.08745	1.37734	0.21431
1682.58734	1.37789	0.21425
1681.08723	1.37825	0.21423
1679.58712	1.37856	0.2143
1678.087	1.37899	0.21447
1676.58689	1.37963	0.21472
1675.08678	1.3804	0.21499
1673.58667	1.38125	0.21523
1672.08656	1.38214	0.21545
1670.58645	1.38303	0.21564
1669.08633	1.38388	0.21578
1667.58622	1.38467	0.21593
1666.08611	1.38546	0.21611
1664.586	1.3863	0.21634
1663.08589	1.38724	0.2166
1661.58577	1.38824	0.21692
1660.08566	1.3893	0.21728
1658.58555	1.39055	0.2176
1657.08544	1.39209	0.21783
1655.58533	1.39391	0.21794
1654.08522	1.39582	0.21787
1652.5851	1.39761	0.21758
1651.08499	1.39919	0.21714
1649.58488	1.40068	0.2166
1648.08477	1.40214	0.216
1646.58466	1.40359	0.21532
1645.08455	1.40492	0.21466
1643.58443	1.40617	0.21404
1642.08432	1.40745	0.21341
1640.58421	1.40894	0.21269
1639.0841	1.4107	0.21186
1637.58399	1.41258	0.21089
1636.08387	1.41437	0.20972
1634.58376	1.41584	0.20837
1633.08365	1.41702	0.20692
1631.58354	1.41805	0.20545
1630.08343	1.4191	0.20394
1628.58332	1.42022	0.20241
1627.0832	1.42139	0.20082
1625.58309	1.42247	0.19918
1624.08298	1.42342	0.19745
1622.58287	1.42422	0.19561
1621.08276	1.42492	0.1937
1619.58264	1.42558	0.19176
1618.08253	1.42615	0.18975
1616.58242	1.42651	0.18769
1615.08231	1.4266	0.18564
1613.5822	1.42649	0.18364
1612.08209	1.42627	0.18171
1610.58197	1.42602	0.17984
1609.08186	1.42574	0.17804
1607.58175	1.4254	0.17631
1606.08164	1.42499	0.17462
1604.58153	1.42451	0.17298
1603.08141	1.42398	0.17137
1601.5813	1.42338	0.16982
1600.08119	1.42271	0.16832
1598.58108	1.422	0.16688
1597.08097	1.42125	0.16549
1595.58086	1.42048	0.16416
1594.08074	1.41966	0.16288
1592.58063	1.41879	0.16166
1591.08052	1.41788	0.1605
1589.58041	1.41694	0.15942
1588.0803	1.41599	0.15839
1586.58018	1.41502	0.15746
1585.08007	1.41404	0.15658
1583.57996	1.41308	0.15578
1582.07985	1.41217	0.15501
1580.57974	1.41137	0.15425
1579.07963	1.41064	0.1535
1577.57951	1.40986	0.15276
1576.0794	1.40896	0.152
1574.57929	1.40793	0.15127
1573.07918	1.40687	0.15062
1571.57907	1.40587	0.15003
1570.07895	1.40489	0.14949
1568.57884	1.40387	0.14906
1567.07873	1.40281	0.14875
1565.57862	1.40183	0.14848
1564.07851	1.4011	0.14817
1562.5784	1.40068	0.14781
1561.07828	1.40042	0.14734
1559.57817	1.40003	0.14672
1558.07806	1.39924	0.14601
1556.57795	1.39806	0.14533
1555.07784	1.39669	0.14477
1553.57772	1.39531	0.14435
1552.07761	1.39407	0.14411
1550.5775	1.39296	0.14405
1549.07739	1.39197	0.14408
1547.57728	1.39113	0.14415
1546.07717	1.39051	0.14415
1544.57705	1.39011	0.14406
1543.07694	1.38979	0.14384
1541.57683	1.38935	0.1435
1540.07672	1.38862	0.14308
1538.57661	1.38755	0.14264
1537.07649	1.38633	0.14232
1535.57638	1.3851	0.14212
1534.07627	1.38398	0.14205
1532.57616	1.38293	0.14209
1531.07605	1.38196	0.14225
1529.57594	1.38108	0.14245
1528.07582	1.38033	0.14265
1526.57571	1.37971	0.14282
1525.0756	1.3792	0.14293
1523.57549	1.37874	0.14298
1522.07538	1.37822	0.14293
1520.57526	1.37758	0.14284
1519.07515	1.37677	0.14275
1517.57504	1.37585	0.14272
1516.07493	1.37487	0.14278
1514.57482	1.37392	0.14293
1513.07471	1.37314	0.14314
1511.57459	1.37258	0.14333
1510.07448	1.37225	0.14346
1508.57437	1.37198	0.14349
1507.07426	1.37152	0.14341
1505.57415	1.37073	0.14329
1504.07403	1.36971	0.14322
1502.57392	1.36864	0.14323
1501.07381	1.36769	0.14333
1499.5737	1.36688	0.14352
1498.07359	1.36611	0.14379
1496.57348	1.36535	0.14408
1495.07336	1.36461	0.14438
1493.57325	1.36397	0.14466
1492.07314	1.36345	0.14492
1490.57303	1.36297	0.14513
1489.07292	1.36241	0.14529
1487.5728	1.36173	0.14546
1486.07269	1.36094	0.14564
1484.57258	1.36013	0.14587
1483.07247	1.35935	0.14617
1481.57236	1.35867	0.14652
1480.07225	1.35807	0.14689
1478.57213	1.3576	0.14724
1477.07202	1.35723	0.14753
1475.57191	1.35691	0.14774
1474.0718	1.35651	0.14789
1472.57169	1.35595	0.14799
1471.07157	1.35521	0.1481
1469.57146	1.3544	0.14825
1468.07135	1.35363	0.14847
1466.57124	1.35294	0.14875
1465.07113	1.35229	0.14908
1463.57102	1.35168	0.14944
1462.0709	1.35115	0.14974
1460.57079	1.35075	0.15001
1459.07068	1.3504	0.1502
1457.57057	1.34997	0.15033
1456.07046	1.34929	0.15043
1454.57035	1.34841	0.15057
1453.07023	1.34746	0.15079
1451.57012	1.34657	0.15108
1450.07001	1.34583	0.15145
1448.5699	1.34517	0.15186
1447.06979	1.34453	0.1523
1445.56967	1.34389	0.15274
1444.06956	1.34322	0.15318
1442.56945	1.3426	0.15363
1441.06934	1.34204	0.15405
1439.56923	1.34155	0.15447
1438.06912	1.34108	0.15486
1436.569	1.34056	0.15522
1435.06889	1.33996	0.15556
1433.56878	1.33931	0.15591
1432.06867	1.33864	0.15629
1430.56856	1.338	0.15669
1429.06844	1.33737	0.15711
1427.56833	1.33674	0.15758
1426.06822	1.33614	0.15805
1424.56811	1.33558	0.15852
1423.068	1.33508	0.15898
1421.56789	1.33464	0.15941
1420.06777	1.33419	0.15981
1418.56766	1.33367	0.16017
1417.06755	1.33305	0.16054
1415.56744	1.33237	0.16092
1414.06733	1.33169	0.16134
1412.56721	1.33103	0.16179
1411.0671	1.33041	0.16226
1409.56699	1.32981	0.16276
1408.06688	1.32923	0.16326
1406.56677	1.32864	0.16379
1405.06666	1.32805	0.16431
1403.56654	1.32747	0.16483
1402.06643	1.32691	0.16537
1400.56632	1.32638	0.1659
1399.06621	1.32591	0.16642
1397.5661	1.32543	0.16692
1396.06598	1.32493	0.16741
1394.56587	1.32439	0.16788
1393.06576	1.3238	0.16835
1391.56565	1.32321	0.16884
1390.06554	1.32265	0.16933
1388.56543	1.3221	0.16984
1387.06531	1.32152	0.17034
1385.5652	1.32092	0.17086
1384.06509	1.32029	0.17141
1382.56498	1.31966	0.17197
1381.06487	1.31907	0.17256
1379.56475	1.31852	0.17314
1378.06464	1.31802	0.17373
1376.56453	1.31754	0.1743
1375.06442	1.31703	0.17485
1373.56431	1.31647	0.1754
1372.0642	1.31586	0.17594
1370.56408	1.31524	0.17652
1369.06397	1.31463	0.17711
1367.56386	1.31406	0.17772
1366.06375	1.31351	0.17834
1364.56364	1.31297	0.17896
1363.06352	1.31244	0.17957
1361.56341	1.31188	0.18019
1360.0633	1.3113	0.18081
1358.56319	1.31074	0.18145
1357.06308	1.31017	0.18209
1355.56297	1.30962	0.18273
1354.06285	1.30908	0.1834
1352.56274	1.30857	0.18405
1351.06263	1.30806	0.1847
1349.56252	1.30754	0.18536
1348.06241	1.30702	0.186
1346.56229	1.30649	0.18665
1345.06218	1.30596	0.1873
1343.56207	1.30546	0.18795
1342.06196	1.30499	0.18858
1340.56185	1.30452	0.18921
1339.06174	1.30403	0.18982
1337.56162	1.30349	0.19042
1336.06151	1.30292	0.19101
1334.5614	1.30235	0.19163
1333.06129	1.30181	0.19224
1331.56118	1.30127	0.19285
1330.06106	1.30074	0.19346
1328.56095	1.30018	0.19407
1327.06084	1.29963	0.19467
1325.56073	1.29907	0.19525
1324.06062	1.29851	0.19582
1322.56051	1.29794	0.19639
1321.06039	1.29735	0.19694
1319.56028	1.29674	0.19748
1318.06017	1.29611	0.19802
1316.56006	1.29546	0.19854
1315.05995	1.29479	0.19906
1313.55983	1.29409	0.19956
1312.05972	1.29337	0.20006
1310.55961	1.2926	0.20056
1309.0595	1.29179	0.20106
1307.55939	1.29094	0.20155
1306.05928	1.29007	0.20207
1304.55916	1.28916	0.20259
1303.05905	1.28823	0.20312
1301.55894	1.28726	0.20366
1300.05883	1.28627	0.20421
1298.55872	1.28524	0.20477
1297.0586	1.28417	0.20533
1295.55849	1.28306	0.2059
1294.05838	1.2819	0.20648
1292.55827	1.2807	0.20708
1291.05816	1.27944	0.2077
1289.55805	1.27812	0.20833
1288.05793	1.27674	0.20899
1286.55782	1.2753	0.2097
1285.05771	1.27379	0.21044
1283.5576	1.27223	0.21122
1282.05749	1.27061	0.21206
1280.55737	1.26893	0.21296
1279.05726	1.26722	0.21392
1277.55715	1.26544	0.21494
1276.05704	1.26361	0.21604
1274.55693	1.26174	0.2172
1273.05682	1.25981	0.21845
1271.5567	1.25784	0.21976
1270.05659	1.25581	0.22116
1268.55648	1.25372	0.22267
1267.05637	1.25158	0.22427
1265.55626	1.24938	0.22601
1264.05615	1.24715	0.22786
1262.55603	1.24487	0.22985
1261.05592	1.24258	0.23199
1259.55581	1.24028	0.23429
1258.0557	1.23799	0.23675
1256.55559	1.2357	0.23938
1255.05547	1.23344	0.24218
1253.55536	1.23121	0.24516
1252.05525	1.22903	0.24831
1250.55514	1.22692	0.25165
1249.05503	1.22489	0.25517
1247.55492	1.22297	0.25888
1246.0548	1.22117	0.26278
1244.55469	1.21952	0.26684
1243.05458	1.21804	0.27106
1241.55447	1.21674	0.27542
1240.05436	1.21563	0.27992
1238.55424	1.21471	0.28453
1237.05413	1.21401	0.28923
1235.55402	1.21351	0.29402
1234.05391	1.21325	0.29886
1232.5538	1.2132	0.30374
1231.05369	1.21339	0.30864
1229.55357	1.2138	0.31355
1228.05346	1.21443	0.31842
1226.55335	1.21528	0.32325
1225.05324	1.21633	0.32801
1223.55313	1.21755	0.33268
1222.05301	1.21894	0.33727
1220.5529	1.22048	0.34176
1219.05279	1.22216	0.34614
1217.55268	1.22394	0.3504
1216.05257	1.22584	0.35456
1214.55246	1.2278	0.35861
1213.05234	1.22984	0.36255
1211.55223	1.23194	0.3664
1210.05212	1.23408	0.37016
1208.55201	1.23625	0.37384
1207.0519	1.23844	0.37746
1205.55178	1.24067	0.38104
1204.05167	1.24294	0.38459
1202.55156	1.24526	0.3881
1201.05145	1.24765	0.3916
1199.55134	1.25009	0.39507
1198.05123	1.25262	0.39853
1196.55111	1.25522	0.40197
1195.051	1.25791	0.40539
1193.55089	1.26069	0.40878
1192.05078	1.26358	0.41217
1190.55067	1.2666	0.41551
1189.05055	1.26977	0.4188
1187.55044	1.27307	0.42204
1186.05033	1.2765	0.42519
1184.55022	1.28007	0.42826
1183.05011	1.28378	0.43123
1181.55	1.28763	0.43405
1180.04988	1.29162	0.43674
1178.54977	1.29572	0.43926
1177.04966	1.29991	0.44161
1175.54955	1.30418	0.44376
1174.04944	1.30852	0.44572
1172.54932	1.3129	0.44749
1171.04921	1.31731	0.44904
1169.5491	1.32172	0.45038
1168.04899	1.32611	0.45152
1166.54888	1.33046	0.45247
1165.04877	1.33475	0.45322
1163.54865	1.33895	0.4538
1162.04854	1.34307	0.45423
1160.54843	1.34708	0.45451
1159.04832	1.351	0.45466
1157.54821	1.35482	0.4547
1156.04809	1.35855	0.45462
1154.54798	1.36219	0.45445
1153.04787	1.36571	0.45419
1151.54776	1.36912	0.45385
1150.04765	1.37238	0.45343
1148.54754	1.37554	0.45297
1147.04742	1.37857	0.45248
1145.54731	1.38151	0.45195
1144.0472	1.38434	0.4514
1142.54709	1.38707	0.45084
1141.04698	1.38971	0.45026
1139.54686	1.39225	0.4497
1138.04675	1.39469	0.44914
1136.54664	1.39705	0.4486
1135.04653	1.39932	0.4481
1133.54642	1.40153	0.44762
1132.04631	1.40368	0.44719
1130.54619	1.40578	0.4468
1129.04608	1.40784	0.44646
1127.54597	1.40986	0.44618
1126.04586	1.41186	0.44595
1124.54575	1.41388	0.44577
1123.04563	1.4159	0.44564
1121.54552	1.41795	0.44553
1120.04541	1.42003	0.44547
1118.5453	1.42214	0.44541
1117.04519	1.42429	0.44538
1115.54508	1.42649	0.44534
1114.04496	1.42874	0.44528
1112.54485	1.43105	0.4452
1111.04474	1.4334	0.44505
1109.54463	1.43579	0.44485
1108.04452	1.4382	0.44459
1106.5444	1.44062	0.44424
1105.04429	1.44302	0.4438
1103.54418	1.44541	0.44328
1102.04407	1.44776	0.44267
1100.54396	1.45005	0.44196
1099.04385	1.45229	0.44118
1097.54373	1.45443	0.44032
1096.04362	1.45648	0.43939
1094.54351	1.45842	0.43841
1093.0434	1.46022	0.43738
1091.54329	1.46191	0.43632
1090.04317	1.46344	0.43526
1088.54306	1.46484	0.4342
1087.04295	1.46609	0.43316
1085.54284	1.46717	0.43216
1084.04273	1.4681	0.43123
1082.54262	1.46884	0.43039
1081.0425	1.4694	0.42967
1079.54239	1.4698	0.42913
1078.04228	1.47003	0.42878
1076.54217	1.47014	0.42868
1075.04206	1.47015	0.42886
1073.54194	1.47008	0.42936
1072.04183	1.46999	0.43021
1070.54172	1.46989	0.43147
1069.04161	1.46989	0.43317
1067.5415	1.47005	0.43536
1066.04139	1.47051	0.43803
1064.54127	1.4714	0.44119
1063.04116	1.47289	0.44477
1061.54105	1.47516	0.44867
1060.04094	1.47835	0.45272
1058.54083	1.48252	0.45676
1057.04072	1.48767	0.46057
1055.5406	1.49372	0.46392
1054.04049	1.50053	0.46666
1052.54038	1.50796	0.4686
1051.04027	1.51582	0.46964
1049.54016	1.52388	0.46972
1048.04004	1.53196	0.46883
1046.53993	1.53978	0.46702
1045.03982	1.54714	0.46439
1043.53971	1.55396	0.46109
1042.0396	1.56019	0.45725
1040.53949	1.56585	0.45302
1039.03937	1.57101	0.4485
1037.53926	1.57569	0.44378
1036.03915	1.57993	0.43894
1034.53904	1.58379	0.434
1033.03893	1.58728	0.42899
1031.53881	1.59044	0.42394
1030.0387	1.59326	0.41887
1028.53859	1.59576	0.41378
1027.03848	1.59797	0.40872
1025.53837	1.59988	0.40367
1024.03826	1.60155	0.39865
1022.53814	1.60298	0.39366
1021.03803	1.60416	0.38874
1019.53792	1.60511	0.38385
1018.03781	1.60582	0.37903
1016.5377	1.6063	0.37429
1015.03758	1.60656	0.36963
1013.53747	1.60664	0.36506
1012.03736	1.60655	0.36059
1010.53725	1.6063	0.3562
1009.03714	1.60588	0.3519
1007.53703	1.60531	0.3477
1006.03691	1.60454	0.34357
1004.5368	1.6036	0.33953
1003.03669	1.60246	0.33559
1001.53658	1.60113	0.33178
1000.03647	1.59958	0.3281
998.53635	1.59779	0.32461
997.03624	1.59575	0.32134
995.53613	1.59349	0.31835
994.03602	1.59105	0.31568
992.53591	1.58852	0.3134
991.0358	1.58597	0.31151
989.53568	1.58353	0.31002
988.03557	1.58134	0.30889
986.53546	1.5795	0.30802
985.03535	1.5781	0.30735
983.53524	1.57712	0.30673
982.03512	1.57649	0.30607
980.53501	1.57611	0.30528
979.0349	1.5759	0.30431
977.53479	1.57575	0.30314
976.03468	1.5756	0.30176
974.53457	1.57538	0.3002
973.03445	1.57505	0.29849
971.53434	1.57457	0.29665
970.03423	1.57395	0.29475
968.53412	1.57318	0.2928
967.03401	1.57226	0.29084
965.53389	1.5712	0.28889
964.03378	1.57001	0.28697
962.53367	1.56869	0.2851
961.03356	1.56728	0.2833
959.53345	1.56576	0.28156
958.03334	1.56416	0.2799
956.53322	1.56247	0.27832
955.03311	1.5607	0.27682
953.533	1.55886	0.27542
952.03289	1.55694	0.27411
950.53278	1.55495	0.2729
949.03266	1.55291	0.2718
947.53255	1.55081	0.27082
946.03244	1.54863	0.26995
944.53233	1.5464	0.26923
943.03222	1.54414	0.26864
941.53211	1.54185	0.26819
940.03199	1.53954	0.26789
938.53188	1.53724	0.26776
937.03177	1.53493	0.26778
935.53166	1.53265	0.26796
934.03155	1.53039	0.2683
932.53143	1.5282	0.2688
931.03132	1.52607	0.26947
929.53121	1.52399	0.27029
928.0311	1.52201	0.27126
926.53099	1.52011	0.27239
925.03088	1.51834	0.27368
923.53076	1.51672	0.27511
922.03065	1.51524	0.27666
920.53054	1.51394	0.27835
919.03043	1.51281	0.28014
917.53032	1.51189	0.28202
916.0302	1.51117	0.28398
914.53009	1.5107	0.28599
913.02998	1.51044	0.28803
911.52987	1.51042	0.29007
910.02976	1.51062	0.29211
908.52965	1.51108	0.29409
907.02953	1.51179	0.29599
905.52942	1.51274	0.2978
904.02931	1.5139	0.29946
902.5292	1.51525	0.30097
901.02909	1.51678	0.30228
899.52897	1.51844	0.30339
898.02886	1.52023	0.30428
896.52875	1.52211	0.30493
895.02864	1.52406	0.30533
893.52853	1.52604	0.30547
892.02842	1.52801	0.30535
890.5283	1.52991	0.30496
889.02819	1.5317	0.30434
887.52808	1.53334	0.3035
886.02797	1.5348	0.30248
884.52786	1.53608	0.30131
883.02774	1.53717	0.30004
881.52763	1.53807	0.29867
880.02752	1.53881	0.29724
878.52741	1.53941	0.29578
877.0273	1.53986	0.2943
875.52719	1.54016	0.29279
874.02707	1.54031	0.2913
872.52696	1.54033	0.28982
871.02685	1.54026	0.28834
869.52674	1.54008	0.28689
868.02663	1.5398	0.28545
866.52652	1.5394	0.28405
865.0264	1.53887	0.28267
863.52629	1.53823	0.28135
862.02618	1.53748	0.28008
860.52607	1.53663	0.2789
859.02596	1.53569	0.27778
857.52584	1.53469	0.27675
856.02573	1.53365	0.27583
854.52562	1.53256	0.27498
853.02551	1.53146	0.27422
851.5254	1.53033	0.27353
850.02529	1.5292	0.27293
848.52517	1.52807	0.27238
847.02506	1.52695	0.27188
845.52495	1.52583	0.27143
844.02484	1.52468	0.27103
842.52473	1.5235	0.27067
841.02461	1.52233	0.27035
839.5245	1.52116	0.27007
838.02439	1.51997	0.2698
836.52428	1.51876	0.26957
835.02417	1.51751	0.26937
833.52406	1.51619	0.26921
832.02394	1.51479	0.26911
830.52383	1.51329	0.2691
829.02372	1.5117	0.26923
827.52361	1.51007	0.26951
826.0235	1.50847	0.26996
824.52338	1.507	0.27057
823.02327	1.5057	0.27127
821.52316	1.5046	0.27205
820.02305	1.5037	0.27282
818.52294	1.5029	0.27355
817.02283	1.50214	0.27424
815.52271	1.50136	0.27485
814.0226	1.50053	0.27543
812.52249	1.49966	0.27599
811.02238	1.49875	0.27655
809.52227	1.49781	0.27714
808.02215	1.49686	0.27776
806.52204	1.49592	0.27842
805.02193	1.49497	0.27911
803.52182	1.49401	0.27986
802.02171	1.49306	0.28065
800.5216	1.49211	0.2815
799.02148	1.49121	0.28239
797.52137	1.49034	0.28332
796.02126	1.48952	0.28429
794.52115	1.48874	0.28528
793.02104	1.48798	0.28629
791.52092	1.48722	0.28733
790.02081	1.48648	0.2884
788.5207	1.48576	0.2895
787.02059	1.48506	0.29064
785.52048	1.48439	0.29182
784.02037	1.48378	0.29302
782.52025	1.48322	0.29426
781.02014	1.48274	0.29551
779.52003	1.48231	0.29677
778.01992	1.4819	0.29802
776.51981	1.48152	0.29927
775.01969	1.48117	0.30053
773.51958	1.48083	0.30178
772.01947	1.48052	0.30304
770.51936	1.48021	0.30432
769.01925	1.4799	0.30561
767.51914	1.47964	0.30693
766.01902	1.47943	0.30827
764.51891	1.47929	0.30961
763.0188	1.47918	0.31097
761.51869	1.47911	0.31232
760.01858	1.47907	0.31368
758.51846	1.47907	0.31503
757.01835	1.47912	0.31637
755.51824	1.47923	0.31771
754.01813	1.47937	0.31903
752.51802	1.47956	0.32033
751.01791	1.47978	0.3216
749.51779	1.48	0.32285
748.01768	1.48026	0.32407
746.51757	1.48053	0.32528
745.01746	1.48082	0.32646
743.51735	1.48114	0.32761
742.01723	1.48149	0.32874
740.51712	1.48186	0.32983
739.01701	1.48224	0.33089
737.5169	1.48261	0.33192
736.01679	1.48297	0.33292
734.51668	1.48333	0.33389
733.01656	1.48369	0.33483
731.51645	1.48406	0.33575
730.01634	1.48443	0.33663
728.51623	1.48476	0.3375
727.01612	1.48508	0.33833
725.516	1.48536	0.33915
724.01589	1.48563	0.33996
722.51578	1.48587	0.34076
721.01567	1.48608	0.34155
719.51556	1.48629	0.34235
718.01545	1.4865	0.34313
716.51533	1.4867	0.3439
715.01522	1.48688	0.34465
713.51511	1.48701	0.34538
712.015	1.4871	0.34612
710.51489	1.48713	0.34685
709.01477	1.48712	0.3476
707.51466	1.48706	0.34837
706.01455	1.48697	0.34918
704.51444	1.48687	0.35001
703.01433	1.48676	0.35087
701.51422	1.48664	0.35175
700.0141	1.48649	0.35265
698.51399	1.48632	0.35356
697.01388	1.48612	0.3545
695.51377	1.48588	0.35547
694.01366	1.48558	0.35647
692.51354	1.48524	0.35753
691.01343	1.48484	0.35867
689.51332	1.48442	0.35988
688.01321	1.484	0.36118
686.5131	1.48363	0.36256
685.01299	1.48333	0.36401
683.51287	1.4831	0.36549
682.01276	1.48295	0.36699
680.51265	1.48279	0.3685
679.01254	1.48263	0.37
677.51243	1.48245	0.37149
676.01232	1.48226	0.37297
674.5122	1.48206	0.37445
673.01209	1.48176	0.37598
671.51198	1.48131	0.37759
670.01187	1.4807	0.3793
668.51176	1.48005	0.38118
667.01164	1.47951	0.3832
665.51153	1.47916	0.38535
664.01142	1.47895	0.38757
662.51131	1.4788	0.38984
661.0112	1.47862	0.39214
659.51109	1.47839	0.39448
658.01097	1.47814	0.39687
656.51086	1.4779	0.39936
655.01075	1.47768	0.40197
653.51064	1.47747	0.40469
652.01053	1.47728	0.40753
650.51041	1.47712	0.41055
649.0103	1.47703	0.41371
647.51019	1.47705	0.41701
646.01008	1.47721	0.42045
644.50997	1.47754	0.42403
643.00986	1.47799	0.42773
641.50974	1.47858	0.43153
640.00963	1.47929	0.43544
638.50952	1.48014	0.43946
637.00941	1.48118	0.44359
635.5093	1.48245	0.44781
634.00918	1.48392	0.45211
632.50907	1.4856	0.45648
631.00896	1.48748	0.46091
629.50885	1.48955	0.4654
628.00874	1.49184	0.46994
626.50863	1.49437	0.47455
625.00851	1.49718	0.47919
623.5084	1.50031	0.48386
622.00829	1.50375	0.48852
620.50818	1.50752	0.49313
619.00807	1.51161	0.49767
617.50795	1.51602	0.50212
616.00784	1.52074	0.50643
614.50773	1.52576	0.51059
613.00762	1.53106	0.51457
611.50751	1.53662	0.51839
610.0074	1.54242	0.52204
608.50728	1.54846	0.52552
607.00717	1.55481	0.52878
605.50706	1.56153	0.53184
604.00695	1.56871	0.53458
602.50684	1.57631	0.53694
601.00672	1.58427	0.53883
599.50661	1.59244	0.5402
598.0065	1.60072	0.54102
596.50639	1.60906	0.54129
595.00628	1.61745	0.54103
593.50617	1.62588	0.54021
592.00605	1.63436	0.53883
590.50594	1.64288	0.53685
589.00583	1.65139	0.53421
587.50572	1.65979	0.53088
586.00561	1.66795	0.52683
584.50549	1.67572	0.52204
583.00538	1.68299	0.51655
581.50527	1.68962	0.51042
580.00516	1.69547	0.50375
578.50505	1.70046	0.49668
577.00494	1.70449	0.48933
575.50482	1.70753	0.48188
574.00471	1.70962	0.4745
572.5046	1.71085	0.46733
571.00449	1.71135	0.46051
569.50438	1.71123	0.45412
568.00426	1.71064	0.44821
566.50415	1.7097	0.44284
565.00404	1.70852	0.43797
563.50393	1.70725	0.43358
562.00382	1.70593	0.42962
560.50371	1.70463	0.42604
559.00359	1.70338	0.42278
557.50348	1.70213	0.41978
556.00337	1.70084	0.41703
554.50326	1.69954	0.4145
553.00315	1.69824	0.41219
551.50303	1.69699	0.41008
550.00292	1.69578	0.40816
548.50281	1.69459	0.40641
547.0027	1.69344	0.40483
545.50259	1.69233	0.4034
544.00248	1.69129	0.40211
542.50236	1.69034	0.40093
541.00225	1.68946	0.39986
539.50214	1.68863	0.3989
538.00203	1.68784	0.39802
536.50192	1.68712	0.39721
535.0018	1.6865	0.39645
533.50169	1.68596	0.39574
532.00158	1.68547	0.39504
530.50147	1.68503	0.39437
529.00136	1.6846	0.39371
527.50125	1.68417	0.39305
526.00113	1.68375	0.3924
524.50102	1.68333	0.39176
523.00091	1.68293	0.39111
521.5008	1.68251	0.39047
520.00069	1.68203	0.38985
518.50057	1.68142	0.38928
517.00046	1.68069	0.38879
515.50035	1.6799	0.38841
514.00024	1.67916	0.38812
512.50013	1.67852	0.38792
511.00002	1.67798	0.3878
509.4999	1.67744	0.38773
507.99979	1.67683	0.38773
506.49968	1.67609	0.38785
504.99957	1.67532	0.38812
503.49946	1.67465	0.3885
501.99934	1.67427	0.38897
500.49923	1.67425	0.38946
498.99912	1.67448	0.38985
497.49901	1.67468	0.39011
495.9989	1.67467	0.39029
494.49879	1.67438	0.39043
492.99867	1.67393	0.39059
491.49856	1.67346	0.39083
489.99845	1.6731	0.39118
488.49834	1.67274	0.39166
486.99823	1.67234	0.39226
485.49812	1.67187	0.39299
483.998	1.67144	0.39383
482.49789	1.67124	0.39477
480.99778	1.67133	0.3957
479.49767	1.67165	0.39658
477.99756	1.67197	0.3974
476.49744	1.67205	0.39822
474.99733	1.67181	0.39908
473.49722	1.67131	0.40011
471.99711	1.6708	0.40142
470.497	1.67062	0.40299
468.99689	1.67088	0.40469
467.49677	1.67164	0.40641
465.99666	1.67275	0.40806
464.49655	1.67392	0.40953
462.99644	1.6749	0.4109
461.49633	1.6755	0.41228
459.99621	1.67581	0.41381
458.4961	1.67613	0.41556
456.99599	1.6768	0.41763
455.49588	1.67805	0.41994
453.99577	1.6798	0.42232
452.49566	1.682	0.4247
450.99554	1.6846	0.42699
449.49543	1.68759	0.4291
447.99532	1.69094	0.43089
446.49521	1.69458	0.43237
444.9951	1.6986	0.43346
443.49498	1.70296	0.43401
441.99487	1.70755	0.43395
440.49476	1.71216	0.43325
438.99465	1.71644	0.4319
437.49454	1.72021	0.42995
435.99443	1.72339	0.42756
434.49431	1.72593	0.42489
432.9942	1.7278	0.42209
431.49409	1.72903	0.41931
429.99398	1.72976	0.41667
428.49387	1.73025	0.41417
426.99375	1.73065	0.4118
425.49364	1.73086	0.40962
423.99353	1.73056	0.40777
422.49342	1.7296	0.40631
420.99331	1.72823	0.40532
419.4932	1.72702	0.40483
417.99308	1.72664	0.40479
416.49297	1.7272	0.40488
414.99286	1.72832	0.40485
413.49275	1.7295	0.4046
411.99264	1.73043	0.40409
410.49252	1.73106	0.40331
408.99241	1.73144	0.40236
407.4923	1.73167	0.40135
405.99219	1.7318	0.40027
404.49208	1.73177	0.39919
402.99197	1.73139	0.39827
401.49185	1.73039	0.39763
399.99174	1.72875	0.39739
