#SUBSTANCE=Sulphuric acid
#DESCRIPTION=Refractive indices of 72 wt% sulphuric acid from 400 to 7500 cm-1 at 253 K
#TEMPERATURE=253 K
#CONCENTRATION=72 wt%
#DOI=10.1021/jp026576n
#REFERENCE=Spectroscopic Study of Aqueous H2SO4 at Different Temperatures and Compositions:  Variations in Dissociation and Optical Properties
##Cathrine E. Lund Myhre,†, Daniel H. Christensen,‡, Flemming M. Nicolaisen,‡ and, and Claus J. Nielsen*,†
##The Journal of Physical Chemistry A 2003 107 (12), 1979-1991 
#FORMAT=WAVN N K
7498.52083	1.41537	0.01729
7497.02072	1.41553	0.0174
7495.52061	1.41577	0.01731
7494.0205	1.41581	0.01712
7492.52039	1.41573	0.01695
7491.02027	1.41551	0.01685
7489.52016	1.41528	0.01693
7488.02005	1.41522	0.0171
7486.51994	1.41537	0.01719
7485.01983	1.41543	0.01714
7483.51971	1.41534	0.01711
7482.0196	1.41521	0.0172
7480.51949	1.41528	0.01736
7479.01938	1.41549	0.01743
7477.51927	1.41569	0.01734
7476.01916	1.41577	0.01716
7474.51904	1.41565	0.01701
7473.01893	1.41549	0.01696
7471.51882	1.41538	0.01701
7470.01871	1.41536	0.01707
7468.5186	1.4154	0.01707
7467.01848	1.41529	0.01705
7465.51837	1.41518	0.01717
7464.01826	1.41523	0.01729
7462.51815	1.41531	0.01738
7461.01804	1.4154	0.01744
7459.51793	1.41558	0.01748
7458.01781	1.41583	0.01734
7456.5177	1.41583	0.01711
7455.01759	1.41556	0.01698
7453.51748	1.41537	0.01712
7452.01737	1.4155	0.01728
7450.51725	1.41576	0.01726
7449.01714	1.41583	0.01706
7447.51703	1.4157	0.01693
7446.01692	1.41557	0.01691
7444.51681	1.41555	0.01694
7443.0167	1.41561	0.01691
7441.51658	1.41558	0.01678
7440.01647	1.41535	0.01671
7438.51636	1.41508	0.01683
7437.01625	1.41506	0.01707
7435.51614	1.41522	0.01721
7434.01602	1.41537	0.01722
7432.51591	1.41539	0.01718
7431.0158	1.41537	0.01719
7429.51569	1.41539	0.01725
7428.01558	1.4155	0.0173
7426.51547	1.41572	0.01726
7425.01535	1.41583	0.01709
7423.51524	1.41579	0.0169
7422.01513	1.41566	0.01676
7420.51502	1.41549	0.01669
7419.01491	1.41531	0.01669
7417.51479	1.41513	0.01676
7416.01468	1.41499	0.01693
7414.51457	1.41503	0.01711
7413.01446	1.41512	0.01723
7411.51435	1.41523	0.0173
7410.01424	1.41535	0.01733
7408.51412	1.41546	0.01731
7407.01401	1.41548	0.01727
7405.5139	1.4155	0.01727
7404.01379	1.41559	0.01728
7402.51368	1.41575	0.01721
7401.01356	1.41578	0.01705
7399.51345	1.41572	0.01694
7398.01334	1.41565	0.01685
7396.51323	1.41553	0.01679
7395.01312	1.41532	0.0168
7393.51301	1.41519	0.01696
7392.01289	1.41526	0.01714
7390.51278	1.41545	0.01722
7389.01267	1.41563	0.01718
7387.51256	1.41573	0.01704
7386.01245	1.4157	0.01689
7384.51233	1.41558	0.01678
7383.01222	1.41539	0.01675
7381.51211	1.41524	0.01685
7380.012	1.41521	0.01698
7378.51189	1.41529	0.01708
7377.01178	1.41531	0.01712
7375.51166	1.41536	0.01722
7374.01155	1.41554	0.01723
7372.51144	1.41563	0.01718
7371.01133	1.41574	0.01711
7369.51122	1.41579	0.01697
7368.0111	1.4157	0.01683
7366.51099	1.41549	0.01681
7365.01088	1.4154	0.01693
7363.51077	1.41547	0.01705
7362.01066	1.41563	0.01707
7360.51055	1.41575	0.017
7359.01043	1.4158	0.01688
7357.51032	1.41574	0.01677
7356.01021	1.41562	0.01674
7354.5101	1.4156	0.01679
7353.00999	1.41565	0.01681
7351.50987	1.41576	0.01677
7350.00976	1.41583	0.0166
7348.50965	1.41561	0.01647
7347.00954	1.41545	0.01654
7345.50943	1.41551	0.01664
7344.00932	1.41572	0.01656
7342.5092	1.41569	0.01632
7341.00909	1.41536	0.01615
7339.50898	1.41498	0.01625
7338.00887	1.41483	0.01651
7336.50876	1.41488	0.01677
7335.00864	1.41504	0.01696
7333.50853	1.41537	0.01706
7332.00842	1.4158	0.01684
7330.50831	1.4158	0.01638
7329.0082	1.41531	0.01607
7327.50809	1.41475	0.01621
7326.00797	1.41457	0.01653
7324.50786	1.41461	0.01681
7323.00775	1.41462	0.01704
7321.50764	1.41479	0.01733
7320.00753	1.41527	0.01742
7318.50741	1.41563	0.01721
7317.0073	1.41556	0.01692
7315.50719	1.41539	0.01688
7314.00708	1.41545	0.0169
7312.50697	1.41552	0.01682
7311.00686	1.41549	0.01668
7309.50674	1.4153	0.01657
7308.00663	1.415	0.01664
7306.50652	1.41482	0.01692
7305.00641	1.41502	0.01723
7303.5063	1.41539	0.0173
7302.00619	1.41559	0.01721
7300.50607	1.41565	0.01715
7299.00596	1.4159	0.01712
7297.50585	1.41618	0.01686
7296.00574	1.41621	0.01645
7294.50563	1.41588	0.01614
7293.00551	1.41555	0.01606
7291.5054	1.41526	0.01608
7290.00529	1.41501	0.01623
7288.50518	1.41497	0.01644
7287.00507	1.4151	0.01656
7285.50496	1.41513	0.01651
7284.00484	1.41493	0.01656
7282.50473	1.41489	0.01677
7281.00462	1.41512	0.01694
7279.50451	1.4154	0.01689
7278.0044	1.4155	0.01673
7276.50428	1.41547	0.01656
7275.00417	1.41529	0.01646
7273.50406	1.41512	0.01652
7272.00395	1.41511	0.01664
7270.50384	1.41524	0.01669
7269.00373	1.41531	0.01661
7267.50361	1.41522	0.01652
7266.0035	1.41503	0.01655
7264.50339	1.41497	0.0167
7263.00328	1.41508	0.01683
7261.50317	1.41523	0.01685
7260.00305	1.4153	0.0168
7258.50294	1.41528	0.0168
7257.00283	1.41537	0.01682
7255.50272	1.4155	0.01674
7254.00261	1.41551	0.01662
7252.5025	1.4154	0.01653
7251.00238	1.41522	0.01657
7249.50227	1.41522	0.01679
7248.00216	1.41557	0.01688
7246.50205	1.41602	0.01664
7245.00194	1.41599	0.01613
7243.50182	1.41553	0.01582
7242.00171	1.41496	0.01584
7240.5016	1.41455	0.0162
7239.00149	1.41458	0.01672
7237.50138	1.41511	0.01707
7236.00127	1.4159	0.01691
7234.50115	1.41625	0.01625
7233.00104	1.41572	0.01557
7231.50093	1.41484	0.01551
7230.00082	1.41431	0.0159
7228.50071	1.41419	0.01645
7227.00059	1.4145	0.0169
7225.50048	1.41501	0.01705
7224.00037	1.41542	0.0169
7222.50026	1.41555	0.01662
7221.00015	1.41547	0.01639
7219.50004	1.41528	0.01628
7217.99992	1.41514	0.01632
7216.49981	1.41517	0.01637
7214.9997	1.41521	0.01635
7213.49959	1.41517	0.0163
7211.99948	1.41508	0.01633
7210.49936	1.41513	0.0164
7208.99925	1.41531	0.01638
7207.49914	1.41543	0.01618
7205.99903	1.41531	0.01592
7204.49892	1.4149	0.01582
7202.99881	1.41456	0.016
7201.49869	1.41448	0.01631
7199.99858	1.41468	0.01654
7198.49847	1.41497	0.01658
7196.99836	1.4151	0.01646
7195.49825	1.41507	0.01634
7193.99813	1.41499	0.01632
7192.49802	1.41502	0.01633
7190.99791	1.41504	0.01629
7189.4978	1.41501	0.01625
7187.99769	1.41498	0.01627
7186.49758	1.41511	0.01622
7184.99746	1.41514	0.01603
7183.49735	1.41491	0.01583
7181.99724	1.41447	0.01587
7180.49713	1.4142	0.01616
7178.99702	1.41429	0.01652
7177.4969	1.41456	0.01671
7175.99679	1.41481	0.01678
7174.49668	1.41515	0.01671
7172.99657	1.41544	0.01644
7171.49646	1.41544	0.016
7169.99635	1.41504	0.01566
7168.49623	1.41438	0.01566
7166.99612	1.41402	0.01604
7165.49601	1.41412	0.01647
7163.9959	1.41448	0.01658
7162.49579	1.41446	0.01657
7160.99567	1.4145	0.0167
7159.49556	1.41469	0.0168
7157.99545	1.41493	0.01676
7156.49534	1.41503	0.01665
7154.99523	1.41516	0.01652
7153.49512	1.41516	0.0163
7151.995	1.41494	0.01615
7150.49489	1.41468	0.0162
7148.99478	1.41467	0.01638
7147.49467	1.41484	0.01643
7145.99456	1.41496	0.01634
7144.49444	1.41492	0.01621
7142.99433	1.41483	0.01613
7141.49422	1.41467	0.0161
7139.99411	1.41448	0.0162
7138.494	1.41447	0.01638
7136.99389	1.4146	0.01649
7135.49377	1.41473	0.01652
7133.99366	1.41482	0.01652
7132.49355	1.41502	0.01645
7130.99344	1.41514	0.01624
7129.49333	1.41501	0.01599
7127.99321	1.41467	0.01593
7126.4931	1.41452	0.01605
7124.99299	1.41456	0.01616
7123.49288	1.41467	0.01615
7121.99277	1.4147	0.01604
7120.49266	1.41455	0.01589
7118.99254	1.41418	0.01589
7117.49243	1.41391	0.01618
7115.99232	1.41397	0.01648
7114.49221	1.41414	0.01672
7112.9921	1.41448	0.01684
7111.49198	1.41483	0.01672
7109.99187	1.41496	0.01644
7108.49176	1.41479	0.0162
7106.99165	1.41455	0.01613
7105.49154	1.41434	0.01619
7103.99143	1.4142	0.01637
7102.49131	1.41424	0.01658
7100.9912	1.41448	0.01673
7099.49109	1.41478	0.01667
7097.99098	1.41493	0.01644
7096.49087	1.41477	0.01622
7094.99076	1.41452	0.01618
7093.49064	1.41435	0.01629
7091.99053	1.41433	0.01643
7090.49042	1.41434	0.01657
7088.99031	1.41452	0.0167
7087.4902	1.41475	0.01669
7085.99008	1.41493	0.01658
7084.48997	1.41508	0.01638
7082.98986	1.41499	0.0161
7081.48975	1.4147	0.01596
7079.98964	1.41439	0.01607
7078.48953	1.41443	0.01627
7076.98941	1.41461	0.0163
7075.4893	1.41471	0.01618
7073.98919	1.41462	0.01602
7072.48908	1.41439	0.01597
7070.98897	1.41417	0.01606
7069.48885	1.41409	0.01624
7067.98874	1.41413	0.0164
7066.48863	1.41425	0.01651
7064.98852	1.41436	0.01656
7063.48841	1.41451	0.01656
7061.9883	1.41466	0.01646
7060.48818	1.41463	0.01633
7058.98807	1.41458	0.01626
7057.48796	1.41453	0.01621
7055.98785	1.41444	0.01616
7054.48774	1.41428	0.0162
7052.98762	1.41424	0.01633
7051.48751	1.41437	0.01644
7049.9874	1.41459	0.01634
7048.48729	1.41449	0.01617
7046.98718	1.41426	0.01616
7045.48707	1.41417	0.01631
7043.98695	1.4143	0.0164
7042.48684	1.41441	0.01634
7040.98673	1.41429	0.01626
7039.48662	1.41416	0.01635
7037.98651	1.41421	0.01645
7036.48639	1.41423	0.01651
7034.98628	1.41432	0.01657
7033.48617	1.41442	0.01656
7031.98606	1.41447	0.01656
7030.48595	1.41461	0.01651
7028.98584	1.41461	0.01639
7027.48572	1.41457	0.01632
7025.98561	1.41456	0.01625
7024.4855	1.41444	0.0162
7022.98539	1.41435	0.01623
7021.48528	1.41433	0.0163
7019.98516	1.41437	0.01633
7018.48505	1.41442	0.01631
7016.98494	1.41441	0.01626
7015.48483	1.41434	0.01624
7013.98472	1.41427	0.01627
7012.48461	1.41422	0.01637
7010.98449	1.41439	0.01646
7009.48438	1.41456	0.01634
7007.98427	1.41449	0.01618
7006.48416	1.41428	0.01613
7004.98405	1.41412	0.01625
7003.48393	1.41415	0.01642
7001.98382	1.41436	0.01648
7000.48371	1.41453	0.01639
6998.9836	1.41447	0.01625
6997.48349	1.41435	0.01624
6995.98338	1.41436	0.01627
6994.48326	1.41442	0.01624
6992.98315	1.41432	0.01618
6991.48304	1.41423	0.01625
6989.98293	1.41433	0.01632
6988.48282	1.41447	0.01626
6986.9827	1.41443	0.01612
6985.48259	1.41428	0.01607
6983.98248	1.41416	0.01611
6982.48237	1.41412	0.01619
6980.98226	1.41417	0.01626
6979.48215	1.41425	0.01624
6977.98203	1.41424	0.01615
6976.48192	1.41401	0.01615
6974.98181	1.41392	0.01635
6973.4817	1.41406	0.01653
6971.98159	1.41435	0.01655
6970.48147	1.41451	0.0164
6968.98136	1.41449	0.01622
6967.48125	1.41438	0.01611
6965.98114	1.41423	0.01609
6964.48103	1.41408	0.01618
6962.98092	1.41419	0.01631
6961.4808	1.41436	0.01623
6959.98069	1.4143	0.01608
6958.48058	1.414	0.0161
6956.98047	1.41401	0.0163
6955.48036	1.41422	0.01635
6953.98024	1.41432	0.01625
6952.48013	1.41421	0.01617
6950.98002	1.41418	0.01621
6949.47991	1.41428	0.01621
6947.9798	1.41438	0.01603
6946.47969	1.4141	0.01588
6944.97957	1.41383	0.01598
6943.47946	1.41373	0.01619
6941.97935	1.41382	0.01638
6940.47924	1.414	0.01646
6938.97913	1.41417	0.01642
6937.47901	1.41423	0.01632
6935.9789	1.41417	0.01622
6934.47879	1.41404	0.01623
6932.97868	1.41404	0.01631
6931.47857	1.41412	0.01632
6929.97846	1.41415	0.01628
6928.47834	1.41407	0.01626
6926.97823	1.41405	0.01631
6925.47812	1.4141	0.01636
6923.97801	1.41417	0.01634
6922.4779	1.41418	0.01631
6920.97778	1.4142	0.01629
6919.47767	1.41422	0.01625
6917.97756	1.41418	0.0162
6916.47745	1.41407	0.01621
6914.97734	1.41403	0.01631
6913.47723	1.41414	0.01641
6911.97711	1.41435	0.01639
6910.477	1.41443	0.01627
6908.97689	1.41445	0.01615
6907.47678	1.41443	0.01602
6905.97667	1.41436	0.01592
6904.47656	1.41427	0.01584
6902.97644	1.41413	0.01579
6901.47633	1.41399	0.01582
6899.97622	1.41392	0.01587
6898.47611	1.41386	0.01594
6896.976	1.41388	0.016
6895.47588	1.41391	0.01599
6893.97577	1.41387	0.01596
6892.47566	1.41376	0.01597
6890.97555	1.41369	0.01605
6889.47544	1.41366	0.01615
6887.97533	1.41367	0.01628
6886.47521	1.41381	0.01637
6884.9751	1.41396	0.01636
6883.47499	1.41405	0.01629
6881.97488	1.41407	0.01621
6880.47477	1.41403	0.01614
6878.97465	1.41397	0.01613
6877.47454	1.414	0.01616
6875.97443	1.41409	0.01607
6874.47432	1.41396	0.01596
6872.97421	1.41381	0.01597
6871.4741	1.41369	0.01606
6869.97398	1.41367	0.01622
6868.47387	1.41383	0.01633
6866.97376	1.41401	0.01631
6865.47365	1.41411	0.0162
6863.97354	1.41409	0.01608
6862.47342	1.41403	0.01599
6860.97331	1.41391	0.01596
6859.4732	1.41383	0.016
6857.97309	1.41386	0.01606
6856.47298	1.41398	0.01602
6854.97287	1.41398	0.01589
6853.47275	1.41384	0.01578
6851.97264	1.41365	0.01577
6850.47253	1.4135	0.01585
6848.97242	1.41348	0.01596
6847.47231	1.41348	0.01599
6845.97219	1.41339	0.01603
6844.47208	1.41332	0.01612
6842.97197	1.41322	0.01628
6841.47186	1.4133	0.01652
6839.97175	1.41365	0.01661
6838.47164	1.4139	0.01646
6836.97152	1.41382	0.01625
6835.47141	1.41363	0.01622
6833.9713	1.41354	0.01631
6832.47119	1.41355	0.01643
6830.97108	1.41366	0.01653
6829.47096	1.41384	0.01654
6827.97085	1.41399	0.01642
6826.47074	1.41388	0.0163
6824.97063	1.4138	0.01631
6823.47052	1.41378	0.01636
6821.97041	1.4138	0.01642
6820.47029	1.4139	0.01647
6818.97018	1.41406	0.01645
6817.47007	1.41419	0.01633
6815.96996	1.41421	0.01618
6814.46985	1.41418	0.01604
6812.96973	1.41412	0.01591
6811.46962	1.41397	0.01579
6809.96951	1.41373	0.01577
6808.4694	1.41353	0.01587
6806.96929	1.4135	0.01604
6805.46918	1.41355	0.01614
6803.96906	1.41358	0.01622
6802.46895	1.41374	0.01625
6800.96884	1.41381	0.01616
6799.46873	1.4137	0.01607
6797.96862	1.41353	0.01616
6796.4685	1.41364	0.01629
6794.96839	1.41376	0.0163
6793.46828	1.41386	0.01626
6791.96817	1.41391	0.01616
6790.46806	1.41384	0.01607
6788.96795	1.41376	0.01606
6787.46783	1.41373	0.0161
6785.96772	1.41378	0.01609
6784.46761	1.4138	0.01603
6782.9675	1.41367	0.01599
6781.46739	1.41361	0.01608
6779.96727	1.41373	0.01611
6778.46716	1.41382	0.01599
6776.96705	1.41363	0.01586
6775.46694	1.41334	0.01596
6773.96683	1.41329	0.01622
6772.46672	1.41359	0.01638
6770.9666	1.4138	0.01628
6769.46649	1.41381	0.01614
6767.96638	1.4137	0.01608
6766.46627	1.41368	0.01608
6764.96616	1.41366	0.01607
6763.46604	1.41361	0.01607
6761.96593	1.41353	0.01611
6760.46582	1.41352	0.01622
6758.96571	1.41367	0.01629
6757.4656	1.41381	0.01623
6755.96549	1.4138	0.01616
6754.46537	1.41381	0.01611
6752.96526	1.41383	0.01606
6751.46515	1.41381	0.01598
6749.96504	1.41373	0.01595
6748.46493	1.41372	0.01594
6746.96481	1.4137	0.01591
6745.4647	1.41365	0.01588
6743.96459	1.41357	0.01586
6742.46448	1.41347	0.01587
6740.96437	1.41338	0.01595
6739.46426	1.41337	0.01607
6737.96414	1.41346	0.01613
6736.46403	1.41351	0.01615
6734.96392	1.41357	0.01616
6733.46381	1.41363	0.01615
6731.9637	1.4137	0.01611
6730.46358	1.41376	0.01603
6728.96347	1.41376	0.0159
6727.46336	1.41361	0.01578
6725.96325	1.41335	0.01581
6724.46314	1.41323	0.016
6722.96303	1.41339	0.01617
6721.46291	1.41359	0.01613
6719.9628	1.41359	0.01602
6718.46269	1.41343	0.01601
6716.96258	1.41341	0.01613
6715.46247	1.41357	0.0162
6713.96236	1.41376	0.01611
6712.46224	1.41376	0.01592
6710.96213	1.4136	0.0158
6709.46202	1.41339	0.01581
6707.96191	1.41325	0.01596
6706.4618	1.41333	0.0161
6704.96168	1.41344	0.01616
6703.46157	1.41355	0.01615
6701.96146	1.41365	0.01608
6700.46135	1.41365	0.01598
6698.96124	1.41354	0.01591
6697.46113	1.41344	0.01595
6695.96101	1.41346	0.01602
6694.4609	1.41359	0.016
6692.96079	1.41356	0.0159
6691.46068	1.41341	0.01589
6689.96057	1.41331	0.01598
6688.46045	1.41335	0.01613
6686.96034	1.41358	0.01619
6685.46023	1.41379	0.01605
6683.96012	1.41377	0.01582
6682.46001	1.41352	0.01572
6680.9599	1.41343	0.01578
6679.45978	1.41343	0.0158
6677.95967	1.41337	0.01579
6676.45956	1.41325	0.01584
6674.95945	1.41323	0.01596
6673.45934	1.41333	0.01604
6671.95922	1.41345	0.01602
6670.45911	1.41346	0.01597
6668.959	1.41344	0.01595
6667.45889	1.41347	0.01595
6665.95878	1.41352	0.01588
6664.45867	1.41342	0.0158
6662.95855	1.41328	0.01583
6661.45844	1.41323	0.01595
6659.95833	1.41332	0.01604
6658.45822	1.41345	0.01606
6656.95811	1.41355	0.016
6655.45799	1.41359	0.01589
6653.95788	1.41353	0.01579
6652.45777	1.41343	0.01575
6650.95766	1.41335	0.01577
6649.45755	1.41333	0.0158
6647.95744	1.41333	0.01581
6646.45732	1.41326	0.01583
6644.95721	1.41328	0.01589
6643.4571	1.41333	0.0159
6641.95699	1.41333	0.01589
6640.45688	1.41332	0.01591
6638.95676	1.41336	0.01594
6637.45665	1.41342	0.01594
6635.95654	1.4135	0.0159
6634.45643	1.4136	0.01577
6632.95632	1.41346	0.01561
6631.45621	1.41324	0.01561
6629.95609	1.41316	0.0157
6628.45598	1.41316	0.01578
6626.95587	1.41318	0.01581
6625.45576	1.41314	0.01583
6623.95565	1.41308	0.01591
6622.45553	1.41314	0.01602
6620.95542	1.41325	0.01609
6619.45531	1.41339	0.01609
6617.9552	1.41351	0.01604
6616.45509	1.41358	0.01596
6614.95498	1.41367	0.01586
6613.45486	1.41367	0.0157
6611.95475	1.41355	0.01561
6610.45464	1.4135	0.01556
6608.95453	1.41343	0.01549
6607.45442	1.41328	0.01546
6605.9543	1.41312	0.01553
6604.45419	1.41309	0.01567
6602.95408	1.41325	0.01575
6601.45397	1.41337	0.01565
6599.95386	1.41329	0.01553
6598.45375	1.41312	0.0155
6596.95363	1.41297	0.01558
6595.45352	1.41292	0.01574
6593.95341	1.41301	0.0159
6592.4533	1.41319	0.01596
6590.95319	1.41335	0.01592
6589.45307	1.41347	0.01583
6587.95296	1.41354	0.01567
6586.45285	1.41345	0.01549
6584.95274	1.41323	0.01543
6583.45263	1.41306	0.01553
6581.95252	1.41309	0.01566
6580.4524	1.41323	0.01569
6578.95229	1.41329	0.01563
6577.45218	1.41326	0.01556
6575.95207	1.4132	0.01553
6574.45196	1.41314	0.01554
6572.95184	1.41313	0.01557
6571.45173	1.41316	0.0156
6569.95162	1.41322	0.01556
6568.45151	1.41318	0.01551
6566.9514	1.41318	0.01549
6565.45129	1.41315	0.01543
6563.95117	1.41304	0.01542
6562.45106	1.41298	0.01546
6560.95095	1.41299	0.01549
6559.45084	1.41292	0.01547
6557.95073	1.41277	0.01558
6556.45061	1.41288	0.01575
6554.9505	1.41309	0.01578
6553.45039	1.4132	0.01566
6551.95028	1.41313	0.01558
6550.45017	1.41307	0.01558
6548.95006	1.41312	0.0156
6547.44994	1.41313	0.01554
6545.94983	1.41302	0.01556
6544.44972	1.41306	0.01564
6542.94961	1.41319	0.01564
6541.4495	1.4133	0.01555
6539.94938	1.41329	0.01538
6538.44927	1.41307	0.01531
6536.94916	1.41292	0.01542
6535.44905	1.41298	0.01556
6533.94894	1.41318	0.01557
6532.44883	1.41327	0.01547
6530.94871	1.41325	0.01535
6529.4486	1.41321	0.01527
6527.94849	1.41315	0.01518
6526.44838	1.41298	0.01515
6524.94827	1.41287	0.01523
6523.44816	1.41288	0.01531
6521.94804	1.41295	0.01532
6520.44793	1.41291	0.01531
6518.94782	1.41294	0.01534
6517.44771	1.41301	0.0153
6515.9476	1.413	0.0152
6514.44748	1.41283	0.01516
6512.94737	1.41272	0.01524
6511.44726	1.41275	0.01536
6509.94715	1.41289	0.01537
6508.44704	1.41292	0.01531
6506.94693	1.41289	0.01526
6505.44681	1.41286	0.01526
6503.9467	1.41287	0.01523
6502.44659	1.41282	0.01521
6500.94648	1.41281	0.01522
6499.44637	1.4128	0.01519
6497.94625	1.41275	0.01516
6496.44614	1.41264	0.01519
6494.94603	1.41261	0.01527
6493.44592	1.41265	0.01535
6491.94581	1.41272	0.01538
6490.4457	1.41281	0.01535
6488.94558	1.4128	0.0153
6487.44547	1.41276	0.01529
6485.94536	1.41278	0.01532
6484.44525	1.41286	0.0153
6482.94514	1.41289	0.01525
6481.44502	1.41294	0.01519
6479.94491	1.41299	0.01503
6478.4448	1.41278	0.01489
6476.94469	1.41253	0.01491
6475.44458	1.41235	0.01507
6473.94447	1.41235	0.0153
6472.44435	1.41259	0.01546
6470.94424	1.41289	0.0154
6469.44413	1.41298	0.01517
6467.94402	1.41279	0.01505
6466.44391	1.41273	0.01505
6464.94379	1.41274	0.01504
6463.44368	1.41275	0.01499
6461.94357	1.41269	0.0149
6460.44346	1.41252	0.01489
6458.94335	1.41242	0.01498
6457.44324	1.41245	0.0151
6455.94312	1.41259	0.01512
6454.44301	1.41269	0.01503
6452.9429	1.41263	0.01492
6451.44279	1.41251	0.01488
6449.94268	1.41241	0.01492
6448.44256	1.41242	0.01497
6446.94245	1.41245	0.01498
6445.44234	1.41244	0.01496
6443.94223	1.4124	0.01497
6442.44212	1.4124	0.015
6440.94201	1.41246	0.01501
6439.44189	1.41256	0.01496
6437.94178	1.41259	0.01477
6436.44167	1.41233	0.01465
6434.94156	1.41208	0.01474
6433.44145	1.41207	0.01492
6431.94133	1.41226	0.01493
6430.44122	1.41218	0.01482
6428.94111	1.41194	0.01485
6427.441	1.41184	0.01507
6425.94089	1.412	0.01525
6424.44078	1.4122	0.01527
6422.94066	1.41232	0.01521
6421.44055	1.41237	0.01512
6419.94044	1.41238	0.01503
6418.44033	1.41235	0.01494
6416.94022	1.4122	0.01489
6415.4401	1.41209	0.01496
6413.93999	1.41213	0.01504
6412.43988	1.4122	0.01506
6410.93977	1.41222	0.01505
6409.43966	1.41229	0.01504
6407.93955	1.4124	0.01492
6406.43943	1.41227	0.01477
6404.93932	1.41207	0.01477
6403.43921	1.412	0.01487
6401.9391	1.41209	0.01492
6400.43899	1.41212	0.01487
6398.93887	1.41205	0.01482
6397.43876	1.41196	0.01484
6395.93865	1.41192	0.01487
6394.43854	1.41186	0.01493
6392.93843	1.4119	0.015
6391.43832	1.41196	0.01501
6389.9382	1.41196	0.01499
6388.43809	1.41191	0.015
6386.93798	1.41194	0.01506
6385.43787	1.41204	0.01506
6383.93776	1.4121	0.01497
6382.43764	1.41201	0.0149
6380.93753	1.41193	0.01492
6379.43742	1.41194	0.01496
6377.93731	1.412	0.01494
6376.4372	1.41197	0.01488
6374.93709	1.41188	0.01487
6373.43697	1.41181	0.01493
6371.93686	1.41185	0.01499
6370.43675	1.41193	0.01499
6368.93664	1.41191	0.01495
6367.43653	1.41191	0.01497
6365.93641	1.41197	0.01494
6364.4363	1.41194	0.01489
6362.93619	1.41194	0.01487
6361.43608	1.41193	0.0148
6359.93597	1.41182	0.01476
6358.43586	1.41171	0.0148
6356.93574	1.41169	0.01488
6355.43563	1.4117	0.01493
6353.93552	1.41171	0.01498
6352.43541	1.41177	0.01503
6350.9353	1.41189	0.01504
6349.43518	1.41202	0.01495
6347.93507	1.41207	0.01478
6346.43496	1.41193	0.01463
6344.93485	1.41177	0.01457
6343.43474	1.41157	0.01458
6341.93463	1.41138	0.01474
6340.43451	1.41149	0.01492
6338.9344	1.41165	0.01494
6337.43429	1.4117	0.01484
6335.93418	1.41158	0.01479
6334.43407	1.41147	0.01486
6332.93395	1.41147	0.01498
6331.43384	1.41161	0.01506
6329.93373	1.41179	0.01498
6328.43362	1.41177	0.01485
6326.93351	1.4116	0.01482
6325.4334	1.41157	0.01494
6323.93328	1.41178	0.01495
6322.43317	1.41188	0.01479
6320.93306	1.41174	0.01463
6319.43295	1.41157	0.01464
6317.93284	1.41153	0.01467
6316.43273	1.4115	0.01467
6314.93261	1.4114	0.01469
6313.4325	1.41133	0.01478
6311.93239	1.41136	0.01489
6310.43228	1.41149	0.01493
6308.93217	1.4116	0.01488
6307.43205	1.41161	0.01477
6305.93194	1.41151	0.01472
6304.43183	1.41146	0.01472
6302.93172	1.4114	0.01475
6301.43161	1.4114	0.0148
6299.9315	1.41147	0.01479
6298.43138	1.41143	0.01478
6296.93127	1.41147	0.01481
6295.43116	1.41157	0.01477
6293.93105	1.41162	0.01461
6292.43094	1.41141	0.0145
6290.93082	1.41124	0.01455
6289.43071	1.41122	0.01465
6287.9306	1.41129	0.01466
6286.43049	1.41126	0.01462
6284.93038	1.41116	0.01463
6283.43027	1.4111	0.01469
6281.93015	1.41113	0.01474
6280.43004	1.41115	0.01475
6278.92993	1.41112	0.01476
6277.42982	1.41109	0.0148
6275.92971	1.41111	0.01486
6274.42959	1.41118	0.01489
6272.92948	1.41126	0.01487
6271.42937	1.41129	0.0148
6269.92926	1.41125	0.01477
6268.42915	1.41126	0.01474
6266.92904	1.41126	0.01467
6265.42892	1.41116	0.0146
6263.92881	1.411	0.01463
6262.4287	1.41094	0.01474
6260.92859	1.41098	0.01483
6259.42848	1.41108	0.01486
6257.92836	1.41112	0.01481
6256.42825	1.41103	0.0148
6254.92814	1.41104	0.01487
6253.42803	1.41115	0.01487
6251.92792	1.4112	0.01479
6250.42781	1.41111	0.01473
6248.92769	1.41109	0.01475
6247.42758	1.4111	0.01473
6245.92747	1.41105	0.01472
6244.42736	1.41101	0.01473
6242.92725	1.41101	0.01476
6241.42713	1.41103	0.01476
6239.92702	1.41104	0.01474
6238.42691	1.411	0.01474
6236.9268	1.411	0.01475
6235.42669	1.411	0.01473
6233.92658	1.41096	0.01472
6232.42646	1.41092	0.01475
6230.92635	1.41091	0.01478
6229.42624	1.41093	0.01481
6227.92613	1.41095	0.01485
6226.42602	1.41102	0.01485
6224.9259	1.41106	0.01482
6223.42579	1.41107	0.01479
6221.92568	1.41109	0.01476
6220.42557	1.41111	0.01471
6218.92546	1.41111	0.01464
6217.42535	1.411	0.01458
6215.92523	1.41087	0.01465
6214.42512	1.41098	0.01474
6212.92501	1.4111	0.01469
6211.4249	1.41112	0.01459
6209.92479	1.41109	0.01452
6208.42467	1.41112	0.01443
6206.92456	1.41102	0.0143
6205.42445	1.41085	0.01425
6203.92434	1.41071	0.01427
6202.42423	1.41062	0.01431
6200.92412	1.41051	0.01436
6199.424	1.41042	0.01444
6197.92389	1.4104	0.01457
6196.42378	1.41047	0.01465
6194.92367	1.41051	0.01467
6193.42356	1.41049	0.01468
6191.92344	1.41046	0.01476
6190.42333	1.41059	0.0148
6188.92322	1.41061	0.01475
6187.42311	1.41058	0.01476
6185.923	1.4106	0.01478
6184.42289	1.41061	0.01482
6182.92277	1.4107	0.01486
6181.42266	1.41087	0.01482
6179.92255	1.41099	0.01465
6178.42244	1.41092	0.01443
6176.92233	1.41064	0.01431
6175.42221	1.41037	0.01441
6173.9221	1.4103	0.01458
6172.42199	1.41036	0.01474
6170.92188	1.41053	0.01481
6169.42177	1.41067	0.01475
6167.92166	1.41067	0.01464
6166.42154	1.41059	0.01458
6164.92143	1.41047	0.0146
6163.42132	1.41044	0.01469
6161.92121	1.41053	0.01475
6160.4211	1.41061	0.01475
6158.92098	1.41064	0.01472
6157.42087	1.41069	0.0147
6155.92076	1.41076	0.01464
6154.42065	1.41079	0.01455
6152.92054	1.41077	0.01444
6151.42043	1.41071	0.01435
6149.92031	1.41061	0.01428
6148.4202	1.41052	0.01425
6146.92009	1.41043	0.01424
6145.41998	1.4103	0.01424
6143.91987	1.41016	0.01433
6142.41975	1.41017	0.01444
6140.91964	1.41019	0.0145
6139.41953	1.4102	0.01454
6137.91942	1.41023	0.01458
6136.41931	1.41032	0.01458
6134.9192	1.41031	0.01454
6133.41908	1.41029	0.01454
6131.91897	1.41031	0.01453
6130.41886	1.41028	0.0145
6128.91875	1.41023	0.01452
6127.41864	1.41023	0.01458
6125.91853	1.41032	0.01459
6124.41841	1.41041	0.01453
6122.9183	1.41042	0.01442
6121.41819	1.41033	0.01432
6119.91808	1.41017	0.01428
6118.41797	1.41001	0.01435
6116.91785	1.40998	0.01448
6115.41774	1.41003	0.01458
6113.91763	1.41012	0.01463
6112.41752	1.41026	0.01461
6110.91741	1.41034	0.0145
6109.4173	1.41027	0.01438
6107.91718	1.41012	0.01436
6106.41707	1.41008	0.0144
6104.91696	1.4101	0.01442
6103.41685	1.41008	0.01439
6101.91674	1.40999	0.01441
6100.41662	1.41001	0.01446
6098.91651	1.41005	0.01445
6097.4164	1.41001	0.01442
6095.91629	1.40994	0.01446
6094.41618	1.41002	0.01449
6092.91607	1.41005	0.01442
6091.41595	1.40992	0.01436
6089.91584	1.40972	0.01447
6088.41573	1.40977	0.01465
6086.91562	1.40996	0.01473
6085.41551	1.41013	0.01468
6083.91539	1.41019	0.01458
6082.41528	1.41016	0.01448
6080.91517	1.41012	0.01443
6079.41506	1.41012	0.0144
6077.91495	1.41014	0.01432
6076.41484	1.41006	0.01421
6074.91472	1.40989	0.01415
6073.41461	1.40969	0.01421
6071.9145	1.40956	0.01435
6070.41439	1.40956	0.01453
6068.91428	1.40967	0.01467
6067.41416	1.40982	0.01473
6065.91405	1.40996	0.01471
6064.41394	1.41005	0.01466
6062.91383	1.41015	0.01458
6061.41372	1.41018	0.01447
6059.91361	1.41014	0.01436
6058.41349	1.41011	0.01429
6056.91338	1.41009	0.01422
6055.41327	1.41003	0.01411
6053.91316	1.40987	0.01404
6052.41305	1.40966	0.01408
6050.91293	1.40955	0.01421
6049.41282	1.40958	0.01433
6047.91271	1.40966	0.01439
6046.4126	1.40969	0.01439
6044.91249	1.40973	0.01439
6043.41238	1.40977	0.01438
6041.91226	1.40978	0.01432
6040.41215	1.4097	0.01428
6038.91204	1.40958	0.01433
6037.41193	1.40961	0.01446
6035.91182	1.40983	0.01447
6034.4117	1.40994	0.01433
6032.91159	1.40987	0.01416
6031.41148	1.40968	0.01409
6029.91137	1.4095	0.01417
6028.41126	1.40951	0.01428
6026.91115	1.40955	0.01433
6025.41103	1.40957	0.01436
6023.91092	1.40961	0.0144
6022.41081	1.40976	0.01437
6020.9107	1.40982	0.01422
6019.41059	1.40966	0.01408
6017.91047	1.40942	0.01414
6016.41036	1.40943	0.01428
6014.91025	1.4095	0.01435
6013.41014	1.4096	0.01436
6011.91003	1.40968	0.0143
6010.40992	1.40967	0.01422
6008.9098	1.40958	0.01419
6007.40969	1.40955	0.01421
6005.90958	1.40958	0.01422
6004.40947	1.40956	0.01421
6002.90936	1.40957	0.01422
6001.40924	1.40963	0.01422
5999.90913	1.40971	0.01413
5998.40902	1.40964	0.01402
5996.90891	1.40949	0.01399
5995.4088	1.40941	0.01406
5993.90869	1.40946	0.01412
5992.40857	1.40955	0.01411
5990.90846	1.40956	0.01405
5989.40835	1.40956	0.01401
5987.90824	1.40958	0.01393
5986.40813	1.40951	0.01384
5984.90801	1.40939	0.01379
5983.4079	1.40926	0.01382
5981.90779	1.4092	0.01391
5980.40768	1.40927	0.01396
5978.90757	1.40934	0.01392
5977.40746	1.40933	0.01384
5975.90734	1.40924	0.01377
5974.40723	1.4091	0.01377
5972.90712	1.409	0.01382
5971.40701	1.40893	0.01391
5969.9069	1.40892	0.01404
5968.40678	1.40907	0.0141
5966.90667	1.40914	0.01407
5965.40656	1.40917	0.01403
5963.90645	1.4092	0.01398
5962.40634	1.40919	0.01391
5960.90623	1.40912	0.01387
5959.40611	1.40903	0.01386
5957.906	1.40898	0.01393
5956.40589	1.40906	0.01396
5954.90578	1.40909	0.01391
5953.40567	1.40903	0.01387
5951.90555	1.40896	0.01389
5950.40544	1.409	0.01393
5948.90533	1.40904	0.01391
5947.40522	1.40905	0.01387
5945.90511	1.40903	0.01383
5944.405	1.40901	0.0138
5942.90488	1.409	0.01377
5941.40477	1.40895	0.01372
5939.90466	1.40887	0.0137
5938.40455	1.40879	0.01372
5936.90444	1.40876	0.01376
5935.40433	1.40874	0.01379
5933.90421	1.40875	0.01384
5932.4041	1.40884	0.01385
5930.90399	1.40886	0.01379
5929.40388	1.40887	0.01376
5927.90377	1.40891	0.01367
5926.40365	1.40886	0.01354
5924.90354	1.40865	0.01346
5923.40343	1.40843	0.01352
5921.90332	1.40833	0.01368
5920.40321	1.40842	0.0138
5918.9031	1.40849	0.01383
5917.40298	1.40854	0.01383
5915.90287	1.40857	0.01379
5914.40276	1.40848	0.01379
5912.90265	1.40847	0.01384
5911.40254	1.40854	0.01388
5909.90242	1.40863	0.01387
5908.40231	1.40873	0.01379
5906.9022	1.40876	0.01365
5905.40209	1.40866	0.01351
5903.90198	1.40845	0.01346
5902.40187	1.4083	0.01354
5900.90175	1.40834	0.01363
5899.40164	1.40837	0.01361
5897.90153	1.40829	0.0136
5896.40142	1.40826	0.01364
5894.90131	1.40831	0.01364
5893.40119	1.40828	0.01358
5891.90108	1.40814	0.01357
5890.40097	1.40804	0.01366
5888.90086	1.40809	0.01378
5887.40075	1.40821	0.01381
5885.90064	1.40829	0.01375
5884.40052	1.40829	0.01365
5882.90041	1.4082	0.01358
5881.4003	1.40807	0.0136
5879.90019	1.40804	0.01368
5878.40008	1.40814	0.01368
5876.89996	1.40808	0.01361
5875.39985	1.40795	0.01364
5873.89974	1.4079	0.01376
5872.39963	1.40805	0.01383
5870.89952	1.40819	0.01377
5869.39941	1.40821	0.01365
5867.89929	1.40812	0.01356
5866.39918	1.40805	0.01351
5864.89907	1.40792	0.01349
5863.39896	1.40781	0.01354
5861.89885	1.4078	0.01361
5860.39873	1.40783	0.01364
5858.89862	1.40782	0.01362
5857.39851	1.40777	0.01361
5855.8984	1.40769	0.01365
5854.39829	1.40767	0.01372
5852.89818	1.40768	0.01378
5851.39806	1.40774	0.01382
5849.89795	1.40783	0.01381
5848.39784	1.40788	0.01373
5846.89773	1.40779	0.01365
5845.39762	1.40767	0.01367
5843.8975	1.40761	0.01377
5842.39739	1.40769	0.01386
5840.89728	1.40785	0.01386
5839.39717	1.40792	0.01374
5837.89706	1.40784	0.01365
5836.39695	1.40776	0.01363
5834.89683	1.40773	0.01364
5833.39672	1.40772	0.01364
5831.89661	1.4077	0.01363
5830.3965	1.40768	0.01363
5828.89639	1.40765	0.01365
5827.39627	1.4077	0.01367
5825.89616	1.40779	0.01362
5824.39605	1.40779	0.0135
5822.89594	1.40769	0.0134
5821.39583	1.40755	0.01337
5819.89572	1.40743	0.01341
5818.3956	1.4074	0.01346
5816.89549	1.4074	0.01348
5815.39538	1.40735	0.01348
5813.89527	1.40729	0.01351
5812.39516	1.40728	0.01357
5810.89504	1.40731	0.0136
5809.39493	1.40736	0.01359
5807.89482	1.40737	0.01352
5806.39471	1.40725	0.01346
5804.8946	1.40711	0.01349
5803.39449	1.40701	0.01361
5801.89437	1.40704	0.01377
5800.39426	1.40726	0.01383
5798.89415	1.40736	0.01374
5797.39404	1.40736	0.01365
5795.89393	1.40734	0.01358
5794.39381	1.40728	0.0135
5792.8937	1.40711	0.01348
5791.39359	1.40697	0.01358
5789.89348	1.40699	0.01375
5788.39337	1.40719	0.0138
5786.89326	1.4073	0.01373
5785.39314	1.4073	0.01365
5783.89303	1.40731	0.0136
5782.39292	1.40736	0.01351
5780.89281	1.40729	0.01338
5779.3927	1.40714	0.01332
5777.89258	1.40703	0.01333
5776.39247	1.40697	0.01337
5774.89236	1.40696	0.01338
5773.39225	1.40695	0.01335
5771.89214	1.40686	0.01331
5770.39203	1.40673	0.01332
5768.89191	1.40662	0.01339
5767.3918	1.40657	0.01348
5765.89169	1.40655	0.01356
5764.39158	1.40654	0.01365
5762.89147	1.40655	0.01376
5761.39135	1.40668	0.01386
5759.89124	1.4069	0.01384
5758.39113	1.40702	0.01369
5756.89102	1.40701	0.01351
5755.39091	1.40684	0.01336
5753.8908	1.4066	0.01335
5752.39068	1.40646	0.01346
5750.89057	1.4064	0.0136
5749.39046	1.40647	0.01374
5747.89035	1.40663	0.01376
5746.39024	1.4067	0.01367
5744.89013	1.40662	0.0136
5743.39001	1.40654	0.01362
5741.8899	1.40653	0.01365
5740.38979	1.40651	0.01368
5738.88968	1.40652	0.01373
5737.38957	1.4066	0.01375
5735.88945	1.40669	0.01368
5734.38934	1.40663	0.0136
5732.88923	1.40655	0.01358
5731.38912	1.40651	0.01361
5729.88901	1.4065	0.01363
5728.3889	1.40649	0.01366
5726.88878	1.40654	0.01368
5725.38867	1.40664	0.01366
5723.88856	1.40673	0.01354
5722.38845	1.40666	0.01337
5720.88834	1.40649	0.01328
5719.38822	1.4063	0.01329
5717.88811	1.40619	0.01336
5716.388	1.40615	0.01345
5714.88789	1.40618	0.0135
5713.38778	1.40621	0.0135
5711.88767	1.40619	0.01346
5710.38755	1.40608	0.01343
5708.88744	1.40594	0.01347
5707.38733	1.40584	0.01359
5705.88722	1.40584	0.01373
5704.38711	1.40593	0.01383
5702.88699	1.40598	0.01387
5701.38688	1.40601	0.01392
5699.88677	1.40609	0.014
5698.38666	1.40631	0.01399
5696.88655	1.40642	0.01386
5695.38644	1.4064	0.01373
5693.88632	1.40634	0.01364
5692.38621	1.40628	0.01359
5690.8861	1.40621	0.01357
5689.38599	1.40615	0.01357
5687.88588	1.40613	0.01358
5686.38576	1.4061	0.01358
5684.88565	1.40608	0.01358
5683.38554	1.40606	0.01359
5681.88543	1.40605	0.01361
5680.38532	1.40611	0.01357
5678.88521	1.40603	0.01351
5677.38509	1.40594	0.01354
5675.88498	1.40594	0.01357
5674.38487	1.40594	0.01359
5672.88476	1.40599	0.01357
5671.38465	1.40596	0.01349
5669.88453	1.4058	0.01347
5668.38442	1.40566	0.01357
5666.88431	1.40569	0.01372
5665.3842	1.40583	0.01381
5663.88409	1.40599	0.01378
5662.38398	1.40609	0.01368
5660.88386	1.40609	0.01354
5659.38375	1.40599	0.01343
5657.88364	1.40585	0.0134
5656.38353	1.40576	0.01344
5654.88342	1.40577	0.01348
5653.3833	1.40577	0.01346
5651.88319	1.4057	0.01346
5650.38308	1.40569	0.01348
5648.88297	1.40569	0.01348
5647.38286	1.40568	0.01347
5645.88275	1.40566	0.01346
5644.38263	1.40565	0.01344
5642.88252	1.40559	0.01342
5641.38241	1.40556	0.01343
5639.8823	1.40555	0.01341
5638.38219	1.40545	0.0134
5636.88207	1.40542	0.01344
5635.38196	1.40536	0.01344
5633.88185	1.40524	0.01352
5632.38174	1.40524	0.01367
5630.88163	1.4054	0.01378
5629.38152	1.40562	0.01373
5627.8814	1.40573	0.01353
5626.38129	1.40557	0.01336
5624.88118	1.40535	0.01335
5623.38107	1.40527	0.01345
5621.88096	1.40535	0.01349
5620.38084	1.40538	0.01342
5618.88073	1.40524	0.01336
5617.38062	1.40512	0.01343
5615.88051	1.4051	0.01347
5614.3804	1.40499	0.01352
5612.88029	1.40494	0.01365
5611.38017	1.40501	0.01379
5609.88006	1.40515	0.01385
5608.37995	1.40527	0.01383
5606.87984	1.40531	0.01379
5605.37973	1.40536	0.01377
5603.87961	1.40545	0.01371
5602.3795	1.40547	0.01361
5600.87939	1.40547	0.01352
5599.37928	1.40543	0.01342
5597.87917	1.40535	0.01334
5596.37906	1.40525	0.01328
5594.87894	1.40513	0.01324
5593.37883	1.40498	0.01325
5591.87872	1.40484	0.01335
5590.37861	1.40485	0.01345
5588.8785	1.40484	0.01352
5587.37838	1.40485	0.01359
5585.87827	1.40495	0.01364
5584.37816	1.40504	0.01359
5582.87805	1.405	0.01351
5581.37794	1.40492	0.01351
5579.87783	1.40492	0.01356
5578.37771	1.40503	0.01352
5576.8776	1.40493	0.01341
5575.37749	1.40476	0.01344
5573.87738	1.40472	0.01354
5572.37727	1.40478	0.01362
5570.87715	1.40487	0.01362
5569.37704	1.40489	0.01356
5567.87693	1.40481	0.01354
5566.37682	1.40476	0.01359
5564.87671	1.40481	0.01365
5563.3766	1.40493	0.01365
5561.87648	1.40504	0.01355
5560.37637	1.40502	0.0134
5558.87626	1.40486	0.0133
5557.37615	1.40472	0.01332
5555.87604	1.40469	0.01336
5554.37592	1.40466	0.01336
5552.87581	1.40461	0.01335
5551.3757	1.40451	0.01336
5549.87559	1.4044	0.01344
5548.37548	1.40436	0.01357
5546.87537	1.40446	0.01369
5545.37525	1.40459	0.01372
5543.87514	1.40471	0.01369
5542.37503	1.40481	0.01358
5540.87492	1.40474	0.01346
5539.37481	1.40461	0.01344
5537.8747	1.40459	0.01348
5536.37458	1.40468	0.01345
5534.87447	1.40459	0.01337
5533.37436	1.40447	0.0134
5531.87425	1.40448	0.01346
5530.37414	1.40457	0.01345
5528.87402	1.40455	0.01337
5527.37391	1.40448	0.01332
5525.8738	1.4044	0.01329
5524.37369	1.40423	0.01333
5522.87358	1.40415	0.01347
5521.37347	1.40423	0.01363
5519.87335	1.40442	0.01366
5518.37324	1.40453	0.01359
5516.87313	1.40457	0.01349
5515.37302	1.40453	0.01341
5513.87291	1.40448	0.01338
5512.37279	1.40452	0.01334
5510.87268	1.40453	0.01324
5509.37257	1.40444	0.01312
5507.87246	1.40423	0.01305
5506.37235	1.40394	0.01314
5504.87224	1.40388	0.01339
5503.37212	1.40406	0.01356
5501.87201	1.40431	0.01352
5500.3719	1.40431	0.0134
5498.87179	1.40429	0.01336
5497.37168	1.40434	0.0133
5495.87156	1.40435	0.01313
5494.37145	1.40408	0.01303
5492.87134	1.40381	0.01312
5491.37123	1.40373	0.01334
5489.87112	1.40384	0.01351
5488.37101	1.404	0.01359
5486.87089	1.40415	0.01359
5485.37078	1.4043	0.01354
5483.87067	1.40442	0.0134
5482.37056	1.40443	0.01324
5480.87045	1.40442	0.01308
5479.37033	1.40436	0.0129
5477.87022	1.4042	0.01269
5476.37011	1.40381	0.01259
5474.87	1.40336	0.01274
5473.36989	1.40317	0.01313
5471.86978	1.40339	0.01349
5470.36966	1.40385	0.01357
5468.86955	1.40414	0.01334
5467.36944	1.40407	0.01303
5465.86933	1.40374	0.01292
5464.36922	1.40358	0.01299
5462.8691	1.40352	0.01306
5461.36899	1.40346	0.0131
5459.86888	1.40335	0.0132
5458.36877	1.40335	0.01336
5456.86866	1.4035	0.01349
5455.36855	1.4037	0.01348
5453.86843	1.40381	0.01337
5452.36832	1.40379	0.01326
5450.86821	1.40378	0.01318
5449.3681	1.40373	0.0131
5447.86799	1.40361	0.01306
5446.36787	1.40349	0.0131
5444.86776	1.4035	0.01317
5443.36765	1.40353	0.01318
5441.86754	1.40351	0.01317
5440.36743	1.40346	0.01324
5438.86732	1.40361	0.01331
5437.3672	1.40384	0.0132
5435.86709	1.40388	0.01293
5434.36698	1.4036	0.01275
5432.86687	1.4034	0.01276
5431.36676	1.40327	0.01279
5429.86664	1.40312	0.01287
5428.36653	1.40305	0.01298
5426.86642	1.40298	0.01314
5425.36631	1.40308	0.01336
5423.8662	1.40341	0.01344
5422.36609	1.40372	0.01329
5420.86597	1.40377	0.01301
5419.36586	1.40367	0.01281
5417.86575	1.40357	0.01269
5416.36564	1.40356	0.01252
5414.86553	1.40331	0.01228
5413.36541	1.4028	0.01223
5411.8653	1.4023	0.01253
5410.36519	1.40225	0.01304
5408.86508	1.40266	0.01339
5407.36497	1.40315	0.01336
5405.86486	1.40335	0.0131
5404.36474	1.40324	0.01288
5402.86463	1.40311	0.01279
5401.36452	1.40303	0.01276
5399.86441	1.403	0.01275
5398.3643	1.40307	0.01265
5396.86418	1.40293	0.01244
5395.36407	1.40247	0.01237
5393.86396	1.40197	0.01273
5392.36385	1.40206	0.01327
5390.86374	1.40262	0.01358
5389.36363	1.40325	0.01343
5387.86351	1.40355	0.01291
5386.3634	1.40322	0.01242
5384.86329	1.40261	0.01231
5383.36318	1.40225	0.01261
5381.86307	1.40237	0.01292
5380.36295	1.40275	0.01297
5378.86284	1.40295	0.01271
5377.36273	1.40274	0.01238
5375.86262	1.40223	0.01232
5374.36251	1.40183	0.01261
5372.8624	1.40185	0.01304
5371.36228	1.40222	0.01331
5369.86217	1.40266	0.01327
5368.36206	1.40286	0.01304
5366.86195	1.40287	0.01277
5365.36184	1.40273	0.01256
5363.86172	1.40248	0.01247
5362.36161	1.40226	0.01254
5360.8615	1.40224	0.0127
5359.36139	1.40243	0.01277
5357.86128	1.4027	0.0126
5356.36117	1.40272	0.01218
5354.86105	1.40211	0.01186
5353.36094	1.40138	0.01208
5351.86083	1.4011	0.01265
5350.36072	1.40142	0.01319
5348.86061	1.40209	0.01334
5347.3605	1.40257	0.013
5345.86038	1.40247	0.01253
5344.36027	1.4019	0.01241
5342.86016	1.40175	0.01268
5341.36005	1.40199	0.01282
5339.85994	1.40224	0.01265
5338.35982	1.40211	0.01237
5336.85971	1.40161	0.01232
5335.3596	1.40134	0.01267
5333.85949	1.40161	0.01304
5332.35938	1.40219	0.013
5330.85927	1.40238	0.01259
5329.35915	1.40211	0.01224
5327.85904	1.40167	0.01219
5326.35893	1.40141	0.01238
5324.85882	1.40145	0.01262
5323.35871	1.40168	0.01271
5321.85859	1.40191	0.01259
5320.35848	1.40193	0.01234
5318.85837	1.40166	0.01216
5317.35826	1.40137	0.01221
5315.85815	1.40129	0.01236
5314.35804	1.4014	0.01244
5312.85792	1.4015	0.01238
5311.35781	1.40148	0.01224
5309.8577	1.40132	0.01212
5308.35759	1.40108	0.01211
5306.85748	1.4009	0.01221
5305.35736	1.40083	0.01236
5303.85725	1.4009	0.01249
5302.35714	1.4011	0.01245
5300.85703	1.40104	0.01222
5299.35692	1.40052	0.0123
5297.85681	1.40064	0.01256
5296.35669	1.40076	0.01257
5294.85658	1.40072	0.01254
5293.35647	1.40068	0.01256
5291.85636	1.40065	0.01258
5290.35625	1.40059	0.01261
5288.85613	1.40059	0.01267
5287.35602	1.4006	0.01268
5285.85591	1.40053	0.01271
5284.3558	1.40055	0.01279
5282.85569	1.40069	0.01279
5281.35558	1.40072	0.01267
5279.85546	1.40055	0.0126
5278.35535	1.40041	0.0127
5276.85524	1.40055	0.01276
5275.35513	1.40058	0.01264
5273.85502	1.40042	0.0126
5272.3549	1.4004	0.01258
5270.85479	1.40018	0.01253
5269.35468	1.39979	0.01274
5267.85457	1.39984	0.01315
5266.35446	1.40029	0.01334
5264.85435	1.4006	0.01317
5263.35423	1.40053	0.01296
5261.85412	1.40032	0.01295
5260.35401	1.40029	0.0131
5258.8539	1.40048	0.0132
5257.35379	1.40075	0.01313
5255.85367	1.40089	0.0129
5254.35356	1.40085	0.01264
5252.85345	1.40066	0.01242
5251.35334	1.40032	0.01235
5249.85323	1.40007	0.01247
5248.35312	1.40011	0.01261
5246.853	1.40015	0.01258
5245.35289	1.39996	0.01259
5243.85278	1.39995	0.01271
5242.35267	1.4001	0.0127
5240.85256	1.40006	0.01258
5239.35244	1.39986	0.01253
5237.85233	1.39968	0.01264
5236.35222	1.39972	0.01279
5234.85211	1.3999	0.01277
5233.352	1.39984	0.01261
5231.85189	1.39954	0.01258
5230.35177	1.39933	0.01278
5228.85166	1.3994	0.01301
5227.35155	1.39962	0.01311
5225.85144	1.39983	0.01303
5224.35133	1.39988	0.01285
5222.85121	1.39977	0.01263
5221.3511	1.39945	0.01252
5219.85099	1.39908	0.01262
5218.35088	1.39888	0.01287
5216.85077	1.39886	0.01314
5215.35066	1.39893	0.01338
5213.85054	1.39911	0.01356
5212.35043	1.39935	0.01363
5210.85032	1.39955	0.01358
5209.35021	1.39966	0.01346
5207.8501	1.39965	0.01332
5206.34998	1.39952	0.01325
5204.84987	1.39941	0.01328
5203.34976	1.39932	0.01337
5201.84965	1.39939	0.01351
5200.34954	1.39961	0.01351
5198.84943	1.39966	0.01336
5197.34931	1.39945	0.01333
5195.8492	1.39943	0.01345
5194.34909	1.39955	0.01346
5192.84898	1.39945	0.01348
5191.34887	1.39952	0.01364
5189.84875	1.39984	0.01365
5188.34864	1.40002	0.01346
5186.84853	1.4	0.01326
5185.34842	1.39992	0.01313
5183.84831	1.39985	0.01305
5182.3482	1.39983	0.01299
5180.84808	1.39978	0.01287
5179.34797	1.39965	0.0128
5177.84786	1.39958	0.01276
5176.34775	1.3995	0.01268
5174.84764	1.39933	0.01261
5173.34752	1.3991	0.01261
5171.84741	1.39883	0.01274
5170.3473	1.39879	0.01296
5168.84719	1.39889	0.01307
5167.34708	1.39886	0.01312
5165.84697	1.39883	0.01324
5164.34685	1.39898	0.01334
5162.84674	1.39911	0.01329
5161.34663	1.3991	0.01323
5159.84652	1.39909	0.01318
5158.34641	1.39906	0.01312
5156.8463	1.3989	0.01311
5155.34618	1.39878	0.01323
5153.84607	1.39884	0.01337
5152.34596	1.39894	0.01341
5150.84585	1.39899	0.01341
5149.34574	1.3991	0.01336
5147.84562	1.39904	0.01325
5146.34551	1.39878	0.01331
5144.8454	1.39875	0.01359
5143.34529	1.39919	0.01373
5141.84518	1.39954	0.01349
5140.34507	1.39945	0.01318
5138.84495	1.3992	0.01306
5137.34484	1.39907	0.01309
5135.84473	1.39903	0.01312
5134.34462	1.39897	0.01315
5132.84451	1.39894	0.01324
5131.34439	1.39908	0.01328
5129.84428	1.39919	0.0132
5128.34417	1.39914	0.01309
5126.84406	1.39906	0.01306
5125.34395	1.39906	0.01307
5123.84384	1.39913	0.01302
5122.34372	1.39909	0.01291
5120.84361	1.39896	0.01285
5119.3435	1.39885	0.01286
5117.84339	1.39878	0.01289
5116.34328	1.3987	0.01293
5114.84316	1.39864	0.01303
5113.34305	1.39871	0.01316
5111.84294	1.39895	0.01317
5110.34283	1.39913	0.01296
5108.84272	1.39895	0.01274
5107.34261	1.39866	0.01273
5105.84249	1.39856	0.01288
5104.34238	1.39866	0.013
5102.84227	1.39884	0.01296
5101.34216	1.39884	0.0128
5099.84205	1.39863	0.01276
5098.34193	1.39854	0.0129
5096.84182	1.39877	0.01298
5095.34171	1.39897	0.01281
5093.8416	1.39888	0.0126
5092.34149	1.39869	0.01252
5090.84138	1.39865	0.0125
5089.34126	1.39858	0.01241
5087.84115	1.39832	0.0124
5086.34104	1.39818	0.01257
5084.84093	1.39832	0.01271
5083.34082	1.39853	0.01264
5081.8407	1.39855	0.01243
5080.34059	1.39832	0.01227
5078.84048	1.39802	0.0123
5077.34037	1.39785	0.01249
5075.84026	1.39796	0.01268
5074.34015	1.39815	0.01268
5072.84003	1.39819	0.01258
5071.33992	1.39815	0.01251
5069.83981	1.39815	0.01243
5068.3397	1.39807	0.01229
5066.83959	1.39778	0.01223
5065.33947	1.39745	0.01239
5063.83936	1.39745	0.01271
5062.33925	1.39777	0.01286
5060.83914	1.39803	0.01272
5059.33903	1.39797	0.01248
5057.83892	1.39773	0.01237
5056.3388	1.39744	0.01245
5054.83869	1.39735	0.01266
5053.33858	1.39746	0.01283
5051.83847	1.39761	0.01288
5050.33836	1.39771	0.01285
5048.83824	1.39776	0.01279
5047.33813	1.39775	0.01273
5045.83802	1.39773	0.01269
5044.33791	1.39769	0.01267
5042.8378	1.39766	0.01269
5041.33769	1.39775	0.01269
5039.83757	1.3978	0.01257
5038.33746	1.39768	0.01247
5036.83735	1.39756	0.01244
5035.33724	1.39743	0.01247
5033.83713	1.39737	0.01256
5032.33701	1.39741	0.01263
5030.8369	1.39743	0.01265
5029.33679	1.39747	0.01269
5027.83668	1.39765	0.01266
5026.33657	1.39775	0.01244
5024.83646	1.39749	0.01224
5023.33634	1.39713	0.01232
5021.83623	1.39711	0.01254
5020.33612	1.39727	0.01263
5018.83601	1.39732	0.01261
5017.3359	1.39731	0.01263
5015.83578	1.39741	0.01265
5014.33567	1.39757	0.01256
5012.83556	1.39763	0.01235
5011.33545	1.39743	0.01215
5009.83534	1.39711	0.01216
5008.33523	1.39699	0.01232
5006.83511	1.39707	0.01245
5005.335	1.39722	0.01247
5003.83489	1.39732	0.01235
5002.33478	1.39721	0.01221
5000.83467	1.39701	0.0122
4999.33455	1.39696	0.0123
4997.83444	1.39702	0.0123
4996.33433	1.3969	0.01232
4994.83422	1.39693	0.01243
4993.33411	1.39708	0.01245
4991.834	1.39716	0.01237
4990.33388	1.39717	0.0123
4988.83377	1.39722	0.01222
4987.33366	1.39725	0.01207
4985.83355	1.39711	0.01193
4984.33344	1.39695	0.01192
4982.83332	1.39697	0.01192
4981.33321	1.39695	0.0118
4979.8331	1.39677	0.01171
4978.33299	1.39659	0.0117
4976.83288	1.39638	0.01176
4975.33277	1.3962	0.01196
4973.83265	1.39631	0.0122
4972.33254	1.3966	0.01224
4970.83243	1.39669	0.01211
4969.33232	1.39663	0.01206
4967.83221	1.39673	0.01204
4966.3321	1.39685	0.01189
4964.83198	1.39679	0.01167
4963.33187	1.39659	0.01153
4961.83176	1.39639	0.0115
4960.33165	1.39625	0.01152
4958.83154	1.39617	0.01155
4957.33142	1.39606	0.01158
4955.83131	1.39595	0.01164
4954.3312	1.3959	0.01176
4952.83109	1.396	0.01186
4951.33098	1.39619	0.01181
4949.83087	1.39623	0.01162
4948.33075	1.39603	0.01145
4946.83064	1.39576	0.01144
4945.33053	1.39556	0.01158
4943.83042	1.39555	0.01177
4942.33031	1.39573	0.01186
4940.83019	1.39587	0.01178
4939.33008	1.39584	0.01164
4937.82997	1.39572	0.01157
4936.32986	1.39562	0.01155
4934.82975	1.39551	0.01154
4933.32964	1.3954	0.01156
4931.82952	1.3953	0.01163
4930.32941	1.39525	0.01173
4928.8293	1.39528	0.01181
4927.32919	1.39531	0.01183
4925.82908	1.39528	0.01186
4924.32896	1.39528	0.01194
4922.82885	1.39544	0.012
4921.32874	1.39563	0.01187
4919.82863	1.39557	0.01167
4918.32852	1.39532	0.01162
4916.82841	1.39525	0.01174
4915.32829	1.39542	0.01177
4913.82818	1.39547	0.01161
4912.32807	1.39529	0.01151
4910.82796	1.39514	0.01155
4909.32785	1.39513	0.01161
4907.82773	1.39514	0.01161
4906.32762	1.39513	0.01161
4904.82751	1.39516	0.0116
4903.3274	1.39517	0.01154
4901.82729	1.39512	0.01148
4900.32718	1.39506	0.01143
4898.82706	1.39497	0.01141
4897.32695	1.39492	0.01143
4895.82684	1.39493	0.01143
4894.32673	1.39492	0.01138
4892.82662	1.39487	0.01133
4891.3265	1.39484	0.01128
4889.82639	1.39477	0.01119
4888.32628	1.39457	0.01113
4886.82617	1.39433	0.01121
4885.32606	1.39426	0.01139
4883.82595	1.39432	0.01151
4882.32583	1.3944	0.01157
4880.82572	1.39451	0.01159
4879.32561	1.39467	0.01148
4877.8255	1.39464	0.01128
4876.32539	1.39445	0.01118
4874.82527	1.39429	0.01115
4873.32516	1.3941	0.01117
4871.82505	1.39389	0.01131
4870.32494	1.39389	0.01156
4868.82483	1.39413	0.01167
4867.32472	1.39429	0.01162
4865.8246	1.39439	0.01152
4864.32449	1.39444	0.01135
4862.82438	1.3943	0.01117
4861.32427	1.39402	0.01115
4859.82416	1.3939	0.0113
4858.32404	1.39399	0.01141
4856.82393	1.39416	0.01138
4855.32382	1.39421	0.01123
4853.82371	1.39407	0.01109
4852.3236	1.39388	0.01107
4850.82349	1.39378	0.01118
4849.32337	1.39393	0.01123
4847.82326	1.39407	0.01106
4846.32315	1.39386	0.01085
4844.82304	1.39353	0.01085
4843.32293	1.39339	0.01101
4841.82281	1.39342	0.01115
4840.3227	1.39353	0.01118
4838.82259	1.39357	0.01112
4837.32248	1.39345	0.01107
4835.82237	1.39335	0.01117
4834.32226	1.39355	0.01122
4832.82214	1.39372	0.01103
4831.32203	1.39356	0.01077
4829.82192	1.39319	0.01072
4828.32181	1.39297	0.01088
4826.8217	1.39301	0.01103
4825.32158	1.39307	0.01108
4823.82147	1.39312	0.01107
4822.32136	1.39308	0.01102
4820.82125	1.39295	0.01104
4819.32114	1.39297	0.01116
4817.82103	1.3932	0.01117
4816.32091	1.39335	0.01096
4814.8208	1.39321	0.0107
4813.32069	1.39286	0.01061
4811.82058	1.39262	0.01075
4810.32047	1.39268	0.01091
4808.82035	1.39284	0.01087
4807.32024	1.39278	0.01073
4805.82013	1.3926	0.01067
4804.32002	1.39245	0.01068
4802.81991	1.39232	0.01074
4801.3198	1.39225	0.01081
4799.81968	1.39214	0.01087
4798.31957	1.39204	0.01103
4796.81946	1.39213	0.01122
4795.31935	1.39238	0.01126
4793.81924	1.39251	0.01113
4792.31912	1.39244	0.01103
4790.81901	1.39239	0.01101
4789.3189	1.39243	0.01098
4787.81879	1.39243	0.01088
4786.31868	1.39232	0.01079
4784.81857	1.39217	0.0108
4783.31845	1.3921	0.01086
4781.81834	1.39215	0.01092
4780.31823	1.39225	0.01087
4778.81812	1.39224	0.01074
4777.31801	1.3921	0.01065
4775.81789	1.39194	0.01067
4774.31778	1.39191	0.01075
4772.81767	1.39202	0.01075
4771.31756	1.3921	0.01058
4769.81745	1.3919	0.01037
4768.31734	1.39151	0.01037
4766.81722	1.3913	0.01058
4765.31711	1.39137	0.01077
4763.817	1.39148	0.01083
4762.31689	1.39155	0.0108
4760.81678	1.39156	0.0107
4759.31667	1.39142	0.0106
4757.81655	1.39115	0.01067
4756.31644	1.39105	0.01088
4754.81633	1.39119	0.01104
4753.31622	1.39131	0.01109
4751.81611	1.39138	0.01113
4750.31599	1.39159	0.01114
4748.81588	1.39185	0.01094
4747.31577	1.39179	0.01065
4745.81566	1.3915	0.0105
4744.31555	1.39133	0.01053
4742.81544	1.39126	0.01058
4741.31532	1.39126	0.0106
4739.81521	1.39124	0.01057
4738.3151	1.39113	0.01058
4736.81499	1.39111	0.01067
4735.31488	1.39127	0.01069
4733.81476	1.39137	0.01056
4732.31465	1.39127	0.01042
4730.81454	1.39117	0.01038
4729.31443	1.39114	0.01034
4727.81432	1.39109	0.01029
4726.31421	1.39102	0.01025
4724.81409	1.39098	0.0102
4723.31398	1.39086	0.01014
4721.81387	1.3907	0.01018
4720.31376	1.39071	0.01027
4718.81365	1.39082	0.01024
4717.31353	1.3908	0.01012
4715.81342	1.3907	0.01004
4714.31331	1.39058	0.00998
4712.8132	1.39042	0.00996
4711.31309	1.39026	0.01005
4709.81298	1.39027	0.01018
4708.31286	1.39042	0.01018
4706.81275	1.39043	0.01007
4705.31264	1.39028	0.01002
4703.81253	1.39026	0.01006
4702.31242	1.39033	0.01
4700.8123	1.39027	0.00988
4699.31219	1.39008	0.00982
4697.81208	1.38992	0.00987
4696.31197	1.38985	0.00997
4694.81186	1.38988	0.01006
4693.31175	1.38999	0.0101
4691.81163	1.39014	0.01002
4690.31152	1.39012	0.00984
4688.81141	1.38992	0.00976
4687.3113	1.38984	0.00983
4685.81119	1.38999	0.00983
4684.31107	1.39007	0.00967
4682.81096	1.39002	0.00946
4681.31085	1.38984	0.00926
4679.81074	1.38951	0.00918
4678.31063	1.38922	0.0093
4676.81052	1.38919	0.00947
4675.3104	1.38929	0.00952
4673.81029	1.38935	0.00946
4672.31018	1.38933	0.00935
4670.81007	1.38922	0.00923
4669.30996	1.38906	0.00916
4667.80984	1.38885	0.00914
4666.30973	1.38863	0.00923
4664.80962	1.38858	0.00938
4663.30951	1.38866	0.00945
4661.8094	1.38867	0.00941
4660.30929	1.3886	0.0094
4658.80917	1.38857	0.00943
4657.30906	1.38865	0.00941
4655.80895	1.38863	0.00929
4654.30884	1.38847	0.00921
4652.80873	1.38832	0.00921
4651.30861	1.38821	0.00927
4649.8085	1.38816	0.00935
4648.30839	1.38825	0.0094
4646.80828	1.38833	0.00932
4645.30817	1.38826	0.0092
4643.80806	1.38816	0.00915
4642.30794	1.38809	0.00913
4640.80783	1.38804	0.00909
4639.30772	1.38798	0.00901
4637.80761	1.38779	0.00897
4636.3075	1.38763	0.00905
4634.80738	1.38765	0.00914
4633.30727	1.38773	0.00912
4631.80716	1.38771	0.00904
4630.30705	1.38764	0.00897
4628.80694	1.38762	0.0089
4627.30683	1.38758	0.00876
4625.80671	1.38734	0.00862
4624.3066	1.38699	0.00864
4622.80649	1.38681	0.00882
4621.30638	1.38682	0.00897
4619.80627	1.38689	0.00903
4618.30615	1.38694	0.00901
4616.80604	1.38695	0.00892
4615.30593	1.38684	0.00882
4613.80582	1.38664	0.00881
4612.30571	1.38654	0.00888
4610.8056	1.38658	0.00889
4609.30548	1.38648	0.00882
4607.80537	1.38628	0.00886
4606.30526	1.3863	0.00898
4604.80515	1.38644	0.00892
4603.30504	1.38632	0.00876
4601.80492	1.38607	0.00873
4600.30481	1.38594	0.00881
4598.8047	1.38587	0.00885
4597.30459	1.38576	0.0089
4595.80448	1.38571	0.00897
4594.30437	1.38565	0.00904
4592.80425	1.38562	0.00914
4591.30414	1.38572	0.0092
4589.80403	1.38583	0.00915
4588.30392	1.38582	0.00903
4586.80381	1.3857	0.00894
4585.30369	1.38557	0.00894
4583.80358	1.38553	0.00897
4582.30347	1.38551	0.00896
4580.80336	1.38548	0.00893
4579.30325	1.38544	0.00888
4577.80314	1.38537	0.00882
4576.30302	1.38524	0.00881
4574.80291	1.38521	0.00882
4573.3028	1.38522	0.00875
4571.80269	1.38512	0.00862
4570.30258	1.38485	0.00856
4568.80247	1.38461	0.00866
4567.30235	1.38454	0.00881
4565.80224	1.3846	0.0089
4564.30213	1.38469	0.00885
4562.80202	1.38463	0.00872
4561.30191	1.38434	0.00868
4559.80179	1.38414	0.00883
4558.30168	1.38421	0.00898
4556.80157	1.38432	0.00896
4555.30146	1.38429	0.00887
4553.80135	1.38411	0.00883
4552.30124	1.38397	0.0089
4550.80112	1.384	0.00899
4549.30101	1.38404	0.00896
4547.8009	1.38397	0.00891
4546.30079	1.38389	0.00892
4544.80068	1.3839	0.0089
4543.30056	1.38381	0.00883
4541.80045	1.38362	0.00888
4540.30034	1.38365	0.00896
4538.80023	1.38374	0.00888
4537.30012	1.38359	0.00875
4535.80001	1.38336	0.00876
4534.29989	1.38326	0.00885
4532.79978	1.3832	0.00893
4531.29967	1.38321	0.00898
4529.79956	1.38321	0.00897
4528.29945	1.38313	0.00897
4526.79933	1.38309	0.009
4525.29922	1.38311	0.00901
4523.79911	1.38313	0.00898
4522.299	1.38316	0.00889
4520.79889	1.38305	0.00875
4519.29878	1.38281	0.00872
4517.79866	1.38267	0.0088
4516.29855	1.38268	0.00884
4514.79844	1.38264	0.0088
4513.29833	1.38253	0.00876
4511.79822	1.38237	0.00875
4510.2981	1.38219	0.00884
4508.79799	1.38217	0.00899
4507.29788	1.38228	0.00903
4505.79777	1.38229	0.00894
4504.29766	1.38214	0.00889
4502.79755	1.382	0.00894
4501.29743	1.38198	0.00901
4499.79732	1.38198	0.00902
4498.29721	1.38191	0.00902
4496.7971	1.38186	0.00906
4495.29699	1.38187	0.00908
4493.79687	1.38185	0.00907
4492.29676	1.38184	0.00906
4490.79665	1.38183	0.00904
4489.29654	1.38183	0.00899
4487.79643	1.38181	0.0089
4486.29632	1.38169	0.0088
4484.7962	1.38148	0.00879
4483.29609	1.38138	0.00888
4481.79598	1.38143	0.00891
4480.29587	1.38141	0.00885
4478.79576	1.38132	0.00879
4477.29564	1.38121	0.00877
4475.79553	1.38112	0.00876
4474.29542	1.38102	0.00877
4472.79531	1.38097	0.00878
4471.2952	1.38093	0.00874
4469.79509	1.38077	0.00871
4468.29497	1.3806	0.00878
4466.79486	1.38055	0.00889
4465.29475	1.3806	0.00893
4463.79464	1.38063	0.00889
4462.29453	1.38056	0.00882
4460.79441	1.38042	0.0088
4459.2943	1.38031	0.00884
4457.79419	1.38033	0.00887
4456.29408	1.38033	0.0088
4454.79397	1.38017	0.00871
4453.29386	1.37991	0.00874
4451.79374	1.3798	0.0089
4450.29363	1.37987	0.00899
4448.79352	1.37986	0.00898
4447.29341	1.37979	0.00898
4445.7933	1.3797	0.00903
4444.29318	1.37969	0.00914
4442.79307	1.37984	0.00917
4441.29296	1.37994	0.00904
4439.79285	1.3798	0.00892
4438.29274	1.37969	0.00893
4436.79263	1.37976	0.0089
4435.29251	1.37977	0.00873
4433.7924	1.37954	0.00857
4432.29229	1.37925	0.00857
4430.79218	1.37906	0.00867
4429.29207	1.37896	0.00882
4427.79195	1.37905	0.00894
4426.29184	1.37919	0.00888
4424.79173	1.37912	0.00872
4423.29162	1.37889	0.00865
4421.79151	1.37868	0.00872
4420.2914	1.37862	0.00885
4418.79128	1.37868	0.0089
4417.29117	1.37872	0.00886
4415.79106	1.37866	0.00878
4414.29095	1.37853	0.00875
4412.79084	1.37843	0.00875
4411.29072	1.37835	0.00876
4409.79061	1.37826	0.00878
4408.2905	1.37818	0.00882
4406.79039	1.37817	0.00884
4405.29028	1.37815	0.0088
4403.79017	1.37802	0.00875
4402.29005	1.37783	0.0088
4400.78994	1.37778	0.00892
4399.28983	1.37783	0.00897
4397.78972	1.37782	0.00898
4396.28961	1.37783	0.009
4394.78949	1.37793	0.00895
4393.28938	1.37792	0.00881
4391.78927	1.37778	0.0087
4390.28916	1.37764	0.00864
4388.78905	1.37747	0.00864
4387.28894	1.37735	0.00869
4385.78882	1.37732	0.00872
4384.28871	1.37725	0.00871
4382.7886	1.37713	0.00875
4381.28849	1.37712	0.00883
4379.78838	1.37723	0.00881
4378.28827	1.37722	0.00867
4376.78815	1.37705	0.00857
4375.28804	1.37689	0.00855
4373.78793	1.3767	0.00857
4372.28782	1.37655	0.00871
4370.78771	1.37665	0.00885
4369.28759	1.37683	0.00879
4367.78748	1.37681	0.0086
4366.28737	1.37658	0.0085
4364.78726	1.37645	0.00852
4363.28715	1.37643	0.0085
4361.78704	1.37631	0.00842
4360.28692	1.37604	0.00844
4358.78681	1.37595	0.0086
4357.2867	1.37608	0.00868
4355.78659	1.37617	0.00859
4354.28648	1.37607	0.00847
4352.78636	1.37598	0.00843
4351.28625	1.37597	0.00834
4349.78614	1.37584	0.00816
4348.28603	1.37549	0.0081
4346.78592	1.37527	0.00822
4345.28581	1.37527	0.00828
4343.78569	1.37515	0.00825
4342.28558	1.37492	0.00828
4340.78547	1.37475	0.00843
4339.28536	1.37476	0.00858
4337.78525	1.37482	0.00863
4336.28513	1.37484	0.00863
4334.78502	1.37487	0.00857
4333.28491	1.37477	0.00848
4331.7848	1.37461	0.00847
4330.28469	1.37454	0.00849
4328.78458	1.37445	0.00848
4327.28446	1.37431	0.00851
4325.78435	1.37426	0.00858
4324.28424	1.37428	0.00858
4322.78413	1.37419	0.00854
4321.28402	1.37405	0.00857
4319.7839	1.37403	0.00864
4318.28379	1.37409	0.00863
4316.78368	1.37403	0.00853
4315.28357	1.37385	0.00848
4313.78346	1.37369	0.00854
4312.28335	1.37361	0.00864
4310.78323	1.37365	0.00873
4309.28312	1.37377	0.00871
4307.78301	1.37377	0.00859
4306.2829	1.37366	0.00849
4304.78279	1.37356	0.00844
4303.28267	1.37349	0.00839
4301.78256	1.37337	0.00832
4300.28245	1.3732	0.0083
4298.78234	1.37306	0.00832
4297.28223	1.37297	0.00836
4295.78212	1.37291	0.00837
4294.282	1.37281	0.00836
4292.78189	1.37269	0.00839
4291.28178	1.37265	0.00843
4289.78167	1.37258	0.00842
4288.28156	1.37247	0.00845
4286.78144	1.37244	0.00852
4285.28133	1.37248	0.0085
4283.78122	1.37243	0.00844
4282.28111	1.37233	0.00843
4280.781	1.3723	0.00843
4279.28089	1.37231	0.00837
4277.78077	1.37225	0.00825
4276.28066	1.37205	0.00816
4274.78055	1.37185	0.00817
4273.28044	1.37175	0.00821
4271.78033	1.37163	0.00823
4270.28021	1.37149	0.0083
4268.7801	1.37147	0.00841
4267.27999	1.37154	0.00844
4265.77988	1.37159	0.00838
4264.27977	1.37155	0.00829
4262.77966	1.37149	0.00819
4261.27954	1.37138	0.00808
4259.77943	1.37116	0.00804
4258.27932	1.37102	0.0081
4256.77921	1.37101	0.00813
4255.2791	1.371	0.00809
4253.77898	1.37094	0.00801
4252.27887	1.37084	0.00793
4250.77876	1.37073	0.00785
4249.27865	1.37056	0.00778
4247.77854	1.37037	0.00777
4246.27843	1.37023	0.00779
4244.77831	1.37013	0.00778
4243.2782	1.36998	0.00777
4241.77809	1.36984	0.0078
4240.27798	1.36974	0.00782
4238.77787	1.3696	0.00783
4237.27775	1.36948	0.00788
4235.77764	1.36942	0.00792
4234.27753	1.36934	0.00794
4232.77742	1.36928	0.00796
4231.27731	1.36927	0.00795
4229.7772	1.36922	0.00785
4228.27708	1.369	0.00778
4226.77697	1.36876	0.00784
4225.27686	1.36868	0.00795
4223.77675	1.36868	0.00799
4222.27664	1.36861	0.00797
4220.77652	1.36851	0.00799
4219.27641	1.36848	0.008
4217.7763	1.36842	0.00798
4216.27619	1.36836	0.00797
4214.77608	1.36835	0.00791
4213.27597	1.36825	0.0078
4211.77585	1.36805	0.00771
4210.27574	1.36777	0.00772
4208.77563	1.3676	0.00786
4207.27552	1.36767	0.00795
4205.77541	1.36775	0.00784
4204.27529	1.36754	0.00766
4202.77518	1.36718	0.00765
4201.27507	1.36697	0.0078
4199.77496	1.36691	0.00793
4198.27485	1.36689	0.00801
4196.77474	1.3669	0.00801
4195.27462	1.36683	0.00795
4193.77451	1.36662	0.00794
4192.2744	1.36645	0.00804
4190.77429	1.36645	0.00815
4189.27418	1.3665	0.00815
4187.77407	1.36643	0.00807
4186.27395	1.36624	0.00806
4184.77384	1.36611	0.00815
4183.27373	1.36611	0.00824
4181.77362	1.36614	0.00824
4180.27351	1.36614	0.00821
4178.77339	1.3661	0.00815
4177.27328	1.36605	0.00809
4175.77317	1.36598	0.008
4174.27306	1.36582	0.00794
4172.77295	1.36568	0.00796
4171.27284	1.36567	0.00797
4169.77272	1.36567	0.00788
4168.27261	1.36554	0.00775
4166.7725	1.36537	0.00767
4165.27239	1.36521	0.00761
4163.77228	1.365	0.00756
4162.27216	1.36475	0.00757
4160.77205	1.36455	0.00768
4159.27194	1.3645	0.00778
4157.77183	1.36451	0.00778
4156.27172	1.3644	0.00772
4154.77161	1.36422	0.00773
4153.27149	1.36412	0.00779
4151.77138	1.36412	0.00781
4150.27127	1.36408	0.00774
4148.77116	1.36394	0.00765
4147.27105	1.36377	0.00762
4145.77093	1.36362	0.0076
4144.27082	1.36342	0.0076
4142.77071	1.36326	0.00768
4141.2706	1.36322	0.00774
4139.77049	1.36319	0.0077
4138.27038	1.36304	0.00764
4136.77026	1.36284	0.00766
4135.27015	1.36274	0.0077
4133.77004	1.36266	0.00771
4132.26993	1.36253	0.00771
4130.76982	1.36242	0.00774
4129.2697	1.36237	0.00774
4127.76959	1.36227	0.00771
4126.26948	1.36215	0.0077
4124.76937	1.36208	0.00769
4123.26926	1.36202	0.0076
4121.76915	1.36183	0.00749
4120.26903	1.36154	0.00747
4118.76892	1.36131	0.00754
4117.26881	1.36116	0.00764
4115.7687	1.36102	0.00772
4114.26859	1.36092	0.00784
4112.76847	1.36097	0.00791
4111.26836	1.36106	0.00782
4109.76825	1.36091	0.00762
4108.26814	1.36051	0.00757
4106.76803	1.36023	0.00773
4105.26792	1.36022	0.0079
4103.7678	1.36026	0.0079
4102.26769	1.36015	0.00785
4100.76758	1.35998	0.00786
4099.26747	1.3599	0.00789
4097.76736	1.35983	0.00785
4096.26724	1.35966	0.00781
4094.76713	1.35948	0.00783
4093.26702	1.35934	0.00784
4091.76691	1.35911	0.00787
4090.2668	1.35891	0.008
4088.76669	1.35885	0.00815
4087.26657	1.35888	0.00824
4085.76646	1.35891	0.00824
4084.26635	1.35886	0.00817
4082.76624	1.35871	0.00811
4081.26613	1.35853	0.00814
4079.76601	1.35842	0.00821
4078.2659	1.35839	0.00826
4076.76579	1.3584	0.00826
4075.26568	1.35837	0.00819
4073.76557	1.3583	0.00808
4072.26546	1.35814	0.00796
4070.76534	1.35784	0.0079
4069.26523	1.35758	0.008
4067.76512	1.35752	0.00811
4066.26501	1.35751	0.00812
4064.7649	1.35736	0.00809
4063.26478	1.35722	0.00814
4061.76467	1.35722	0.00815
4060.26456	1.35719	0.00807
4058.76445	1.35703	0.00795
4057.26434	1.35677	0.0079
4055.76423	1.35654	0.00797
4054.26411	1.35647	0.00803
4052.764	1.35641	0.00799
4051.26389	1.35619	0.00794
4049.76378	1.35589	0.008
4048.26367	1.35575	0.00818
4046.76355	1.35577	0.00831
4045.26344	1.35588	0.00832
4043.76333	1.35592	0.00817
4042.26322	1.35575	0.00797
4040.76311	1.35545	0.00788
4039.263	1.35519	0.0079
4037.76288	1.35498	0.00796
4036.26277	1.3548	0.00804
4034.76266	1.35471	0.00812
4033.26255	1.35462	0.00816
4031.76244	1.35453	0.0082
4030.26232	1.3545	0.00819
4028.76221	1.35443	0.00811
4027.2621	1.35425	0.00802
4025.76199	1.35402	0.00797
4024.26188	1.35375	0.008
4022.76177	1.35356	0.00811
4021.26165	1.35348	0.00821
4019.76154	1.35343	0.00824
4018.26143	1.35337	0.00823
4016.76132	1.35328	0.00816
4015.26121	1.35311	0.00809
4013.76109	1.35288	0.00806
4012.26098	1.35266	0.00806
4010.76087	1.35244	0.0081
4009.26076	1.35221	0.00817
4007.76065	1.35199	0.0083
4006.26054	1.35186	0.00847
4004.76042	1.35189	0.00861
4003.26031	1.35199	0.00862
4001.7602	1.35196	0.00848
4000.26009	1.35174	0.00838
3998.75998	1.3515	0.0084
3997.25986	1.35136	0.00845
3995.75975	1.35125	0.00847
3994.25964	1.35114	0.00848
3992.75953	1.35106	0.00846
3991.25942	1.35092	0.00837
3989.75931	1.35061	0.00833
3988.25919	1.35027	0.00846
3986.75908	1.35013	0.00868
3985.25897	1.35022	0.00882
3983.75886	1.3503	0.00878
3982.25875	1.35022	0.00865
3980.75864	1.34999	0.00858
3979.25852	1.34981	0.0086
3977.75841	1.34971	0.0086
3976.2583	1.34957	0.00854
3974.75819	1.34934	0.00852
3973.25808	1.34915	0.00856
3971.75796	1.34901	0.00857
3970.25785	1.34882	0.00857
3968.75774	1.34858	0.00863
3967.25763	1.34842	0.00874
3965.75752	1.34836	0.00881
3964.25741	1.34828	0.00879
3962.75729	1.34808	0.00878
3961.25718	1.34786	0.00887
3959.75707	1.34778	0.009
3958.25696	1.34784	0.00904
3956.75685	1.34782	0.00895
3955.25673	1.3477	0.00882
3953.75662	1.34748	0.00869
3952.25651	1.34713	0.00864
3950.7564	1.3468	0.00871
3949.25629	1.34653	0.00886
3947.75618	1.34634	0.00907
3946.25606	1.34634	0.00928
3944.75595	1.34649	0.00932
3943.25584	1.34645	0.0092
3941.75573	1.34622	0.00916
3940.25562	1.3461	0.00922
3938.7555	1.34607	0.0092
3937.25539	1.34593	0.00915
3935.75528	1.34581	0.00914
3934.25517	1.34573	0.00906
3932.75506	1.34549	0.00896
3931.25495	1.34519	0.00899
3929.75483	1.34504	0.00908
3928.25472	1.34496	0.0091
3926.75461	1.34487	0.00905
3925.2545	1.34465	0.00897
3923.75439	1.3443	0.00901
3922.25427	1.34411	0.00917
3920.75416	1.34415	0.00928
3919.25405	1.34419	0.00919
3917.75394	1.344	0.009
3916.25383	1.34359	0.00893
3914.75372	1.34322	0.00907
3913.2536	1.34308	0.00928
3911.75349	1.34305	0.0094
3910.25338	1.343	0.00944
3908.75327	1.34292	0.00949
3907.25316	1.34292	0.00953
3905.75304	1.34299	0.00945
3904.25293	1.34296	0.00922
3902.75282	1.3427	0.00899
3901.25271	1.34232	0.00885
3899.7526	1.34188	0.00884
3898.25249	1.34148	0.00902
3896.75237	1.34133	0.00927
3895.25226	1.34138	0.00943
3893.75215	1.34152	0.00937
3892.25204	1.34142	0.00913
3890.75193	1.34096	0.00901
3889.25181	1.34066	0.00914
3887.7517	1.34072	0.00917
3886.25159	1.34048	0.00895
3884.75148	1.33985	0.009
3883.25137	1.33963	0.00932
3881.75126	1.33972	0.00944
3880.25114	1.33954	0.0094
3878.75103	1.33924	0.00955
3877.25092	1.33927	0.00976
3875.75081	1.33944	0.00973
3874.2507	1.33933	0.00958
3872.75058	1.33924	0.00954
3871.25047	1.33932	0.00931
3869.75036	1.33884	0.00893
3868.25025	1.33804	0.00905
3866.75014	1.33793	0.00948
3865.25003	1.3382	0.00952
3863.74991	1.33804	0.00929
3862.2498	1.3376	0.00924
3860.74969	1.33723	0.00942
3859.24958	1.33716	0.00973
3857.74947	1.33747	0.00987
3856.24935	1.33793	0.00957
3854.74924	1.33792	0.00882
3853.24913	1.33687	0.00826
3851.74902	1.33578	0.00849
3850.24891	1.33538	0.00903
3848.7488	1.3353	0.00949
3847.24868	1.33546	0.00981
3845.74857	1.33581	0.00985
3844.24846	1.33596	0.0096
3842.74835	1.33578	0.00933
3841.24824	1.33561	0.00914
3839.74812	1.33544	0.00886
3838.24801	1.33495	0.00863
3836.7479	1.33442	0.00864
3835.24779	1.33418	0.0087
3833.74768	1.33392	0.00862
3832.24757	1.33337	0.00862
3830.74745	1.3329	0.00887
3829.24734	1.33277	0.00916
3827.74723	1.33271	0.00931
3826.24712	1.33259	0.00946
3824.74701	1.33271	0.00961
3823.24689	1.33314	0.00942
3821.74678	1.3331	0.00877
3820.24667	1.33219	0.00838
3818.74656	1.33163	0.00856
3817.24645	1.33162	0.00854
3815.74634	1.3311	0.00827
3814.24622	1.33022	0.00842
3812.74611	1.32989	0.0089
3811.246	1.32996	0.0092
3809.74589	1.33009	0.00921
3808.24578	1.33	0.00897
3806.74566	1.32939	0.00886
3805.24555	1.32897	0.0092
3803.74544	1.3293	0.00939
3802.24533	1.32951	0.00897
3800.74522	1.32889	0.00854
3799.24511	1.32827	0.00853
3797.74499	1.32789	0.00852
3796.24488	1.32728	0.00855
3794.74477	1.32676	0.00884
3793.24466	1.32664	0.00912
3791.74455	1.32649	0.0092
3790.24444	1.32621	0.00928
3788.74432	1.326	0.00941
3787.24421	1.32587	0.00946
3785.7441	1.32561	0.00946
3784.24399	1.32529	0.00958
3782.74388	1.32521	0.00973
3781.24376	1.32529	0.00964
3779.74365	1.32502	0.00935
3778.24354	1.3244	0.00927
3776.74343	1.32397	0.00942
3775.24332	1.32369	0.00958
3773.74321	1.32347	0.00974
3772.24309	1.32346	0.00981
3770.74298	1.32336	0.00962
3769.24287	1.32283	0.00947
3767.74276	1.32234	0.00958
3766.24265	1.32206	0.00972
3764.74253	1.32175	0.00984
3763.24242	1.32155	0.01
3761.74231	1.32151	0.01002
3760.2422	1.32129	0.0099
3758.74209	1.32082	0.00984
3757.24198	1.32032	0.01
3755.74186	1.32006	0.01032
3754.24175	1.32022	0.01053
3752.74164	1.32048	0.01037
3751.24153	1.3204	0.00985
3749.74142	1.31959	0.00949
3748.2413	1.31886	0.00971
3746.74119	1.31894	0.00985
3745.24108	1.31881	0.00941
3743.74097	1.31767	0.00924
3742.24086	1.31691	0.00978
3740.74075	1.31696	0.01025
3739.24063	1.31715	0.01034
3737.74052	1.31728	0.01011
3736.24041	1.31705	0.00963
3734.7403	1.31624	0.0093
3733.24019	1.31547	0.00934
3731.74007	1.31493	0.00956
3730.23996	1.31461	0.0098
3728.73985	1.31456	0.00987
3727.23974	1.31433	0.00966
3725.73963	1.31378	0.00949
3724.23952	1.31321	0.00947
3722.7394	1.31275	0.00946
3721.23929	1.31214	0.00944
3719.73918	1.31143	0.00957
3718.23907	1.31082	0.00989
3716.73896	1.31047	0.0103
3715.23884	1.31046	0.01058
3713.73873	1.31053	0.01051
3712.23862	1.31026	0.0102
3710.73851	1.30959	0.00997
3709.2384	1.30885	0.00998
3707.73829	1.30819	0.01018
3706.23817	1.30778	0.01047
3704.73806	1.30766	0.01059
3703.23795	1.30744	0.01039
3701.73784	1.30671	0.01014
3700.23773	1.30576	0.01024
3698.73761	1.30509	0.01057
3697.2375	1.30458	0.01092
3695.73739	1.30418	0.01129
3694.23728	1.30404	0.01157
3692.73717	1.30402	0.01161
3691.23706	1.30391	0.01133
3689.73694	1.30331	0.01085
3688.23683	1.30204	0.01068
3686.73672	1.30092	0.0111
3685.23661	1.30041	0.01166
3683.7365	1.30009	0.01199
3682.23638	1.29968	0.01219
3680.73627	1.29922	0.01239
3679.23616	1.29879	0.01261
3677.73605	1.29863	0.01271
3676.23594	1.29824	0.01243
3674.73583	1.29706	0.01234
3673.23571	1.29621	0.01279
3671.7356	1.29595	0.01306
3670.23549	1.29529	0.01297
3668.73538	1.29412	0.01315
3667.23527	1.29322	0.01373
3665.73515	1.29268	0.01431
3664.23504	1.29222	0.01476
3662.73493	1.29172	0.01514
3661.23482	1.29119	0.01551
3659.73471	1.29069	0.0159
3658.2346	1.29026	0.01623
3656.73448	1.28965	0.01649
3655.23437	1.28888	0.01695
3653.73426	1.28847	0.0176
3652.23415	1.28846	0.018
3650.73404	1.28831	0.01798
3649.23392	1.28763	0.01784
3647.73381	1.28657	0.01791
3646.2337	1.28544	0.01835
3644.73359	1.28462	0.01904
3643.23348	1.28403	0.0197
3641.73337	1.28345	0.02032
3640.23325	1.28292	0.02096
3638.73314	1.28251	0.02157
3637.23303	1.28214	0.02209
3635.73292	1.28174	0.02252
3634.23281	1.28118	0.02293
3632.73269	1.28061	0.02347
3631.23258	1.28027	0.02395
3629.73247	1.27976	0.0242
3628.23236	1.2787	0.02463
3626.73225	1.27781	0.02555
3625.23214	1.27744	0.02654
3623.73202	1.27725	0.02738
3622.23191	1.27721	0.02805
3620.7318	1.27716	0.02843
3619.23169	1.27663	0.02868
3617.73158	1.27589	0.02923
3616.23146	1.27554	0.02995
3614.73135	1.27532	0.03047
3613.23124	1.2748	0.03088
3611.73113	1.27415	0.03146
3610.23102	1.27369	0.03216
3608.73091	1.27324	0.03283
3607.23079	1.27277	0.03354
3605.73068	1.2724	0.03428
3604.23057	1.27204	0.035
3602.73046	1.27172	0.03576
3601.23035	1.27153	0.03648
3599.73024	1.27136	0.03709
3598.23012	1.2711	0.03762
3596.73001	1.27069	0.03813
3595.2299	1.27015	0.03876
3593.72979	1.26964	0.03956
3592.22968	1.26935	0.04047
3590.72956	1.26928	0.04132
3589.22945	1.26928	0.04197
3587.72934	1.26904	0.0425
3586.22923	1.26867	0.04315
3584.72912	1.2685	0.04385
3583.22901	1.26826	0.04445
3581.72889	1.26789	0.04513
3580.22878	1.26763	0.04591
3578.72867	1.26746	0.04667
3577.22856	1.26731	0.04739
3575.72845	1.26718	0.0481
3574.22833	1.26701	0.04877
3572.72822	1.26678	0.04947
3571.22811	1.26662	0.05026
3569.728	1.26668	0.05103
3568.22789	1.26675	0.05158
3566.72778	1.2665	0.05202
3565.22766	1.26608	0.05268
3563.72755	1.26587	0.05352
3562.22744	1.26588	0.05431
3560.72733	1.26582	0.05497
3559.22722	1.26563	0.05565
3557.7271	1.26551	0.05644
3556.22699	1.26556	0.05724
3554.72688	1.26569	0.0579
3553.22677	1.2657	0.05845
3551.72666	1.26562	0.05901
3550.22655	1.26551	0.05959
3548.72643	1.26534	0.0602
3547.22632	1.26516	0.06089
3545.72621	1.26508	0.06164
3544.2261	1.26504	0.06238
3542.72599	1.26503	0.06312
3541.22587	1.26509	0.06385
3539.72576	1.26518	0.06449
3538.22565	1.26517	0.06509
3536.72554	1.26511	0.06572
3535.22543	1.26502	0.06642
3533.72532	1.265	0.06721
3532.2252	1.26523	0.06801
3530.72509	1.26551	0.06863
3529.22498	1.26564	0.06911
3527.72487	1.26564	0.06961
3526.22476	1.26564	0.07017
3524.72464	1.26568	0.07075
3523.22453	1.26568	0.07129
3521.72442	1.26564	0.07187
3520.22431	1.26558	0.07249
3518.7242	1.26556	0.07317
3517.22409	1.26564	0.07387
3515.72397	1.26577	0.07451
3514.22386	1.26583	0.0751
3512.72375	1.26586	0.07571
3511.22364	1.26587	0.07635
3509.72353	1.26589	0.07705
3508.22341	1.26602	0.07781
3506.7233	1.26631	0.07852
3505.22319	1.26665	0.07907
3503.72308	1.26676	0.0795
3502.22297	1.26676	0.08004
3500.72286	1.2669	0.08066
3499.22274	1.26706	0.08121
3497.72263	1.26712	0.08176
3496.22252	1.26721	0.08238
3494.72241	1.26737	0.083
3493.2223	1.26753	0.0836
3491.72218	1.26771	0.08422
3490.22207	1.26802	0.08483
3488.72196	1.26835	0.08529
3487.22185	1.26848	0.08565
3485.72174	1.26848	0.0861
3484.22163	1.2686	0.08667
3482.72151	1.26874	0.08719
3481.2214	1.26881	0.08772
3479.72129	1.26894	0.08833
3478.22118	1.26921	0.08893
3476.72107	1.26951	0.08941
3475.22095	1.26961	0.08978
3473.72084	1.2696	0.09028
3472.22073	1.26972	0.0909
3470.72062	1.2699	0.09149
3469.22051	1.27012	0.09208
3467.7204	1.27039	0.09265
3466.22028	1.27068	0.09316
3464.72017	1.27093	0.0936
3463.22006	1.2711	0.09403
3461.71995	1.27123	0.0945
3460.21984	1.27139	0.09503
3458.71972	1.27163	0.09557
3457.21961	1.27188	0.09607
3455.7195	1.27212	0.09655
3454.21939	1.27239	0.097
3452.71928	1.27258	0.0974
3451.21917	1.27269	0.09786
3449.71905	1.27289	0.09841
3448.21894	1.27321	0.09892
3446.71883	1.27349	0.09933
3445.21872	1.27367	0.09972
3443.71861	1.27385	0.10016
3442.21849	1.27401	0.10061
3440.71838	1.27416	0.10111
3439.21827	1.27436	0.10164
3437.71816	1.27462	0.1022
3436.21805	1.27497	0.10275
3434.71794	1.27534	0.10321
3433.21782	1.27569	0.10362
3431.71771	1.27603	0.104
3430.2176	1.2763	0.10435
3428.71749	1.27657	0.10472
3427.21738	1.27683	0.10507
3425.71726	1.27703	0.10542
3424.21715	1.2772	0.10582
3422.71704	1.27741	0.1063
3421.21693	1.27776	0.1068
3419.71682	1.27815	0.10719
3418.21671	1.27846	0.10752
3416.71659	1.27875	0.10787
3415.21648	1.27906	0.10821
3413.71637	1.27934	0.10851
3412.21626	1.27955	0.10881
3410.71615	1.27978	0.10918
3409.21604	1.28006	0.10956
3407.71592	1.2804	0.10991
3406.21581	1.28067	0.11018
3404.7157	1.28086	0.11048
3403.21559	1.28111	0.11084
3401.71548	1.28134	0.11117
3400.21536	1.28157	0.11155
3398.71525	1.28187	0.11195
3397.21514	1.28223	0.11232
3395.71503	1.2826	0.11263
3394.21492	1.28296	0.11288
3392.71481	1.28323	0.11307
3391.21469	1.2834	0.1133
3389.71458	1.28363	0.11363
3388.21447	1.28394	0.11394
3386.71436	1.2842	0.11418
3385.21425	1.28439	0.11445
3383.71413	1.28467	0.11481
3382.21402	1.28505	0.11512
3380.71391	1.28543	0.11532
3379.2138	1.28566	0.11545
3377.71369	1.28578	0.11566
3376.21358	1.28608	0.11598
3374.71346	1.28641	0.11618
3373.21335	1.28657	0.11631
3371.71324	1.2867	0.11656
3370.21313	1.28697	0.11687
3368.71302	1.28731	0.11711
3367.2129	1.28755	0.11722
3365.71279	1.28765	0.11737
3364.21268	1.28777	0.11761
3362.71257	1.28794	0.11788
3361.21246	1.2881	0.11815
3359.71235	1.28828	0.11845
3358.21223	1.2885	0.11879
3356.71212	1.28881	0.11912
3355.21201	1.2892	0.11939
3353.7119	1.28958	0.11954
3352.21179	1.28982	0.11959
3350.71167	1.28994	0.1197
3349.21156	1.29012	0.1199
3347.71145	1.29034	0.12007
3346.21134	1.29047	0.1202
3344.71123	1.29058	0.1204
3343.21112	1.29078	0.12063
3341.711	1.29097	0.12081
3340.21089	1.2911	0.12099
3338.71078	1.29123	0.12121
3337.21067	1.29141	0.12144
3335.71056	1.2916	0.12165
3334.21044	1.29177	0.12185
3332.71033	1.29194	0.12206
3331.21022	1.29214	0.12227
3329.71011	1.29233	0.12245
3328.21	1.29252	0.12262
3326.70989	1.29267	0.12277
3325.20977	1.29279	0.12294
3323.70966	1.29295	0.12315
3322.20955	1.29317	0.12333
3320.70944	1.29334	0.12342
3319.20933	1.29338	0.1235
3317.70921	1.29338	0.12366
3316.2091	1.2934	0.1239
3314.70899	1.29348	0.12417
3313.20888	1.29361	0.12445
3311.70877	1.29379	0.12471
3310.20866	1.29396	0.12493
3308.70854	1.29414	0.12512
3307.20843	1.29426	0.12527
3305.70832	1.29434	0.12544
3304.20821	1.29439	0.12565
3302.7081	1.29448	0.12591
3301.20798	1.29466	0.12615
3299.70787	1.29481	0.12631
3298.20776	1.29482	0.12646
3296.70765	1.29483	0.12673
3295.20754	1.29496	0.12705
3293.70743	1.29515	0.12734
3292.20731	1.29539	0.12758
3290.7072	1.29561	0.12771
3289.20709	1.29569	0.12777
3287.70698	1.29562	0.12788
3286.20687	1.29557	0.12815
3284.70675	1.29565	0.12848
3283.20664	1.29578	0.12877
3281.70653	1.2959	0.12903
3280.20642	1.29604	0.12929
3278.70631	1.29617	0.12951
3277.2062	1.29626	0.12974
3275.70608	1.29642	0.12999
3274.20597	1.29656	0.13016
3272.70586	1.29659	0.13032
3271.20575	1.2966	0.13055
3269.70564	1.29666	0.13083
3268.20552	1.29675	0.13109
3266.70541	1.29681	0.13135
3265.2053	1.2969	0.13165
3263.70519	1.29704	0.13192
3262.20508	1.29713	0.13215
3260.70497	1.2972	0.1324
3259.20485	1.29726	0.13266
3257.70474	1.29733	0.13298
3256.20463	1.2975	0.1333
3254.70452	1.29765	0.13353
3253.20441	1.29771	0.13375
3251.70429	1.29778	0.13404
3250.20418	1.29793	0.13434
3248.70407	1.29809	0.13459
3247.20396	1.29819	0.13479
3245.70385	1.29824	0.13501
3244.20374	1.29825	0.13527
3242.70362	1.29832	0.13558
3241.20351	1.29837	0.13589
3239.7034	1.29846	0.13624
3238.20329	1.29861	0.1366
3236.70318	1.29878	0.13692
3235.20306	1.29893	0.1372
3233.70295	1.29909	0.1375
3232.20284	1.29929	0.13776
3230.70273	1.29945	0.13797
3229.20262	1.29951	0.13816
3227.70251	1.29953	0.1384
3226.20239	1.29956	0.13872
3224.70228	1.29968	0.13909
3223.20217	1.29985	0.13941
3221.70206	1.29998	0.13971
3220.20195	1.30015	0.14003
3218.70183	1.30032	0.14028
3217.20172	1.30041	0.14053
3215.70161	1.3005	0.14084
3214.2015	1.30067	0.14118
3212.70139	1.30091	0.14147
3211.20128	1.30107	0.14165
3209.70116	1.30113	0.14184
3208.20105	1.30116	0.14211
3206.70094	1.30122	0.14242
3205.20083	1.30133	0.14276
3203.70072	1.30144	0.14306
3202.20061	1.30149	0.14339
3200.70049	1.30159	0.1438
3199.20038	1.30183	0.14422
3197.70027	1.3021	0.14455
3196.20016	1.30232	0.14482
3194.70005	1.30252	0.14509
3193.19993	1.30277	0.14535
3191.69982	1.30296	0.14551
3190.19971	1.30303	0.14569
3188.6996	1.30314	0.14596
3187.19949	1.30328	0.14619
3185.69938	1.30332	0.14638
3184.19926	1.3033	0.14665
3182.69915	1.3033	0.14701
3181.19904	1.30339	0.14744
3179.69893	1.30361	0.14786
3178.19882	1.30385	0.14819
3176.6987	1.30401	0.14843
3175.19859	1.30404	0.1487
3173.69848	1.3041	0.1491
3172.19837	1.30432	0.14957
3170.69826	1.30464	0.14994
3169.19815	1.30489	0.15019
3167.69803	1.30507	0.15043
3166.19792	1.30522	0.15068
3164.69781	1.30536	0.15094
3163.1977	1.30547	0.15121
3161.69759	1.30553	0.15153
3160.19747	1.30566	0.15192
3158.69736	1.3059	0.15231
3157.19725	1.30615	0.15261
3155.69714	1.30629	0.15285
3154.19703	1.30634	0.15316
3152.69692	1.30652	0.15356
3151.1968	1.30676	0.15391
3149.69669	1.30694	0.15421
3148.19658	1.30709	0.15453
3146.69647	1.30727	0.15488
3145.19636	1.30746	0.15523
3143.69624	1.30765	0.15559
3142.19613	1.30787	0.15595
3140.69602	1.30814	0.15632
3139.19591	1.30844	0.15663
3137.6958	1.3087	0.15688
3136.19569	1.30888	0.15709
3134.69557	1.30899	0.15734
3133.19546	1.30911	0.15767
3131.69535	1.3093	0.15804
3130.19524	1.30952	0.15837
3128.69513	1.30971	0.1587
3127.19501	1.30989	0.15902
3125.6949	1.31005	0.15938
3124.19479	1.31026	0.15978
3122.69468	1.31053	0.16017
3121.19457	1.31082	0.16054
3119.69446	1.31116	0.16088
3118.19434	1.3115	0.16113
3116.69423	1.31171	0.16131
3115.19412	1.3118	0.16155
3113.69401	1.31193	0.16194
3112.1939	1.31222	0.16238
3110.69378	1.31257	0.16272
3109.19367	1.31284	0.16299
3107.69356	1.31311	0.16327
3106.19345	1.31335	0.16352
3104.69334	1.31354	0.16379
3103.19323	1.31371	0.16411
3101.69311	1.31397	0.16449
3100.193	1.31431	0.16482
3098.69289	1.31457	0.16505
3097.19278	1.31472	0.1653
3095.69267	1.31489	0.16564
3094.19255	1.31511	0.16603
3092.69244	1.31542	0.16644
3091.19233	1.31578	0.16679
3089.69222	1.31609	0.16705
3088.19211	1.31633	0.16732
3086.692	1.31654	0.16764
3085.19188	1.31684	0.16802
3083.69177	1.3172	0.16837
3082.19166	1.31752	0.16865
3080.69155	1.31785	0.16895
3079.19144	1.31825	0.16922
3077.69132	1.31856	0.1694
3076.19121	1.31877	0.16959
3074.6911	1.31897	0.16984
3073.19099	1.31919	0.17014
3071.69088	1.31943	0.17046
3070.19077	1.31969	0.17079
3068.69065	1.32002	0.17115
3067.19054	1.32039	0.17145
3065.69043	1.3207	0.17167
3064.19032	1.32097	0.1719
3062.69021	1.32119	0.17214
3061.19009	1.32135	0.17243
3059.68998	1.3216	0.17285
3058.18987	1.32199	0.17326
3056.68976	1.32242	0.17357
3055.18965	1.32277	0.17378
3053.68954	1.32304	0.17399
3052.18942	1.32327	0.17426
3050.68931	1.32352	0.17458
3049.1892	1.32382	0.17494
3047.68909	1.32418	0.17531
3046.18898	1.32458	0.17563
3044.68886	1.32495	0.17591
3043.18875	1.32531	0.1762
3041.68864	1.32573	0.17648
3040.18853	1.32613	0.17669
3038.68842	1.32642	0.17685
3037.18831	1.3267	0.17711
3035.68819	1.32706	0.17738
3034.18808	1.32739	0.17761
3032.68797	1.32766	0.17783
3031.18786	1.32793	0.1781
3029.68775	1.32823	0.17841
3028.18763	1.32854	0.17873
3026.68752	1.32893	0.17907
3025.18741	1.32934	0.17933
3023.6873	1.32962	0.17955
3022.18719	1.32986	0.17987
3020.68708	1.33026	0.18032
3019.18696	1.33083	0.1807
3017.68685	1.33135	0.18092
3016.18674	1.33178	0.1811
3014.68663	1.33221	0.18129
3013.18652	1.33264	0.18148
3011.68641	1.33304	0.18161
3010.18629	1.33333	0.18172
3008.68618	1.33356	0.18194
3007.18607	1.33389	0.18225
3005.68596	1.33429	0.18256
3004.18585	1.33473	0.18282
3002.68573	1.33514	0.18303
3001.18562	1.33551	0.18325
2999.68551	1.33589	0.18349
2998.1854	1.3363	0.18375
2996.68529	1.33677	0.18401
2995.18518	1.33725	0.18422
2993.68506	1.3377	0.18436
2992.18495	1.33808	0.18449
2990.68484	1.33841	0.18466
2989.18473	1.33876	0.18488
2987.68462	1.33917	0.18513
2986.1845	1.33962	0.18536
2984.68439	1.34007	0.18556
2983.18428	1.34051	0.18574
2981.68417	1.34094	0.18591
2980.18406	1.34138	0.18607
2978.68395	1.34181	0.18621
2977.18383	1.34222	0.18635
2975.68372	1.34259	0.18647
2974.18361	1.34296	0.18664
2972.6835	1.34337	0.18682
2971.18339	1.34376	0.18696
2969.68327	1.3441	0.18713
2968.18316	1.34447	0.18735
2966.68305	1.3449	0.18758
2965.18294	1.34534	0.18779
2963.68283	1.34581	0.18799
2962.18272	1.34629	0.18815
2960.6826	1.3467	0.18828
2959.18249	1.3471	0.18844
2957.68238	1.34751	0.18864
2956.18227	1.348	0.18889
2954.68216	1.34862	0.18909
2953.18204	1.34918	0.18911
2951.68193	1.34955	0.18908
2950.18182	1.34981	0.18917
2948.68171	1.35019	0.18941
2947.1816	1.35072	0.18965
2945.68149	1.35125	0.18979
2944.18137	1.35175	0.18987
2942.68126	1.35217	0.18992
2941.18115	1.35252	0.19003
2939.68104	1.35294	0.19024
2938.18093	1.35345	0.19046
2936.68081	1.35399	0.19063
2935.1807	1.35452	0.19077
2933.68059	1.35506	0.19093
2932.18048	1.35569	0.19108
2930.68037	1.35638	0.19113
2929.18026	1.35697	0.19107
2927.68014	1.35744	0.19099
2926.18003	1.35787	0.19099
2924.67992	1.35837	0.19105
2923.17981	1.35892	0.19109
2921.6797	1.35946	0.19109
2920.17958	1.36004	0.19111
2918.67947	1.3607	0.19107
2917.17936	1.36136	0.19088
2915.67925	1.36188	0.19055
2914.17914	1.36214	0.19017
2912.67903	1.36222	0.18994
2911.17891	1.36234	0.18995
2909.6788	1.36264	0.19006
2908.17869	1.363	0.19013
2906.67858	1.36334	0.19017
2905.17847	1.3637	0.19025
2903.67835	1.36416	0.19033
2902.17824	1.36462	0.19033
2900.67813	1.36502	0.1903
2899.17802	1.36537	0.19027
2897.67791	1.36571	0.1903
2896.1778	1.36617	0.19039
2894.67768	1.36668	0.19039
2893.17757	1.36708	0.19029
2891.67746	1.3674	0.19024
2890.17735	1.36781	0.19029
2888.67724	1.36829	0.19027
2887.17712	1.36867	0.19014
2885.67701	1.36888	0.19006
2884.1769	1.36915	0.19015
2882.67679	1.36954	0.19028
2881.17668	1.37	0.1904
2879.67657	1.37052	0.19046
2878.17645	1.37101	0.19046
2876.67634	1.37146	0.19046
2875.17623	1.37199	0.1905
2873.67612	1.37262	0.19046
2872.17601	1.37313	0.19026
2870.67589	1.37346	0.19004
2869.17578	1.37375	0.18995
2867.67567	1.37412	0.18996
2866.17556	1.37459	0.18995
2864.67545	1.37499	0.18987
2863.17534	1.37533	0.18984
2861.67522	1.37579	0.18991
2860.17511	1.37639	0.18993
2858.675	1.37694	0.18982
2857.17489	1.37743	0.18969
2855.67478	1.37798	0.18957
2854.17466	1.3785	0.18938
2852.67455	1.37895	0.18916
2851.17444	1.37943	0.18897
2849.67433	1.37997	0.18871
2848.17422	1.38038	0.18832
2846.67411	1.38056	0.18791
2845.17399	1.38064	0.18768
2843.67388	1.38082	0.1876
2842.17377	1.38107	0.18757
2840.67366	1.38141	0.18758
2839.17355	1.3819	0.18755
2837.67343	1.38232	0.18735
2836.17332	1.38258	0.18713
2834.67321	1.38287	0.18703
2833.1731	1.38324	0.18695
2831.67299	1.38359	0.18682
2830.17288	1.38393	0.18668
2828.67276	1.3843	0.18655
2827.17265	1.38463	0.18637
2825.67254	1.38488	0.18622
2824.17243	1.38518	0.18614
2822.67232	1.38553	0.18608
2821.17221	1.38592	0.18599
2819.67209	1.3863	0.18586
2818.17198	1.38665	0.18573
2816.67187	1.387	0.18562
2815.17176	1.38739	0.18553
2813.67165	1.38783	0.18543
2812.17153	1.38831	0.18526
2810.67142	1.38875	0.18502
2809.17131	1.38908	0.18476
2807.6712	1.38941	0.18455
2806.17109	1.38979	0.18435
2804.67098	1.39014	0.18409
2803.17086	1.39038	0.18383
2801.67075	1.39063	0.18367
2800.17064	1.39099	0.18357
2798.67053	1.3914	0.18341
2797.17042	1.39179	0.18319
2795.6703	1.39214	0.18296
2794.17019	1.39251	0.18274
2792.67008	1.39293	0.18251
2791.16997	1.3933	0.18219
2789.66986	1.3936	0.18188
2788.16975	1.39394	0.18161
2786.66963	1.39431	0.18128
2785.16952	1.39458	0.18088
2783.66941	1.39474	0.1805
2782.1693	1.39484	0.1802
2780.66919	1.395	0.18001
2779.16907	1.39525	0.17986
2777.66896	1.39559	0.17969
2776.16885	1.39597	0.17943
2774.66874	1.39626	0.17908
2773.16863	1.39649	0.17874
2771.66852	1.39675	0.17843
2770.1684	1.39699	0.17806
2768.66829	1.3971	0.17765
2767.16818	1.39712	0.17733
2765.66807	1.39718	0.17715
2764.16796	1.3974	0.17702
2762.66784	1.39771	0.17683
2761.16773	1.39799	0.17653
2759.66762	1.3982	0.17618
2758.16751	1.39834	0.17582
2756.6674	1.39844	0.1755
2755.16729	1.39852	0.17523
2753.66717	1.39862	0.17499
2752.16706	1.39878	0.17478
2750.66695	1.39895	0.17453
2749.16684	1.3991	0.17427
2747.66673	1.39929	0.17403
2746.16661	1.39948	0.17371
2744.6665	1.39958	0.17335
2743.16639	1.3996	0.173
2741.66628	1.39955	0.17273
2740.16617	1.39955	0.17257
2738.66606	1.3997	0.17245
2737.16594	1.39986	0.17222
2735.66583	1.39994	0.17195
2734.16572	1.39999	0.17174
2732.66561	1.40009	0.17154
2731.1655	1.40018	0.17132
2729.66538	1.40024	0.17112
2728.16527	1.40036	0.17096
2726.66516	1.40053	0.17075
2725.16505	1.40065	0.17048
2723.66494	1.40071	0.1702
2722.16483	1.40076	0.16995
2720.66471	1.40079	0.1697
2719.1646	1.40078	0.16948
2717.66449	1.40081	0.16932
2716.16438	1.4009	0.16915
2714.66427	1.40094	0.16893
2713.16415	1.40094	0.16876
2711.66404	1.40101	0.16863
2710.16393	1.40113	0.16845
2708.66382	1.40118	0.16824
2707.16371	1.40122	0.16805
2705.6636	1.40128	0.16788
2704.16348	1.40133	0.16768
2702.66337	1.40135	0.16748
2701.16326	1.40136	0.16731
2699.66315	1.40139	0.16717
2698.16304	1.40143	0.16702
2696.66292	1.40148	0.16688
2695.16281	1.40153	0.16674
2693.6627	1.40159	0.1666
2692.16259	1.40166	0.16645
2690.66248	1.40172	0.1663
2689.16237	1.4018	0.16616
2687.66225	1.40188	0.16599
2686.16214	1.40192	0.16582
2684.66203	1.40197	0.16568
2683.16192	1.40209	0.16554
2681.66181	1.40222	0.16536
2680.16169	1.40235	0.16511
2678.66158	1.40234	0.16479
2677.16147	1.40219	0.16457
2675.66136	1.40217	0.1645
2674.16125	1.40232	0.16439
2672.66114	1.40237	0.16414
2671.16102	1.4023	0.16391
2669.66091	1.40227	0.16378
2668.1608	1.40233	0.16365
2666.66069	1.40234	0.16343
2665.16058	1.40225	0.16323
2663.66046	1.40216	0.16311
2662.16035	1.40215	0.16304
2660.66024	1.40221	0.16295
2659.16013	1.40227	0.16281
2657.66002	1.4023	0.16262
2656.15991	1.40229	0.1624
2654.65979	1.40218	0.1622
2653.15968	1.40205	0.16208
2651.65957	1.402	0.16202
2650.15946	1.40203	0.16194
2648.65935	1.40203	0.16179
2647.15923	1.40193	0.16163
2645.65912	1.40181	0.16154
2644.15901	1.40176	0.16152
2642.6589	1.40177	0.16147
2641.15879	1.40177	0.16139
2639.65868	1.40176	0.16131
2638.15856	1.40175	0.16121
2636.65845	1.40172	0.16111
2635.15834	1.40168	0.16101
2633.65823	1.40163	0.16092
2632.15812	1.40156	0.16083
2630.658	1.40147	0.16076
2629.15789	1.40139	0.16072
2627.65778	1.40135	0.16071
2626.15767	1.40134	0.16068
2624.65756	1.40133	0.16062
2623.15745	1.40122	0.16052
2621.65733	1.40102	0.16051
2620.15722	1.40095	0.16066
2618.65711	1.40105	0.16078
2617.157	1.40118	0.16077
2615.65689	1.40119	0.16069
2614.15678	1.40112	0.16064
2612.65666	1.40108	0.16067
2611.15655	1.40111	0.16071
2609.65644	1.40115	0.16072
2608.15633	1.40119	0.16071
2606.65622	1.40121	0.16068
2605.1561	1.40118	0.16065
2603.65599	1.40114	0.16066
2602.15588	1.40112	0.16071
2600.65577	1.40114	0.16077
2599.15566	1.40117	0.16083
2597.65555	1.40123	0.1609
2596.15543	1.40133	0.16095
2594.65532	1.40141	0.16097
2593.15521	1.40147	0.16099
2591.6551	1.40157	0.16102
2590.15499	1.40169	0.16103
2588.65487	1.40176	0.16098
2587.15476	1.40174	0.16096
2585.65465	1.40176	0.16105
2584.15454	1.40196	0.16116
2582.65443	1.40219	0.16113
2581.15432	1.40224	0.16101
2579.6542	1.40223	0.16098
2578.15409	1.40231	0.16102
2576.65398	1.4024	0.16104
2575.15387	1.40248	0.16106
2573.65376	1.40263	0.16111
2572.15364	1.40285	0.16112
2570.65353	1.403	0.16103
2569.15342	1.40307	0.16094
2567.65331	1.40313	0.1609
2566.1532	1.40321	0.1609
2564.65309	1.40335	0.16091
2563.15297	1.40352	0.16088
2561.65286	1.40365	0.16082
2560.15275	1.4038	0.16076
2558.65264	1.40395	0.16065
2557.15253	1.40401	0.16053
2555.65241	1.40405	0.16047
2554.1523	1.40416	0.16044
2552.65219	1.40431	0.16039
2551.15208	1.40444	0.16029
2549.65197	1.40454	0.16018
2548.15186	1.40463	0.16007
2546.65174	1.4047	0.15995
2545.15163	1.40474	0.15984
2543.65152	1.40478	0.15974
2542.15141	1.40478	0.15965
2540.6513	1.40479	0.15961
2539.15118	1.40485	0.1596
2537.65107	1.40495	0.15956
2536.15096	1.40502	0.1595
2534.65085	1.40511	0.15945
2533.15074	1.40519	0.15939
2531.65063	1.40528	0.15933
2530.15051	1.4054	0.15926
2528.6504	1.40551	0.15913
2527.15029	1.40556	0.15898
2525.65018	1.40553	0.15884
2524.15007	1.40548	0.15876
2522.64995	1.40548	0.15875
2521.14984	1.40552	0.15873
2519.64973	1.40556	0.15869
2518.14962	1.40556	0.15865
2516.64951	1.40557	0.15865
2515.1494	1.40563	0.15867
2513.64928	1.40573	0.15867
2512.14917	1.40581	0.15866
2510.64906	1.40589	0.15862
2509.14895	1.40595	0.15859
2507.64884	1.406	0.15857
2506.14872	1.40607	0.15859
2504.64861	1.40622	0.15861
2503.1485	1.40636	0.15856
2501.64839	1.40641	0.1585
2500.14828	1.40648	0.15851
2498.64817	1.40665	0.15854
2497.14805	1.40685	0.1585
2495.64794	1.40701	0.1584
2494.14783	1.4071	0.15828
2492.64772	1.40716	0.1582
2491.14761	1.40725	0.15816
2489.64749	1.40736	0.15811
2488.14738	1.40747	0.15806
2486.64727	1.4076	0.158
2485.14716	1.40771	0.15793
2483.64705	1.40781	0.15786
2482.14694	1.4079	0.15782
2480.64682	1.40804	0.1578
2479.14671	1.40824	0.15775
2477.6466	1.4084	0.15763
2476.14649	1.40849	0.15752
2474.64638	1.4086	0.15748
2473.14626	1.4088	0.15743
2471.64615	1.40902	0.15731
2470.14604	1.40916	0.15715
2468.64593	1.40927	0.15702
2467.14582	1.40942	0.15691
2465.64571	1.40957	0.15678
2464.14559	1.40972	0.15663
2462.64548	1.40986	0.15649
2461.14537	1.41003	0.15635
2459.64526	1.41023	0.15616
2458.14515	1.41035	0.15591
2456.64503	1.41036	0.15567
2455.14492	1.41038	0.15553
2453.64481	1.4105	0.15543
2452.1447	1.41067	0.15529
2450.64459	1.41082	0.15509
2449.14448	1.41093	0.15485
2447.64436	1.411	0.15462
2446.14425	1.41104	0.15442
2444.64414	1.41113	0.15426
2443.14403	1.41128	0.15405
2441.64392	1.41136	0.15377
2440.1438	1.41136	0.15351
2438.64369	1.41138	0.15331
2437.14358	1.41143	0.15311
2435.64347	1.41148	0.15288
2434.14336	1.4115	0.15266
2432.64325	1.41155	0.15245
2431.14313	1.41164	0.1522
2429.64302	1.41162	0.15188
2428.14291	1.41151	0.15163
2426.6428	1.4115	0.15147
2425.14269	1.41157	0.15125
2423.64258	1.41153	0.15096
2422.14246	1.41145	0.15071
2420.64235	1.41141	0.15049
2419.14224	1.41134	0.15024
2417.64213	1.41121	0.15001
2416.14202	1.4111	0.14984
2414.6419	1.41104	0.14969
2413.14179	1.411	0.14951
2411.64168	1.41095	0.14932
2410.14157	1.41088	0.14912
2408.64146	1.41083	0.14892
2407.14135	1.41076	0.14869
2405.64123	1.41062	0.14846
2404.14112	1.41047	0.14826
2402.64101	1.41029	0.14808
2401.1409	1.4101	0.14796
2399.64079	1.40999	0.14789
2398.14067	1.40994	0.14779
2396.64056	1.40987	0.14765
2395.14045	1.40976	0.14749
2393.64034	1.40966	0.14736
2392.14023	1.40958	0.14721
2390.64012	1.40945	0.14702
2389.14	1.40923	0.14685
2387.63989	1.40899	0.14676
2386.13978	1.40877	0.14673
2384.63967	1.40859	0.14676
2383.13956	1.4085	0.14683
2381.63944	1.40847	0.14688
2380.13933	1.40846	0.14692
2378.63922	1.40856	0.14697
2377.13911	1.40874	0.14691
2375.639	1.40883	0.14672
2374.13889	1.4088	0.14652
2372.63877	1.40876	0.14638
2371.13866	1.40878	0.14628
2369.63855	1.40885	0.14614
2368.13844	1.40897	0.14594
2366.63833	1.40902	0.14562
2365.13821	1.4089	0.14527
2363.6381	1.40877	0.14499
2362.13799	1.40856	0.14472
2360.63788	1.40827	0.14459
2359.13777	1.40834	0.14461
2357.63766	1.40862	0.14435
2356.13754	1.40859	0.14372
2354.63743	1.40804	0.1431
2353.13732	1.4073	0.14282
2351.63721	1.40668	0.14286
2350.1371	1.40628	0.14311
2348.63698	1.40617	0.14342
2347.13687	1.40633	0.14363
2345.63676	1.40655	0.14361
2344.13665	1.40675	0.1434
2342.63654	1.4068	0.14301
2341.13643	1.40661	0.14257
2339.63631	1.40624	0.14219
2338.1362	1.40576	0.14199
2336.63609	1.40536	0.142
2335.13598	1.40528	0.14211
2333.63587	1.40545	0.14202
2332.13575	1.4054	0.14159
2330.63564	1.40494	0.14111
2329.13553	1.40433	0.1409
2327.63542	1.40389	0.14089
2326.13531	1.40357	0.14089
2324.6352	1.40326	0.14086
2323.13508	1.40298	0.14081
2321.63497	1.40264	0.14071
2320.13486	1.40219	0.14066
2318.63475	1.40174	0.14073
2317.13464	1.40144	0.14088
2315.63452	1.40126	0.14098
2314.13441	1.40104	0.14099
2312.6343	1.40074	0.14095
2311.13419	1.40038	0.14095
2309.63408	1.39999	0.14099
2308.13397	1.39959	0.1411
2306.63385	1.39919	0.14127
2305.13374	1.39888	0.14153
2303.63363	1.39871	0.14179
2302.13352	1.39858	0.14196
2300.63341	1.39842	0.14207
2299.13329	1.39818	0.14214
2297.63318	1.39786	0.14227
2296.13307	1.3976	0.1425
2294.63296	1.39745	0.14273
2293.13285	1.39733	0.14291
2291.63274	1.39718	0.14303
2290.13262	1.39695	0.14315
2288.63251	1.3967	0.14333
2287.1324	1.3965	0.14355
2285.63229	1.39632	0.14377
2284.13218	1.39613	0.14401
2282.63206	1.396	0.14428
2281.13195	1.39592	0.14454
2279.63184	1.39585	0.14477
2278.13173	1.39578	0.14499
2276.63162	1.39577	0.1452
2275.13151	1.3957	0.14533
2273.63139	1.39555	0.14548
2272.13128	1.39539	0.14571
2270.63117	1.39532	0.14598
2269.13106	1.39528	0.14624
2267.63095	1.3953	0.14649
2266.13083	1.39533	0.1467
2264.63072	1.39534	0.14688
2263.13061	1.39534	0.14704
2261.6305	1.39526	0.1472
2260.13039	1.39522	0.14743
2258.63028	1.39526	0.14767
2257.13016	1.39532	0.14787
2255.63005	1.39537	0.14805
2254.12994	1.3954	0.1482
2252.62983	1.39542	0.14838
2251.12972	1.39548	0.14858
2249.6296	1.39555	0.14876
2248.12949	1.39567	0.14895
2246.62938	1.39581	0.14907
2245.12927	1.39591	0.14915
2243.62916	1.39596	0.14922
2242.12905	1.39598	0.14932
2240.62893	1.39601	0.14946
2239.12882	1.39611	0.14963
2237.62871	1.39628	0.14975
2236.1286	1.39641	0.1498
2234.62849	1.39648	0.14984
2233.12838	1.39654	0.1499
2231.62826	1.3966	0.14996
2230.12815	1.39663	0.15005
2228.62804	1.39672	0.15019
2227.12793	1.39687	0.15029
2225.62782	1.397	0.15036
2224.1277	1.39716	0.15043
2222.62759	1.39734	0.15045
2221.12748	1.39745	0.15042
2219.62737	1.39757	0.15044
2218.12726	1.39775	0.15041
2216.62715	1.39783	0.15032
2215.12703	1.39783	0.15027
2213.62692	1.39788	0.15029
2212.12681	1.39801	0.1503
2210.6267	1.39812	0.15025
2209.12659	1.39817	0.15017
2207.62647	1.39819	0.15012
2206.12636	1.39821	0.1501
2204.62625	1.39826	0.1501
2203.12614	1.39837	0.15009
2201.62603	1.39845	0.15002
2200.12592	1.39845	0.14996
2198.6258	1.3985	0.14995
2197.12569	1.39859	0.14993
2195.62558	1.39867	0.14985
2194.12547	1.39868	0.14977
2192.62536	1.3987	0.14973
2191.12524	1.39876	0.1497
2189.62513	1.39885	0.14964
2188.12502	1.39888	0.14954
2186.62491	1.39886	0.14947
2185.1248	1.39891	0.14944
2183.62469	1.39899	0.14938
2182.12457	1.39902	0.14928
2180.62446	1.39902	0.14921
2179.12435	1.39906	0.14916
2177.62424	1.39912	0.14909
2176.12413	1.39918	0.149
2174.62401	1.39923	0.14888
2173.1239	1.39924	0.14876
2171.62379	1.39927	0.14866
2170.12368	1.39931	0.14852
2168.62357	1.39925	0.14836
2167.12346	1.39916	0.14826
2165.62334	1.39913	0.14822
2164.12323	1.39918	0.14818
2162.62312	1.39922	0.14809
2161.12301	1.39923	0.14799
2159.6229	1.39928	0.14791
2158.12278	1.39936	0.14777
2156.62267	1.39938	0.14758
2155.12256	1.39934	0.1474
2153.62245	1.3993	0.14725
2152.12234	1.39927	0.1471
2150.62223	1.39921	0.14695
2149.12211	1.39915	0.14684
2147.622	1.39916	0.14675
2146.12189	1.39917	0.14659
2144.62178	1.39914	0.14641
2143.12167	1.39907	0.14625
2141.62155	1.39901	0.14611
2140.12144	1.39899	0.14598
2138.62133	1.39899	0.14582
2137.12122	1.39896	0.14563
2135.62111	1.39892	0.14545
2134.121	1.39889	0.14524
2132.62088	1.39883	0.145
2131.12077	1.39867	0.14476
2129.62066	1.39852	0.14461
2128.12055	1.3985	0.14448
2126.62044	1.3985	0.14425
2125.12032	1.39837	0.14395
2123.62021	1.39817	0.14369
2122.1201	1.39797	0.1435
2120.61999	1.39783	0.14334
2119.11988	1.39772	0.14313
2117.61977	1.39755	0.1429
2116.11965	1.39734	0.14268
2114.61954	1.39712	0.14248
2113.11943	1.39687	0.14232
2111.61932	1.39669	0.14222
2110.11921	1.39658	0.14209
2108.61909	1.39648	0.14189
2107.11898	1.39632	0.14163
2105.61887	1.39609	0.14137
2104.11876	1.39581	0.14114
2102.61865	1.39552	0.14096
2101.11854	1.39528	0.14081
2099.61842	1.39507	0.14063
2098.11831	1.3948	0.14042
2096.6182	1.39448	0.14025
2095.11809	1.39425	0.14012
2093.61798	1.39403	0.13994
2092.11786	1.39377	0.13972
2090.61775	1.39342	0.13948
2089.11764	1.39299	0.1393
2087.61753	1.39262	0.13922
2086.11742	1.39231	0.13915
2084.61731	1.39201	0.13906
2083.11719	1.39172	0.13897
2081.61708	1.39145	0.13885
2080.11697	1.39115	0.1387
2078.61686	1.39077	0.13853
2077.11675	1.39039	0.13843
2075.61663	1.39005	0.13834
2074.11652	1.38966	0.13822
2072.61641	1.38923	0.13815
2071.1163	1.38883	0.13812
2069.61619	1.38843	0.13811
2068.11608	1.38806	0.13814
2066.61596	1.38778	0.13818
2065.11585	1.38753	0.13816
2063.61574	1.38721	0.13807
2062.11563	1.38684	0.13801
2060.61552	1.38647	0.13797
2059.1154	1.38611	0.13795
2057.61529	1.38573	0.13795
2056.11518	1.38539	0.13798
2054.61507	1.38514	0.138
2053.11496	1.38487	0.13793
2051.61485	1.38448	0.13782
2050.11473	1.38401	0.13778
2048.61462	1.38361	0.13782
2047.11451	1.38328	0.13787
2045.6144	1.38293	0.13787
2044.11429	1.38256	0.13789
2042.61418	1.38221	0.13792
2041.11406	1.38186	0.13795
2039.61395	1.38155	0.138
2038.11384	1.38129	0.13801
2036.61373	1.38098	0.13796
2035.11362	1.38063	0.13789
2033.6135	1.38022	0.13781
2032.11339	1.37977	0.13777
2030.61328	1.3793	0.13777
2029.11317	1.37884	0.13783
2027.61306	1.37847	0.13791
2026.11295	1.37808	0.13794
2024.61283	1.37768	0.13799
2023.11272	1.3773	0.13804
2021.61261	1.37691	0.13809
2020.1125	1.37655	0.13814
2018.61239	1.37622	0.13816
2017.11227	1.37583	0.13811
2015.61216	1.37535	0.13807
2014.11205	1.37481	0.13808
2012.61194	1.3743	0.13817
2011.11183	1.37387	0.13829
2009.61172	1.37346	0.13837
2008.1116	1.37305	0.13843
2006.61149	1.37258	0.13847
2005.11138	1.3721	0.13854
2003.61127	1.37165	0.13861
2002.11116	1.37116	0.13867
2000.61104	1.37062	0.13874
1999.11093	1.37008	0.13888
1997.61082	1.36957	0.13906
1996.11071	1.36912	0.13926
1994.6106	1.36877	0.13944
1993.11049	1.36841	0.13951
1991.61037	1.36791	0.1395
1990.11026	1.3673	0.13956
1988.61015	1.36676	0.13971
1987.11004	1.36626	0.13983
1985.60993	1.36565	0.13994
1984.10981	1.36504	0.14012
1982.6097	1.36447	0.14033
1981.10959	1.36385	0.14055
1979.60948	1.3633	0.14084
1978.10937	1.36276	0.14111
1976.60926	1.36223	0.14141
1975.10914	1.36177	0.14171
1973.60903	1.36129	0.14197
1972.10892	1.36082	0.14223
1970.60881	1.36034	0.14246
1969.1087	1.35983	0.14268
1967.60858	1.35931	0.14289
1966.10847	1.35867	0.1431
1964.60836	1.358	0.14344
1963.10825	1.35748	0.14385
1961.60814	1.35704	0.14422
1960.10803	1.35655	0.1445
1958.60791	1.35596	0.14479
1957.1078	1.35539	0.14517
1955.60769	1.35487	0.14555
1954.10758	1.35432	0.14593
1952.60747	1.35381	0.14634
1951.10735	1.35332	0.14673
1949.60724	1.35279	0.14713
1948.10713	1.35228	0.14756
1946.60702	1.35179	0.14799
1945.10691	1.35133	0.14842
1943.6068	1.35091	0.14883
1942.10668	1.35042	0.14917
1940.60657	1.34981	0.14953
1939.10646	1.34921	0.15
1937.60635	1.34867	0.15054
1936.10624	1.34822	0.1511
1934.60612	1.34786	0.1516
1933.10601	1.34736	0.15201
1931.6059	1.34684	0.15248
1930.10579	1.34632	0.15299
1928.60568	1.3458	0.15354
1927.10557	1.34536	0.15416
1925.60545	1.345	0.15476
1924.10534	1.3447	0.15527
1922.60523	1.34422	0.15569
1921.10512	1.34367	0.15625
1919.60501	1.34341	0.15692
1918.10489	1.34318	0.15738
1916.60478	1.34271	0.15771
1915.10467	1.34211	0.15815
1913.60456	1.34154	0.15874
1912.10445	1.34113	0.1594
1910.60434	1.34078	0.15998
1909.10422	1.34032	0.1605
1907.60411	1.33984	0.16106
1906.104	1.33934	0.16169
1904.60389	1.33894	0.16237
1903.10378	1.33859	0.163
1901.60366	1.3382	0.16357
1900.10355	1.33773	0.16415
1898.60344	1.33724	0.1648
1897.10333	1.33681	0.1655
1895.60322	1.33643	0.16622
1894.10311	1.33604	0.16692
1892.60299	1.33572	0.16766
1891.10288	1.33547	0.16834
1889.60277	1.33511	0.16891
1888.10266	1.33465	0.16954
1886.60255	1.33425	0.17027
1885.10243	1.33392	0.17098
1883.60232	1.33354	0.17163
1882.10221	1.33306	0.1723
1880.6021	1.33255	0.17309
1879.10199	1.33222	0.17398
1877.60188	1.33192	0.17479
1876.10176	1.33158	0.17558
1874.60165	1.33121	0.17639
1873.10154	1.33081	0.17729
1871.60143	1.33068	0.17831
1870.10132	1.33068	0.17913
1868.6012	1.33051	0.17975
1867.10109	1.33015	0.18036
1865.60098	1.32969	0.18109
1864.10087	1.3293	0.18196
1862.60076	1.32893	0.18286
1861.10065	1.32861	0.18382
1859.60053	1.32838	0.1848
1858.10042	1.32816	0.18577
1856.60031	1.328	0.18677
1855.1002	1.32794	0.1877
1853.60009	1.32777	0.18852
1852.09997	1.32752	0.18937
1850.59986	1.32722	0.19031
1849.09975	1.32698	0.19138
1847.59964	1.32691	0.19252
1846.09953	1.327	0.19362
1844.59942	1.3272	0.19451
1843.0993	1.32706	0.19514
1841.59919	1.32665	0.19597
1840.09908	1.32644	0.19711
1838.59897	1.32645	0.19824
1837.09886	1.32642	0.19925
1835.59875	1.32635	0.20029
1834.09863	1.32633	0.20141
1832.59852	1.32645	0.20257
1831.09841	1.32675	0.20364
1829.5983	1.3269	0.20445
1828.09819	1.32682	0.20529
1826.59807	1.32684	0.2063
1825.09796	1.3269	0.20729
1823.59785	1.32692	0.20825
1822.09774	1.32685	0.20925
1820.59763	1.32689	0.21041
1819.09752	1.32712	0.21156
1817.5974	1.32726	0.21257
1816.09729	1.32734	0.2136
1814.59718	1.32745	0.21473
1813.09707	1.32766	0.2159
1811.59696	1.32795	0.21703
1810.09684	1.32819	0.21808
1808.59673	1.32845	0.21919
1807.09662	1.32876	0.22026
1805.59651	1.32898	0.22129
1804.0964	1.32925	0.22245
1802.59629	1.32961	0.22361
1801.09617	1.33004	0.22475
1799.59606	1.33052	0.2258
1798.09595	1.33084	0.22676
1796.59584	1.33111	0.22784
1795.09573	1.33156	0.22909
1793.59561	1.33227	0.23027
1792.0955	1.33293	0.23112
1790.59539	1.3332	0.23183
1789.09528	1.33334	0.23283
1787.59517	1.33371	0.23407
1786.09506	1.33426	0.23528
1784.59494	1.33481	0.23638
1783.09483	1.33532	0.23746
1781.59472	1.33586	0.23858
1780.09461	1.33644	0.23969
1778.5945	1.33696	0.24076
1777.09438	1.33744	0.24197
1775.59427	1.33817	0.24336
1774.09416	1.33921	0.24468
1772.59405	1.34035	0.24567
1771.09394	1.34115	0.2463
1769.59383	1.3416	0.24703
1768.09371	1.34212	0.24808
1766.5936	1.3427	0.2492
1765.09349	1.34333	0.25045
1763.59338	1.34429	0.25185
1762.09327	1.34541	0.25301
1760.59315	1.34634	0.25396
1759.09304	1.34721	0.255
1757.59293	1.34817	0.25613
1756.09282	1.34919	0.25725
1754.59271	1.35018	0.25836
1753.0926	1.35132	0.25964
1751.59248	1.35286	0.26094
1750.09237	1.35447	0.26181
1748.59226	1.35581	0.26237
1747.09215	1.3568	0.2629
1745.59204	1.35763	0.26375
1744.09192	1.35889	0.265
1742.59181	1.36042	0.26605
1741.0917	1.36189	0.2669
1739.59159	1.36337	0.26767
1738.09148	1.36468	0.26839
1736.59137	1.36614	0.26939
1735.09125	1.36814	0.27043
1733.59114	1.37016	0.27081
1732.09103	1.37155	0.27087
1730.59092	1.37286	0.27131
1729.09081	1.37432	0.27187
1727.59069	1.37581	0.27241
1726.09058	1.37736	0.27298
1724.59047	1.37896	0.27354
1723.09036	1.38062	0.2741
1721.59025	1.38228	0.27468
1720.09014	1.38428	0.27548
1718.59002	1.38691	0.27608
1717.08991	1.38933	0.27577
1715.5898	1.39104	0.27518
1714.08969	1.39247	0.27488
1712.58958	1.39394	0.2749
1711.08946	1.39566	0.27509
1709.58935	1.39751	0.2752
1708.08924	1.3995	0.27525
1706.58913	1.4016	0.27513
1705.08902	1.40355	0.2748
1703.58891	1.40538	0.27455
1702.08879	1.40768	0.2745
1700.58868	1.41032	0.27394
1699.08857	1.41228	0.27271
1697.58846	1.414	0.27174
1696.08835	1.41584	0.27074
1694.58823	1.4172	0.2695
1693.08812	1.41835	0.26867
1691.58801	1.41992	0.2682
1690.0879	1.4217	0.26751
1688.58779	1.42328	0.26666
1687.08768	1.42507	0.26607
1685.58756	1.42756	0.26533
1684.08745	1.42988	0.26356
1682.58734	1.43094	0.26137
1681.08723	1.43175	0.25988
1679.58712	1.4328	0.25877
1678.087	1.43413	0.25779
1676.58689	1.43586	0.25667
1675.08678	1.43737	0.25501
1673.58667	1.43829	0.25328
1672.08656	1.43943	0.25199
1670.58645	1.44101	0.25054
1669.08633	1.44209	0.24847
1667.58622	1.44246	0.24653
1666.08611	1.44302	0.24524
1664.586	1.44417	0.2441
1663.08589	1.44547	0.24246
1661.58577	1.44612	0.24041
1660.08566	1.44641	0.2387
1658.58555	1.44683	0.23739
1657.08544	1.44761	0.23639
1655.58533	1.44932	0.23542
1654.08522	1.45169	0.23334
1652.5851	1.4519	0.22973
1651.08499	1.4509	0.22737
1649.58488	1.45126	0.22632
1648.08477	1.45246	0.2247
1646.58466	1.45294	0.22204
1645.08455	1.45231	0.21951
1643.58443	1.45175	0.21783
1642.08432	1.45166	0.21645
1640.58421	1.45172	0.21504
1639.0841	1.45213	0.21371
1637.58399	1.45311	0.212
1636.08387	1.4536	0.20929
1634.58376	1.45262	0.20641
1633.08365	1.45143	0.20457
1631.58354	1.45096	0.20332
1630.08343	1.451	0.20189
1628.58332	1.45085	0.20004
1627.0832	1.45038	0.19815
1625.58309	1.45008	0.19642
1624.08298	1.44981	0.19444
1622.58287	1.44889	0.19226
1621.08276	1.44769	0.19059
1619.58264	1.44722	0.18943
1618.08253	1.4473	0.18776
1616.58242	1.4466	0.18531
1615.08231	1.44496	0.18316
1613.5822	1.44358	0.18173
1612.08209	1.44258	0.18044
1610.58197	1.44166	0.17903
1609.08186	1.4407	0.17752
1607.58175	1.43955	0.17597
1606.08164	1.43832	0.17453
1604.58153	1.43713	0.17317
1603.08141	1.4359	0.17181
1601.5813	1.43458	0.17049
1600.08119	1.4332	0.16925
1598.58108	1.4319	0.16815
1597.08097	1.4307	0.16701
1595.58086	1.42936	0.16577
1594.08074	1.42788	0.1646
1592.58063	1.42632	0.16353
1591.08052	1.42477	0.16261
1589.58041	1.42332	0.16177
1588.0803	1.42181	0.16093
1586.58018	1.42035	0.1602
1585.08007	1.41893	0.15946
1583.57996	1.41745	0.15875
1582.07985	1.41597	0.15812
1580.57974	1.4145	0.1576
1579.07963	1.41339	0.15722
1577.57951	1.41261	0.15643
1576.0794	1.41099	0.1551
1574.57929	1.40858	0.15433
1573.07918	1.40682	0.15442
1571.57907	1.40601	0.15444
1570.07895	1.40512	0.15372
1568.57884	1.40325	0.15275
1567.07873	1.40128	0.15241
1565.57862	1.3997	0.15239
1564.07851	1.39814	0.15246
1562.5784	1.39699	0.15287
1561.07828	1.39712	0.15311
1559.57817	1.39738	0.15185
1558.07806	1.39497	0.1497
1556.57795	1.39224	0.14916
1555.07784	1.39051	0.14922
1553.57772	1.38878	0.14915
1552.07761	1.38719	0.14923
1550.5775	1.3858	0.14926
1549.07739	1.38423	0.1492
1547.57728	1.38267	0.14939
1546.07717	1.38152	0.14973
1544.57705	1.38051	0.14991
1543.07694	1.37975	0.15005
1541.57683	1.37962	0.14972
1540.07672	1.37845	0.1483
1538.57661	1.37558	0.14725
1537.07649	1.37325	0.14761
1535.57638	1.37203	0.14826
1534.07627	1.37108	0.14828
1532.57616	1.3693	0.14788
1531.07605	1.36725	0.14808
1529.57594	1.36582	0.14868
1528.07582	1.36465	0.14912
1526.57571	1.36346	0.14941
1525.0756	1.36222	0.14972
1523.57549	1.36143	0.15011
1522.07538	1.36083	0.14993
1520.57526	1.35917	0.14936
1519.07515	1.3574	0.14942
1517.57504	1.35618	0.14963
1516.07493	1.35458	0.14954
1514.57482	1.3527	0.14977
1513.07471	1.35115	0.15038
1511.57459	1.34982	0.15106
1510.07448	1.34887	0.15187
1508.57437	1.34871	0.15242
1507.07426	1.34834	0.15188
1505.57415	1.34634	0.15089
1504.07403	1.34391	0.15097
1502.57392	1.34221	0.15181
1501.07381	1.34118	0.15267
1499.5737	1.3404	0.15318
1498.07359	1.33967	0.15331
1496.57348	1.33847	0.15299
1495.07336	1.3365	0.15285
1493.57325	1.33487	0.1534
1492.07314	1.33375	0.15399
1490.57303	1.33273	0.15427
1489.07292	1.33142	0.15428
1487.5728	1.32975	0.15438
1486.07269	1.32813	0.15476
1484.57258	1.3266	0.15526
1483.07247	1.32521	0.15585
1481.57236	1.32393	0.15638
1480.07225	1.32246	0.15689
1478.57213	1.3212	0.15765
1477.07202	1.32031	0.15836
1475.57191	1.31951	0.1588
1474.0718	1.31878	0.15893
1472.57169	1.31748	0.1586
1471.07157	1.31544	0.1585
1469.57146	1.31359	0.15907
1468.07135	1.31219	0.15988
1466.57124	1.31113	0.16056
1465.07113	1.31002	0.16089
1463.57102	1.30845	0.16109
1462.0709	1.30677	0.16165
1460.57079	1.30554	0.16257
1459.07068	1.30493	0.16331
1457.57057	1.30432	0.16329
1456.07046	1.30261	0.16276
1454.57035	1.3004	0.16285
1453.07023	1.2986	0.16348
1451.57012	1.297	0.16416
1450.07001	1.29558	0.16484
1448.5699	1.29421	0.16535
1447.06979	1.29251	0.16574
1445.56967	1.29085	0.16639
1444.06956	1.28937	0.1671
1442.56945	1.28784	0.16775
1441.06934	1.2863	0.16847
1439.56923	1.28499	0.16932
1438.06912	1.28405	0.16997
1436.569	1.28269	0.17001
1435.06889	1.28063	0.17015
1433.56878	1.27876	0.1709
1432.06867	1.27723	0.1717
1430.56856	1.27569	0.1723
1429.06844	1.27391	0.17281
1427.56833	1.27198	0.17353
1426.06822	1.27037	0.17453
1424.56811	1.26893	0.17537
1423.068	1.26732	0.17609
1421.56789	1.26587	0.17692
1420.06777	1.26457	0.17754
1418.56766	1.26289	0.17784
1417.06755	1.26083	0.17824
1415.56744	1.2588	0.17897
1414.06733	1.25691	0.17983
1412.56721	1.25506	0.18066
1411.0671	1.25318	0.18148
1409.56699	1.25124	0.1823
1408.06688	1.24927	0.18322
1406.56677	1.24741	0.18419
1405.06666	1.24547	0.18505
1403.56654	1.24333	0.18597
1402.06643	1.24133	0.18717
1400.56632	1.23961	0.18837
1399.06621	1.23778	0.18931
1397.5661	1.23583	0.19025
1396.06598	1.23396	0.19124
1394.56587	1.23194	0.19204
1393.06576	1.2296	0.19284
1391.56565	1.22721	0.19393
1390.06554	1.22499	0.19523
1388.56543	1.22282	0.19641
1387.06531	1.22046	0.19752
1385.5652	1.21805	0.19879
1384.06509	1.21561	0.20011
1382.56498	1.2131	0.20152
1381.06487	1.21064	0.20309
1379.56475	1.2082	0.2047
1378.06464	1.2058	0.20637
1376.56453	1.20338	0.20803
1375.06442	1.20094	0.20975
1373.56431	1.19853	0.2115
1372.0642	1.19595	0.21316
1370.56408	1.19326	0.215
1369.06397	1.19062	0.21703
1367.56386	1.18796	0.21912
1366.06375	1.18531	0.22134
1364.56364	1.18271	0.22367
1363.06352	1.18018	0.22605
1361.56341	1.1776	0.2284
1360.0633	1.17489	0.23082
1358.56319	1.17222	0.23349
1357.06308	1.16957	0.23624
1355.56297	1.16695	0.23914
1354.06285	1.16444	0.24219
1352.56274	1.16194	0.24523
1351.06263	1.15943	0.2484
1349.56252	1.15701	0.25175
1348.06241	1.15466	0.25515
1346.56229	1.15232	0.25866
1345.06218	1.1501	0.26234
1343.56207	1.14798	0.26609
1342.06196	1.14592	0.26992
1340.56185	1.14399	0.27392
1339.06174	1.14224	0.27798
1337.56162	1.14058	0.28201
1336.06151	1.13898	0.28609
1334.5614	1.13748	0.29025
1333.06129	1.1361	0.29447
1331.56118	1.13483	0.29875
1330.06106	1.13369	0.30307
1328.56095	1.13268	0.30744
1327.06084	1.13182	0.31184
1325.56073	1.13113	0.31623
1324.06062	1.13055	0.32056
1322.56051	1.13008	0.32488
1321.06039	1.12974	0.3292
1319.56028	1.12952	0.33347
1318.06017	1.12944	0.33772
1316.56006	1.1295	0.3419
1315.05995	1.12968	0.34594
1313.55983	1.12992	0.34987
1312.05972	1.13023	0.35371
1310.55961	1.13059	0.35741
1309.0595	1.13095	0.36103
1307.55939	1.13134	0.3646
1306.05928	1.13179	0.36809
1304.55916	1.13231	0.37151
1303.05905	1.13287	0.37477
1301.55894	1.1334	0.37784
1300.05883	1.13388	0.3808
1298.55872	1.13429	0.38367
1297.0586	1.13463	0.38647
1295.55849	1.13493	0.38925
1294.05838	1.13523	0.39194
1292.55827	1.13544	0.39448
1291.05816	1.13553	0.39696
1289.55805	1.13554	0.39939
1288.05793	1.13543	0.40173
1286.55782	1.13516	0.40401
1285.05771	1.13473	0.40628
1283.5576	1.13413	0.40855
1282.05749	1.13335	0.41084
1280.55737	1.13238	0.41324
1279.05726	1.1313	0.41578
1277.55715	1.13008	0.41836
1276.05704	1.12873	0.42107
1274.55693	1.12724	0.42391
1273.05682	1.12562	0.42689
1271.5567	1.1239	0.43009
1270.05659	1.12211	0.4334
1268.55648	1.12016	0.43687
1267.05637	1.11811	0.44061
1265.55626	1.11596	0.44459
1264.05615	1.11376	0.44892
1262.55603	1.11158	0.45356
1261.05592	1.10943	0.45851
1259.55581	1.1074	0.46381
1258.0557	1.10552	0.4693
1256.55559	1.10374	0.47502
1255.05547	1.10206	0.48097
1253.55536	1.10051	0.48716
1252.05525	1.09911	0.4936
1250.55514	1.09787	0.50023
1249.05503	1.09678	0.50711
1247.55492	1.09588	0.51425
1246.0548	1.0952	0.52164
1244.55469	1.09479	0.52933
1243.05458	1.09476	0.53722
1241.55447	1.09507	0.54517
1240.05436	1.09567	0.55323
1238.55424	1.0966	0.5614
1237.05413	1.09787	0.56963
1235.55402	1.09949	0.57792
1234.05391	1.10147	0.58617
1232.5538	1.10375	0.59438
1231.05369	1.10637	0.60258
1229.55357	1.10929	0.61063
1228.05346	1.11243	0.61861
1226.55335	1.11586	0.62658
1225.05324	1.11957	0.63445
1223.55313	1.12359	0.64229
1222.05301	1.12793	0.64992
1220.5529	1.1325	0.65738
1219.05279	1.13734	0.6647
1217.55268	1.1424	0.67172
1216.05257	1.1476	0.6786
1214.55246	1.153	0.68529
1213.05234	1.15851	0.69173
1211.55223	1.16416	0.69811
1210.05212	1.16997	0.70421
1208.55201	1.17584	0.71017
1207.0519	1.18188	0.716
1205.55178	1.18799	0.72156
1204.05167	1.19416	0.72704
1202.55156	1.20043	0.73229
1201.05145	1.2067	0.73744
1199.55134	1.2131	0.74254
1198.05123	1.21959	0.74739
1196.55111	1.2261	0.75213
1195.051	1.23267	0.75674
1193.55089	1.23925	0.76123
1192.05078	1.24588	0.7657
1190.55067	1.2526	0.77006
1189.05055	1.25937	0.77435
1187.55044	1.26624	0.7786
1186.05033	1.2732	0.78273
1184.55022	1.28022	0.78677
1183.05011	1.2873	0.79077
1181.55	1.29446	0.79477
1180.04988	1.30177	0.79887
1178.54977	1.30937	0.80295
1177.04966	1.31721	0.80687
1175.54955	1.32529	0.81072
1174.04944	1.33363	0.81434
1172.54932	1.34212	0.81774
1171.04921	1.35084	0.82106
1169.5491	1.35979	0.82412
1168.04899	1.36896	0.82704
1166.54888	1.37843	0.82967
1165.04877	1.38806	0.83194
1163.54865	1.39797	0.83406
1162.04854	1.40814	0.83566
1160.54843	1.4184	0.83685
1159.04832	1.42888	0.83772
1157.54821	1.43948	0.83803
1156.04809	1.45018	0.83795
1154.54798	1.46096	0.83723
1153.04787	1.47162	0.83599
1151.54776	1.48231	0.8344
1150.04765	1.49295	0.83215
1148.54754	1.50345	0.82944
1147.04742	1.51384	0.82617
1145.54731	1.52393	0.82228
1144.0472	1.53377	0.81799
1142.54709	1.54329	0.81314
1141.04698	1.55243	0.80791
1139.54686	1.56126	0.80228
1138.04675	1.56963	0.79615
1136.54664	1.57754	0.78974
1135.04653	1.58501	0.78301
1133.54642	1.59198	0.77594
1132.04631	1.59842	0.76865
1130.54619	1.60432	0.76114
1129.04608	1.60964	0.7535
1127.54597	1.61446	0.74581
1126.04586	1.61878	0.738
1124.54575	1.62251	0.73013
1123.04563	1.62571	0.72228
1121.54552	1.62831	0.71443
1120.04541	1.6304	0.70679
1118.5453	1.63207	0.69928
1117.04519	1.63321	0.69184
1115.54508	1.63394	0.68466
1114.04496	1.63422	0.67757
1112.54485	1.63399	0.67073
1111.04474	1.63343	0.6642
1109.54463	1.63243	0.65781
1108.04452	1.63103	0.65176
1106.5444	1.62925	0.64593
1105.04429	1.62698	0.64046
1103.54418	1.62449	0.63548
1102.04407	1.62166	0.6307
1100.54396	1.61844	0.62635
1099.04385	1.61496	0.62245
1097.54373	1.61117	0.61897
1096.04362	1.60722	0.616
1094.54351	1.60297	0.61332
1093.0434	1.59834	0.61111
1091.54329	1.59346	0.60952
1090.04317	1.58829	0.6085
1088.54306	1.58294	0.60824
1087.04295	1.57746	0.60866
1085.54284	1.57183	0.60986
1084.04273	1.56622	0.61195
1082.54262	1.56066	0.61486
1081.0425	1.55516	0.6187
1079.54239	1.5499	0.62363
1078.04228	1.54507	0.62965
1076.54217	1.54086	0.63677
1075.04206	1.53746	0.64492
1073.54194	1.53497	0.65395
1072.04183	1.53356	0.66382
1070.54172	1.53336	0.67432
1069.04161	1.53433	0.68526
1067.5415	1.53663	0.69666
1066.04139	1.54038	0.70822
1064.54127	1.54546	0.71968
1063.04116	1.55189	0.73095
1061.54105	1.55959	0.74183
1060.04094	1.5686	0.75226
1058.54083	1.57882	0.7619
1057.04072	1.58992	0.77063
1055.5406	1.60192	0.77865
1054.04049	1.61478	0.78578
1052.54038	1.62844	0.79205
1051.04027	1.64297	0.79731
1049.54016	1.65804	0.80128
1048.04004	1.67371	0.80426
1046.53993	1.68988	0.80582
1045.03982	1.70619	0.80596
1043.53971	1.72267	0.80485
1042.0396	1.73904	0.80228
1040.53949	1.75529	0.79856
1039.03937	1.77137	0.79346
1037.53926	1.78688	0.78693
1036.03915	1.80182	0.77928
1034.53904	1.81596	0.77042
1033.03893	1.82923	0.76069
1031.53881	1.84174	0.75019
1030.0387	1.85336	0.73885
1028.53859	1.86403	0.72683
1027.03848	1.87364	0.71415
1025.53837	1.88206	0.70099
1024.03826	1.88945	0.68767
1022.53814	1.89586	0.67416
1021.03803	1.90125	0.66049
1019.53792	1.90561	0.64678
1018.03781	1.90886	0.63311
1016.5377	1.91119	0.61981
1015.03758	1.91286	0.60685
1013.53747	1.91368	0.59404
1012.03736	1.91369	0.58163
1010.53725	1.91308	0.56972
1009.03714	1.91193	0.55833
1007.53703	1.91049	0.54743
1006.03691	1.90856	0.53676
1004.5368	1.9061	0.52654
1003.03669	1.90332	0.5168
1001.53658	1.90009	0.50748
1000.03647	1.89668	0.49878
998.53635	1.89313	0.49048
997.03624	1.88928	0.48258
995.53613	1.88537	0.47516
994.03602	1.88122	0.46808
992.53591	1.87699	0.46154
991.0358	1.87279	0.45541
989.53568	1.86853	0.44969
988.03557	1.86451	0.44442
986.53546	1.86054	0.43931
985.03535	1.8566	0.43447
983.53524	1.85289	0.42986
982.03512	1.84923	0.42528
980.53501	1.84551	0.42074
979.0349	1.8416	0.41631
977.53479	1.83764	0.41218
976.03468	1.83385	0.40827
974.53457	1.83003	0.40439
973.03445	1.82615	0.40066
971.53434	1.82236	0.39707
970.03423	1.81854	0.39348
968.53412	1.81458	0.38993
967.03401	1.81051	0.38648
965.53389	1.80633	0.38315
964.03378	1.80204	0.37995
962.53367	1.79761	0.37686
961.03356	1.79302	0.37395
959.53345	1.7884	0.37128
958.03334	1.78372	0.3687
956.53322	1.77889	0.36625
955.03311	1.77392	0.36392
953.533	1.76868	0.36176
952.03289	1.76329	0.3599
950.53278	1.75781	0.3583
949.03266	1.75223	0.35693
947.53255	1.74655	0.35574
946.03244	1.74046	0.35471
944.53233	1.73407	0.35415
943.03222	1.72767	0.3541
941.53211	1.72114	0.35445
940.03199	1.71455	0.35523
938.53188	1.70778	0.35642
937.03177	1.70082	0.35817
935.53166	1.69384	0.36057
934.03155	1.6868	0.36362
932.53143	1.67982	0.36747
931.03132	1.67305	0.37214
929.53121	1.66658	0.37764
928.0311	1.66058	0.38396
926.53099	1.65498	0.39103
925.03088	1.64999	0.39903
923.53076	1.64591	0.4079
922.03065	1.64276	0.41743
920.53054	1.64061	0.4276
919.03043	1.63967	0.43835
917.53032	1.64002	0.44949
916.0302	1.64172	0.4608
914.53009	1.64473	0.47214
913.02998	1.64908	0.48338
911.52987	1.65484	0.49441
910.02976	1.66204	0.50495
908.52965	1.67055	0.51476
907.02953	1.68024	0.52365
905.52942	1.69091	0.53146
904.02931	1.70248	0.53821
902.5292	1.71492	0.54376
901.02909	1.72804	0.54791
899.52897	1.74165	0.55056
898.02886	1.75542	0.5516
896.52875	1.76917	0.55119
895.02864	1.78286	0.54934
893.52853	1.79621	0.54599
892.02842	1.80906	0.54129
890.5283	1.82127	0.53528
889.02819	1.83265	0.5281
887.52808	1.84322	0.5199
886.02797	1.85268	0.51066
884.52786	1.86092	0.50071
883.02774	1.86801	0.49025
881.52763	1.87392	0.47947
880.02752	1.87884	0.4685
878.52741	1.88253	0.45726
877.0273	1.88496	0.4461
875.52719	1.88638	0.43529
874.02707	1.88691	0.42489
872.52696	1.88679	0.41499
871.02685	1.88608	0.40551
869.52674	1.88485	0.3965
868.02663	1.88328	0.38793
866.52652	1.88129	0.37969
865.0264	1.87888	0.37187
863.52629	1.87624	0.3645
862.02618	1.87337	0.35748
860.52607	1.87018	0.3508
859.02596	1.86675	0.34455
857.52584	1.86315	0.33877
856.02573	1.85956	0.33344
854.52562	1.85599	0.32842
853.02551	1.85238	0.32369
851.5254	1.84888	0.31924
850.02529	1.84536	0.31486
848.52517	1.84154	0.31063
847.02506	1.83764	0.30679
845.52495	1.83383	0.30332
844.02484	1.8302	0.30006
842.52473	1.82658	0.29686
841.02461	1.82285	0.29381
839.5245	1.81916	0.291
838.02439	1.8155	0.28834
836.52428	1.81189	0.28585
835.02417	1.80832	0.28345
833.52406	1.80466	0.28117
832.02394	1.80114	0.27909
830.52383	1.79762	0.27697
829.02372	1.79384	0.27491
827.52361	1.78995	0.2731
826.0235	1.78589	0.27157
824.52338	1.78187	0.27051
823.02327	1.77816	0.26988
821.52316	1.77499	0.26951
820.02305	1.77226	0.26902
818.52294	1.76957	0.26828
817.02283	1.76683	0.26746
815.52271	1.76406	0.26663
814.0226	1.76122	0.26584
812.52249	1.75846	0.26515
811.02238	1.75576	0.26445
809.52227	1.75301	0.26374
808.02215	1.7502	0.26306
806.52204	1.74726	0.26248
805.02193	1.74432	0.26211
803.52182	1.74159	0.26193
802.02171	1.739	0.26173
800.5216	1.73634	0.26151
799.02148	1.73371	0.26139
797.52137	1.73115	0.26137
796.02126	1.72868	0.26138
794.52115	1.72623	0.26139
793.02104	1.72374	0.26144
791.52092	1.72125	0.26159
790.02081	1.71884	0.26187
788.5207	1.71658	0.26226
787.02059	1.71446	0.26263
785.52048	1.71234	0.26296
784.02037	1.71027	0.26333
782.52025	1.70824	0.2637
781.02014	1.7062	0.26411
779.52003	1.70422	0.26459
778.01992	1.70228	0.26514
776.51981	1.70061	0.26577
775.01969	1.69907	0.2662
773.51958	1.6973	0.26652
772.01947	1.69553	0.26695
770.51936	1.69383	0.26741
769.01925	1.6921	0.2679
767.51914	1.69046	0.26847
766.01902	1.68893	0.26904
764.51891	1.68741	0.26955
763.0188	1.68581	0.27007
761.51869	1.68429	0.27074
760.01858	1.68306	0.27144
758.51846	1.68191	0.27195
757.01835	1.68054	0.2723
755.51824	1.67912	0.27279
754.01813	1.67789	0.27338
752.51802	1.67678	0.27389
751.01791	1.67569	0.27425
749.51779	1.67446	0.27452
748.01768	1.67311	0.27483
746.51757	1.67186	0.27529
745.01746	1.67079	0.27573
743.51735	1.66977	0.27601
742.01723	1.66858	0.27616
740.51712	1.66729	0.27635
739.01701	1.66607	0.27662
737.5169	1.66493	0.27682
736.01679	1.66368	0.2769
734.51668	1.66228	0.27699
733.01656	1.66085	0.27717
731.51645	1.65949	0.27742
730.01634	1.65816	0.27765
728.51623	1.65689	0.27785
727.01612	1.65563	0.27792
725.516	1.65411	0.27788
724.01589	1.6525	0.278
722.51578	1.65106	0.27817
721.01567	1.64955	0.27818
719.51556	1.64775	0.27813
718.01545	1.64582	0.27828
716.51533	1.64402	0.27858
715.01522	1.64222	0.27887
713.51511	1.6404	0.27921
712.015	1.63866	0.27957
710.51489	1.63686	0.27983
709.01477	1.63494	0.28006
707.51466	1.6329	0.28033
706.01455	1.63074	0.28066
704.51444	1.62851	0.28111
703.01433	1.6262	0.28167
701.51422	1.62387	0.28245
700.0141	1.62184	0.28342
698.51399	1.61999	0.28426
697.01388	1.61798	0.28487
695.51377	1.61573	0.28552
694.01366	1.61354	0.28636
692.51354	1.61144	0.28714
691.01343	1.60907	0.28776
689.51332	1.60637	0.28854
688.01321	1.60364	0.28967
686.5131	1.60106	0.29109
685.01299	1.5988	0.29267
683.51287	1.59681	0.29411
682.01276	1.59459	0.29526
680.51265	1.59215	0.29652
679.01254	1.58995	0.29794
677.51243	1.58764	0.29912
676.01232	1.5849	0.30027
674.5122	1.58199	0.30177
673.01209	1.57926	0.30369
671.51198	1.57717	0.3058
670.01187	1.57557	0.30734
668.51176	1.57275	0.30781
667.01164	1.56839	0.30895
665.51153	1.56508	0.31167
664.01142	1.56258	0.31431
662.51131	1.55995	0.31645
661.0112	1.55703	0.31851
659.51109	1.55397	0.32071
658.01097	1.55081	0.32305
656.51086	1.54763	0.32553
655.01075	1.54438	0.32807
653.51064	1.54089	0.33066
652.01053	1.53714	0.3335
650.51041	1.53341	0.33681
649.0103	1.53003	0.3404
647.51019	1.52662	0.34382
646.01008	1.52274	0.34723
644.50997	1.51872	0.35112
643.00986	1.51483	0.35538
641.50974	1.51081	0.35975
640.00963	1.50653	0.36444
638.50952	1.5023	0.36971
637.00941	1.49824	0.3754
635.5093	1.49419	0.38134
634.00918	1.49002	0.38765
632.50907	1.48597	0.39466
631.00896	1.4823	0.4022
629.50885	1.47878	0.41003
628.00874	1.47533	0.41835
626.50863	1.47226	0.42741
625.00851	1.46973	0.43701
623.5084	1.46767	0.44697
622.00829	1.46594	0.45734
620.50818	1.46489	0.46844
619.00807	1.46483	0.47992
617.50795	1.46541	0.49135
616.00784	1.46669	0.50291
614.50773	1.4684	0.51426
613.00762	1.47045	0.52585
611.50751	1.47344	0.53785
610.0074	1.47704	0.54947
608.50728	1.48098	0.561
607.00717	1.48538	0.57257
605.50706	1.49022	0.58427
604.00695	1.49579	0.59613
602.50684	1.50182	0.60771
601.00672	1.50821	0.61946
599.50661	1.51529	0.63146
598.0065	1.52283	0.64344
596.50639	1.53109	0.65592
595.00628	1.54037	0.6687
593.50617	1.55061	0.68164
592.00605	1.56221	0.69504
590.50594	1.57548	0.70836
589.00583	1.59014	0.72115
587.50572	1.60625	0.73364
586.00561	1.624	0.74571
584.50549	1.64358	0.75736
583.00538	1.66569	0.7684
581.50527	1.69023	0.77761
580.00516	1.71705	0.78468
578.50505	1.74603	0.78882
577.00494	1.77647	0.78945
575.50482	1.80859	0.78648
574.00471	1.84108	0.77796
572.5046	1.87215	0.76412
571.00449	1.9014	0.74559
569.50438	1.92673	0.72183
568.00426	1.94717	0.69486
566.50415	1.96233	0.66569
565.00404	1.97161	0.63598
563.50393	1.97656	0.60751
562.00382	1.97693	0.58022
560.50371	1.97396	0.55586
559.00359	1.96909	0.53436
557.50348	1.96269	0.51554
556.00337	1.95615	0.49931
554.50326	1.94902	0.48447
553.00315	1.94127	0.4714
551.50303	1.93361	0.46003
550.00292	1.92567	0.44987
548.50281	1.91777	0.44121
547.0027	1.91017	0.43381
545.50259	1.90308	0.42759
544.00248	1.89685	0.42209
542.50236	1.89079	0.41673
541.00225	1.88458	0.41183
539.50214	1.87857	0.40762
538.00203	1.87289	0.40402
536.50192	1.86765	0.40079
535.0018	1.8625	0.39772
533.50169	1.85734	0.39507
532.00158	1.85267	0.39298
530.50147	1.84835	0.39098
529.00136	1.8441	0.38919
527.50125	1.84066	0.38769
526.00113	1.83727	0.38559
524.50102	1.83298	0.38329
523.00091	1.82855	0.38175
521.5008	1.82451	0.38089
520.00069	1.82137	0.38031
518.50057	1.81854	0.37914
517.00046	1.81484	0.37759
515.50035	1.81107	0.37664
514.00024	1.8076	0.37592
512.50013	1.80406	0.3752
511.00002	1.80027	0.3746
509.4999	1.79635	0.37456
507.99979	1.79334	0.37513
506.49968	1.7906	0.37525
504.99957	1.78766	0.37523
503.49946	1.78485	0.37518
501.99934	1.78152	0.37493
500.49923	1.77796	0.37515
498.99912	1.77456	0.37576
497.49901	1.77126	0.37663
495.9989	1.76835	0.3777
494.49879	1.76539	0.37857
492.99867	1.76213	0.3796
491.49856	1.75903	0.38109
489.99845	1.75645	0.38278
488.49834	1.75397	0.38416
486.99823	1.75095	0.38533
485.49812	1.7476	0.38693
483.998	1.7444	0.38904
482.49789	1.74127	0.39152
480.99778	1.7385	0.39443
479.49767	1.73611	0.39743
477.99756	1.73369	0.40034
476.49744	1.73107	0.40352
474.99733	1.72877	0.40729
473.49722	1.72713	0.41137
471.99711	1.72595	0.41521
470.497	1.72417	0.41853
468.99689	1.72168	0.42256
467.49677	1.72007	0.42799
465.99666	1.71951	0.43372
464.49655	1.71953	0.43948
462.99644	1.72047	0.44528
461.49633	1.7217	0.45063
459.99621	1.72327	0.456
458.4961	1.72525	0.4613
456.99599	1.72774	0.46675
455.49588	1.73153	0.47202
453.99577	1.73507	0.47598
452.49566	1.73822	0.48001
450.99554	1.74191	0.48449
449.49543	1.7467	0.48936
447.99532	1.75356	0.49359
446.49521	1.75973	0.4951
444.9951	1.76462	0.49635
443.49498	1.77069	0.49825
441.99487	1.77693	0.49873
440.49476	1.78266	0.49825
438.99465	1.78797	0.49713
437.49454	1.79266	0.49549
435.99443	1.79699	0.4935
434.49431	1.8002	0.49098
432.9942	1.80282	0.48902
431.49409	1.80556	0.48728
429.99398	1.80761	0.48546
428.49387	1.8101	0.48434
426.99375	1.81306	0.48273
425.49364	1.81455	0.48035
423.99353	1.81574	0.47923
422.49342	1.81858	0.47891
420.99331	1.8219	0.47742
419.4932	1.82488	0.47474
417.99308	1.8254	0.47102
416.49297	1.82532	0.46992
414.99286	1.82856	0.46952
413.49275	1.83082	0.46692
411.99264	1.83253	0.46401
410.49252	1.83358	0.461
408.99241	1.83446	0.45819
407.4923	1.83519	0.45527
405.99219	1.83542	0.45213
404.49208	1.83521	0.44912
402.99197	1.83483	0.44628
401.49185	1.83416	0.44336
399.99174	1.83276	0.44033
