#SUBSTANCE=Sulphuric acid
#DESCRIPTION=Refractive indices of 58 wt% sulphuric acid from 400 to 7500 cm-1 at 243 K
#TEMPERATURE=243 K
#CONCENTRATION=58 wt%
#DOI=10.1021/jp026576n
#REFERENCE=Spectroscopic Study of Aqueous H2SO4 at Different Temperatures and Compositions:  Variations in Dissociation and Optical Properties
##Cathrine E. Lund Myhre,†, Daniel H. Christensen,‡, Flemming M. Nicolaisen,‡ and, and Claus J. Nielsen*,†
##The Journal of Physical Chemistry A 2003 107 (12), 1979-1991 
#FORMAT=WAVN N K
7498.52083	1.40171	0.01429
7497.02072	1.40165	0.01429
7495.52061	1.40159	0.0143
7494.0205	1.40154	0.01431
7492.52039	1.4015	0.01432
7491.02027	1.40145	0.01432
7489.52016	1.40141	0.0143
7488.02005	1.40137	0.01429
7486.51994	1.40134	0.01428
7485.01983	1.40129	0.01428
7483.51971	1.40125	0.01431
7482.0196	1.40121	0.01437
7480.51949	1.40118	0.01443
7479.01938	1.40116	0.01448
7477.51927	1.40116	0.01453
7476.01916	1.40117	0.01459
7474.51904	1.40117	0.01463
7473.01893	1.40119	0.01468
7471.51882	1.40123	0.01472
7470.01871	1.40127	0.01474
7468.5186	1.40132	0.01476
7467.01848	1.40135	0.01475
7465.51837	1.40138	0.01473
7464.01826	1.4014	0.01471
7462.51815	1.40143	0.01469
7461.01804	1.40146	0.01466
7459.51793	1.40149	0.01465
7458.01781	1.4015	0.01463
7456.5177	1.40149	0.01461
7455.01759	1.40149	0.01459
7453.51748	1.40149	0.01454
7452.01737	1.40148	0.0145
7450.51725	1.40146	0.01445
7449.01714	1.40143	0.01442
7447.51703	1.40139	0.01441
7446.01692	1.40135	0.0144
7444.51681	1.40132	0.01442
7443.0167	1.4013	0.01446
7441.51658	1.40129	0.01451
7440.01647	1.40129	0.01455
7438.51636	1.40131	0.01459
7437.01625	1.40133	0.01462
7435.51614	1.40136	0.01463
7434.01602	1.4014	0.01462
7432.51591	1.40143	0.01458
7431.0158	1.40144	0.01453
7429.51569	1.40144	0.01445
7428.01558	1.40142	0.01438
7426.51547	1.40138	0.01432
7425.01535	1.40134	0.01429
7423.51524	1.40129	0.01429
7422.01513	1.40124	0.01431
7420.51502	1.4012	0.01434
7419.01491	1.40116	0.01439
7417.51479	1.40114	0.01443
7416.01468	1.40112	0.01447
7414.51457	1.40112	0.0145
7413.01446	1.40112	0.01453
7411.51435	1.40113	0.01455
7410.01424	1.40114	0.01457
7408.51412	1.40116	0.01459
7407.01401	1.40117	0.0146
7405.5139	1.40119	0.01462
7404.01379	1.40122	0.01465
7402.51368	1.40126	0.01468
7401.01356	1.4013	0.01468
7399.51345	1.40133	0.01467
7398.01334	1.40135	0.01463
7396.51323	1.40136	0.01456
7395.01312	1.40136	0.01448
7393.51301	1.40136	0.01442
7392.01289	1.40133	0.01438
7390.51278	1.4013	0.01438
7389.01267	1.40128	0.0144
7387.51256	1.40126	0.01445
7386.01245	1.40127	0.0145
7384.51233	1.40128	0.01452
7383.01222	1.40129	0.01451
7381.51211	1.4013	0.01447
7380.012	1.4013	0.01443
7378.51189	1.40129	0.01437
7377.01178	1.40127	0.01432
7375.51166	1.40126	0.01429
7374.01155	1.40122	0.01429
7372.51144	1.40119	0.0143
7371.01133	1.40117	0.01434
7369.51122	1.40116	0.01438
7368.0111	1.40117	0.01442
7366.51099	1.40118	0.01444
7365.01088	1.40119	0.01443
7363.51077	1.40119	0.01439
7362.01066	1.40118	0.01433
7360.51055	1.40116	0.01426
7359.01043	1.40113	0.01421
7357.51032	1.40109	0.0142
7356.01021	1.40105	0.01423
7354.5101	1.40103	0.01429
7353.00999	1.40102	0.01436
7351.50987	1.40103	0.01443
7350.00976	1.40105	0.01446
7348.50965	1.40106	0.01446
7347.00954	1.40106	0.0144
7345.50943	1.40106	0.01434
7344.00932	1.40105	0.01428
7342.5092	1.40103	0.01423
7341.00909	1.40101	0.01422
7339.50898	1.40098	0.01425
7338.00887	1.40096	0.01431
7336.50876	1.40093	0.01437
7335.00864	1.40093	0.0144
7333.50853	1.40092	0.01439
7332.00842	1.40091	0.01434
7330.50831	1.40088	0.01428
7329.0082	1.40084	0.01423
7327.50809	1.40079	0.01423
7326.00797	1.40075	0.01427
7324.50786	1.40072	0.01435
7323.00775	1.4007	0.01446
7321.50764	1.40069	0.01457
7320.00753	1.40071	0.01465
7318.50741	1.40076	0.0147
7317.0073	1.40081	0.01471
7315.50719	1.40086	0.01471
7314.00708	1.40089	0.01468
7312.50697	1.40091	0.01465
7311.00686	1.40094	0.01463
7309.50674	1.40097	0.01461
7308.00663	1.40098	0.01461
7306.50652	1.401	0.01463
7305.00641	1.40102	0.01467
7303.5063	1.40106	0.01469
7302.00619	1.40109	0.01469
7300.50607	1.40113	0.01465
7299.00596	1.40114	0.01457
7297.50585	1.40114	0.01448
7296.00574	1.40111	0.01437
7294.50563	1.40108	0.01431
7293.00551	1.40103	0.01427
7291.5054	1.40097	0.01429
7290.00529	1.40093	0.01433
7288.50518	1.40088	0.01439
7287.00507	1.40085	0.01445
7285.50496	1.40084	0.0145
7284.00484	1.40086	0.01455
7282.50473	1.40089	0.01458
7281.00462	1.40092	0.01461
7279.50451	1.40097	0.01463
7278.0044	1.40102	0.01464
7276.50428	1.40106	0.01462
7275.00417	1.40109	0.01457
7273.50406	1.4011	0.01449
7272.00395	1.40108	0.0144
7270.50384	1.40105	0.01431
7269.00373	1.40101	0.01424
7267.50361	1.40095	0.01421
7266.0035	1.40088	0.01423
7264.50339	1.40082	0.0143
7263.00328	1.40078	0.01438
7261.50317	1.40076	0.01447
7260.00305	1.40076	0.01454
7258.50294	1.40076	0.01459
7257.00283	1.40079	0.01462
7255.50272	1.40084	0.01466
7254.00261	1.40091	0.01469
7252.5025	1.40098	0.01473
7251.00238	1.40104	0.01476
7249.50227	1.40108	0.01474
7248.00216	1.40113	0.01467
7246.50205	1.40116	0.01458
7245.00194	1.40119	0.01448
7243.50182	1.40119	0.0144
7242.00171	1.40118	0.01437
7240.5016	1.40117	0.01438
7239.00149	1.40115	0.0144
7237.50138	1.40115	0.01442
7236.00127	1.40115	0.01439
7234.50115	1.40114	0.01433
7233.00104	1.40113	0.01427
7231.50093	1.40112	0.01423
7230.00082	1.40111	0.01422
7228.50071	1.4011	0.01424
7227.00059	1.4011	0.01426
7225.50048	1.40109	0.01426
7224.00037	1.40109	0.01423
7222.50026	1.40107	0.01417
7221.00015	1.40104	0.0141
7219.50004	1.401	0.01405
7217.99992	1.40098	0.01403
7216.49981	1.40095	0.01404
7214.9997	1.40093	0.01407
7213.49959	1.40091	0.0141
7211.99948	1.40087	0.01412
7210.49936	1.40083	0.01411
7208.99925	1.40081	0.01407
7207.49914	1.40079	0.01403
7205.99903	1.40076	0.014
7204.49892	1.40072	0.014
7202.99881	1.40067	0.01404
7201.49869	1.40063	0.01412
7199.99858	1.40063	0.0142
7198.49847	1.40064	0.01428
7196.99836	1.40066	0.01434
7195.49825	1.40069	0.01435
7193.99813	1.40072	0.01435
7192.49802	1.40076	0.01432
7190.99791	1.40079	0.0143
7189.4978	1.40082	0.01428
7187.99769	1.40083	0.01425
7186.49758	1.40083	0.01422
7184.99746	1.40081	0.01417
7183.49735	1.40078	0.01412
7181.99724	1.40075	0.01408
7180.49713	1.40072	0.01407
7178.99702	1.4007	0.01409
7177.4969	1.40067	0.01414
7175.99679	1.40066	0.01418
7174.49668	1.40067	0.01423
7172.99657	1.40068	0.01426
7171.49646	1.4007	0.01425
7169.99635	1.4007	0.01421
7168.49623	1.4007	0.01416
7166.99612	1.40069	0.01412
7165.49601	1.40067	0.01409
7163.9959	1.40065	0.01407
7162.49579	1.40062	0.01407
7160.99567	1.40059	0.0141
7159.49556	1.40056	0.01415
7157.99545	1.40056	0.01419
7156.49534	1.40057	0.01424
7154.99523	1.4006	0.01429
7153.49512	1.40062	0.0143
7151.995	1.40065	0.0143
7150.49489	1.40068	0.01427
7148.99478	1.40069	0.01421
7147.49467	1.40069	0.01413
7145.99456	1.40068	0.01407
7144.49444	1.40065	0.01402
7142.99433	1.4006	0.014
7141.49422	1.40055	0.014
7139.99411	1.40051	0.01402
7138.494	1.40047	0.01405
7136.99389	1.40044	0.01409
7135.49377	1.40042	0.01413
7133.99366	1.4004	0.01416
7132.49355	1.4004	0.01419
7130.99344	1.40041	0.01422
7129.49333	1.40042	0.01425
7127.99321	1.40044	0.01427
7126.4931	1.40046	0.0143
7124.99299	1.40048	0.01431
7123.49288	1.4005	0.01431
7121.99277	1.40051	0.01429
7120.49266	1.40053	0.01426
7118.99254	1.40053	0.01424
7117.49243	1.40053	0.01422
7115.99232	1.40054	0.01422
7114.49221	1.40054	0.01424
7112.9921	1.40055	0.01427
7111.49198	1.40057	0.01427
7109.99187	1.40058	0.01425
7108.49176	1.40058	0.01422
7106.99165	1.40058	0.01416
7105.49154	1.40057	0.01412
7103.99143	1.40055	0.01408
7102.49131	1.40052	0.01407
7100.9912	1.40049	0.01406
7099.49109	1.40047	0.01406
7097.99098	1.40044	0.01408
7096.49087	1.40041	0.01409
7094.99076	1.40039	0.01412
7093.49064	1.40038	0.01415
7091.99053	1.40038	0.01416
7090.49042	1.40039	0.01419
7088.99031	1.40039	0.0142
7087.4902	1.4004	0.01422
7085.99008	1.40041	0.01422
7084.48997	1.40042	0.01422
7082.98986	1.40044	0.01422
7081.48975	1.40044	0.0142
7079.98964	1.40044	0.01418
7078.48953	1.40044	0.01416
7076.98941	1.40043	0.01415
7075.4893	1.40043	0.01414
7073.98919	1.40042	0.01415
7072.48908	1.40042	0.01416
7070.98897	1.40042	0.01418
7069.48885	1.40042	0.01418
7067.98874	1.40042	0.01417
7066.48863	1.40041	0.01414
7064.98852	1.4004	0.01412
7063.48841	1.40038	0.0141
7061.9883	1.40038	0.0141
7060.48818	1.40037	0.01411
7058.98807	1.40037	0.01414
7057.48796	1.40036	0.01417
7055.98785	1.40037	0.0142
7054.48774	1.40038	0.01422
7052.98762	1.40039	0.01421
7051.48751	1.40041	0.0142
7049.9874	1.40043	0.01416
7048.48729	1.40043	0.01413
7046.98718	1.40043	0.01411
7045.48707	1.40043	0.01411
7043.98695	1.40043	0.01411
7042.48684	1.40044	0.01411
7040.98673	1.40044	0.01411
7039.48662	1.40044	0.0141
7037.98651	1.40044	0.01409
7036.48639	1.40044	0.01406
7034.98628	1.40044	0.01401
7033.48617	1.40042	0.01397
7031.98606	1.4004	0.01394
7030.48595	1.40037	0.01391
7028.98584	1.40033	0.01389
7027.48572	1.4003	0.0139
7025.98561	1.40027	0.01392
7024.4855	1.40025	0.01394
7022.98539	1.40022	0.01398
7021.48528	1.40021	0.014
7019.98516	1.4002	0.01402
7018.48505	1.40021	0.01402
7016.98494	1.40022	0.01404
7015.48483	1.40023	0.01405
7013.98472	1.40024	0.01405
7012.48461	1.40025	0.01404
7010.98449	1.40025	0.01404
7009.48438	1.40026	0.01401
7007.98427	1.40026	0.01398
7006.48416	1.40025	0.01395
7004.98405	1.40025	0.01394
7003.48393	1.40023	0.01393
7001.98382	1.40021	0.01391
7000.48371	1.40019	0.01391
6998.9836	1.40016	0.01389
6997.48349	1.40013	0.01388
6995.98338	1.40009	0.01387
6994.48326	1.40007	0.01388
6992.98315	1.40004	0.0139
6991.48304	1.40003	0.01393
6989.98293	1.40001	0.01398
6988.48282	1.40002	0.01402
6986.9827	1.40002	0.01404
6985.48259	1.40003	0.01406
6983.98248	1.40004	0.01405
6982.48237	1.40005	0.01404
6980.98226	1.40005	0.01402
6979.48215	1.40004	0.014
6977.98203	1.40004	0.01399
6976.48192	1.40002	0.01398
6974.98181	1.39999	0.014
6973.4817	1.39998	0.01401
6971.98159	1.39998	0.01405
6970.48147	1.39998	0.01408
6968.98136	1.4	0.01412
6967.48125	1.40001	0.01414
6965.98114	1.40004	0.01416
6964.48103	1.40006	0.01415
6962.98092	1.40009	0.01413
6961.4808	1.40011	0.0141
6959.98069	1.40012	0.01407
6958.48058	1.40014	0.01404
6956.98047	1.40014	0.01402
6955.48036	1.40013	0.01399
6953.98024	1.40013	0.01397
6952.48013	1.40011	0.01395
6950.98002	1.40009	0.01392
6949.47991	1.40007	0.01389
6947.9798	1.40004	0.01386
6946.47969	1.4	0.01384
6944.97957	1.39996	0.01384
6943.47946	1.39993	0.01384
6941.97935	1.39989	0.01387
6940.47924	1.39988	0.01392
6938.97913	1.39987	0.01397
6937.47901	1.39987	0.01401
6935.9789	1.39988	0.01404
6934.47879	1.3999	0.01406
6932.97868	1.39991	0.01405
6931.47857	1.39993	0.01403
6929.97846	1.39994	0.01401
6928.47834	1.39994	0.01397
6926.97823	1.39993	0.01395
6925.47812	1.39991	0.01393
6923.97801	1.39988	0.01393
6922.4779	1.39987	0.01394
6920.97778	1.39987	0.01396
6919.47767	1.39986	0.01398
6917.97756	1.39986	0.01401
6916.47745	1.39986	0.01403
6914.97734	1.39987	0.01404
6913.47723	1.39989	0.01404
6911.97711	1.39991	0.01402
6910.477	1.39991	0.01399
6908.97689	1.39991	0.01396
6907.47678	1.39989	0.01393
6905.97667	1.39989	0.01391
6904.47656	1.39986	0.01389
6902.97644	1.39984	0.01388
6901.47633	1.3998	0.01387
6899.97622	1.39976	0.01387
6898.47611	1.39973	0.01388
6896.976	1.39972	0.01391
6895.47588	1.3997	0.01395
6893.97577	1.39969	0.01401
6892.47566	1.3997	0.01405
6890.97555	1.39971	0.01409
6889.47544	1.39973	0.01411
6887.97533	1.39976	0.01411
6886.47521	1.39977	0.0141
6884.9751	1.39979	0.01408
6883.47499	1.39981	0.01407
6881.97488	1.39983	0.01407
6880.47477	1.39985	0.01408
6878.97465	1.39985	0.01408
6877.47454	1.39987	0.01407
6875.97443	1.39988	0.01407
6874.47432	1.3999	0.01404
6872.97421	1.39991	0.01401
6871.4741	1.39992	0.01397
6869.97398	1.39992	0.01396
6868.47387	1.39992	0.01394
6866.97376	1.39993	0.01392
6865.47365	1.39992	0.01389
6863.97354	1.39991	0.01386
6862.47342	1.39991	0.01382
6860.97331	1.39988	0.01378
6859.4732	1.39985	0.01373
6857.97309	1.39981	0.01368
6856.47298	1.39976	0.01366
6854.97287	1.39971	0.01363
6853.47275	1.39965	0.01362
6851.97264	1.39959	0.01363
6850.47253	1.39953	0.01366
6848.97242	1.39949	0.01372
6847.47231	1.39946	0.01376
6845.97219	1.39944	0.01382
6844.47208	1.39943	0.01387
6842.97197	1.39942	0.0139
6841.47186	1.39943	0.01393
6839.97175	1.39944	0.01396
6838.47164	1.39944	0.01397
6836.97152	1.39945	0.01399
6835.47141	1.39946	0.014
6833.9713	1.39947	0.01401
6832.47119	1.39947	0.01401
6830.97108	1.39947	0.01403
6829.47096	1.39947	0.01404
6827.97085	1.39948	0.01407
6826.47074	1.3995	0.01409
6824.97063	1.39952	0.0141
6823.47052	1.39954	0.01412
6821.97041	1.39955	0.01412
6820.47029	1.39958	0.01413
6818.97018	1.3996	0.01413
6817.47007	1.39963	0.01412
6815.96996	1.39966	0.01411
6814.46985	1.39967	0.01409
6812.96973	1.39968	0.01406
6811.46962	1.39969	0.01403
6809.96951	1.39969	0.01399
6808.4694	1.39968	0.01395
6806.96929	1.39967	0.01393
6805.46918	1.39966	0.01392
6803.96906	1.39964	0.01391
6802.46895	1.39962	0.01392
6800.96884	1.39962	0.01393
6799.46873	1.39961	0.01393
6797.96862	1.3996	0.01393
6796.4685	1.39959	0.01391
6794.96839	1.39959	0.0139
6793.46828	1.39957	0.01387
6791.96817	1.39956	0.01387
6790.46806	1.39954	0.01387
6788.96795	1.39952	0.01387
6787.46783	1.39952	0.01389
6785.96772	1.39951	0.01392
6784.46761	1.39951	0.01393
6782.9675	1.39951	0.01395
6781.46739	1.39952	0.01395
6779.96727	1.39953	0.01395
6778.46716	1.39954	0.01395
6776.96705	1.39955	0.01392
6775.46694	1.39954	0.01391
6773.96683	1.39953	0.01388
6772.46672	1.39952	0.01386
6770.9666	1.39952	0.01386
6769.46649	1.39951	0.01386
6767.96638	1.3995	0.01386
6766.46627	1.39949	0.01388
6764.96616	1.39949	0.01389
6763.46604	1.39949	0.0139
6761.96593	1.39949	0.0139
6760.46582	1.3995	0.01388
6758.96571	1.39949	0.01385
6757.4656	1.39948	0.01383
6755.96549	1.39947	0.0138
6754.46537	1.39946	0.0138
6752.96526	1.39945	0.01381
6751.46515	1.39944	0.01382
6749.96504	1.39941	0.01381
6748.46493	1.39938	0.01381
6746.96481	1.39937	0.0138
6745.4647	1.39935	0.01379
6743.96459	1.39934	0.01379
6742.46448	1.39932	0.01381
6740.96437	1.39931	0.01385
6739.46426	1.39931	0.0139
6737.96414	1.39932	0.01393
6736.46403	1.39933	0.01394
6734.96392	1.39934	0.01394
6733.46381	1.39934	0.01392
6731.9637	1.39934	0.0139
6730.46358	1.39934	0.01387
6728.96347	1.39933	0.01385
6727.46336	1.39933	0.01385
6725.96325	1.39931	0.01388
6724.46314	1.39931	0.01392
6722.96303	1.39931	0.01396
6721.46291	1.39932	0.01399
6719.9628	1.39935	0.01401
6718.46269	1.39938	0.014
6716.96258	1.3994	0.01399
6715.46247	1.39943	0.01396
6713.96236	1.39943	0.01391
6712.46224	1.39943	0.01388
6710.96213	1.39942	0.01383
6709.46202	1.39939	0.0138
6707.96191	1.39936	0.01377
6706.4618	1.39933	0.01377
6704.96168	1.39929	0.01379
6703.46157	1.39927	0.01382
6701.96146	1.39926	0.01388
6700.46135	1.39926	0.01394
6698.96124	1.39929	0.014
6697.46113	1.39932	0.01403
6695.96101	1.39936	0.01405
6694.4609	1.39939	0.01404
6692.96079	1.39944	0.01402
6691.46068	1.39948	0.01397
6689.96057	1.39951	0.01392
6688.46045	1.39952	0.01388
6686.96034	1.39952	0.01382
6685.46023	1.3995	0.01377
6683.96012	1.39949	0.01373
6682.46001	1.39946	0.0137
6680.9599	1.39943	0.01368
6679.45978	1.39939	0.01367
6677.95967	1.39936	0.01369
6676.45956	1.39935	0.01371
6674.95945	1.39934	0.01375
6673.45934	1.39934	0.01376
6671.95922	1.39933	0.01377
6670.45911	1.39933	0.01377
6668.959	1.39933	0.01375
6667.45889	1.39933	0.01372
6665.95878	1.39932	0.01371
6664.45867	1.39932	0.01372
6662.95855	1.39932	0.01374
6661.45844	1.39934	0.01378
6659.95833	1.39936	0.01381
6658.45822	1.39938	0.01383
6656.95811	1.3994	0.01381
6655.45799	1.39942	0.01376
6653.95788	1.39942	0.01369
6652.45777	1.39942	0.01362
6650.95766	1.3994	0.01357
6649.45755	1.39938	0.01355
6647.95744	1.39935	0.01356
6646.45732	1.39934	0.0136
6644.95721	1.39932	0.01363
6643.4571	1.39932	0.01365
6641.95699	1.39933	0.01364
6640.45688	1.39933	0.01362
6638.95676	1.39933	0.01358
6637.45665	1.39932	0.01354
6635.95654	1.39932	0.01352
6634.45643	1.39931	0.01351
6632.95632	1.39931	0.01352
6631.45621	1.3993	0.01353
6629.95609	1.39929	0.01352
6628.45598	1.39928	0.01351
6626.95587	1.39927	0.0135
6625.45576	1.39926	0.01347
6623.95565	1.39924	0.01344
6622.45553	1.39923	0.01341
6620.95542	1.3992	0.0134
6619.45531	1.39918	0.0134
6617.9552	1.39916	0.01342
6616.45509	1.39916	0.01344
6614.95498	1.39915	0.01347
6613.45486	1.39915	0.01348
6611.95475	1.39916	0.01348
6610.45464	1.39915	0.01345
6608.95453	1.39914	0.01339
6607.45442	1.39912	0.01335
6605.9543	1.39907	0.0133
6604.45419	1.39903	0.01329
6602.95408	1.399	0.01331
6601.45397	1.39897	0.01336
6599.95386	1.39895	0.01343
6598.45375	1.39895	0.01351
6596.95363	1.39897	0.01358
6595.45352	1.39901	0.01361
6593.95341	1.39905	0.0136
6592.4533	1.39909	0.01357
6590.95319	1.39911	0.01351
6589.45307	1.39911	0.01344
6587.95296	1.3991	0.01339
6586.45285	1.39908	0.01335
6584.95274	1.39907	0.01333
6583.45263	1.39904	0.01334
6581.95252	1.39902	0.01336
6580.4524	1.39902	0.0134
6578.95229	1.39902	0.01345
6577.45218	1.39904	0.01347
6575.95207	1.39906	0.01347
6574.45196	1.39908	0.01344
6572.95184	1.39909	0.01339
6571.45173	1.39909	0.0133
6569.95162	1.39906	0.01322
6568.45151	1.39902	0.01317
6566.9514	1.39898	0.01316
6565.45129	1.39895	0.01318
6563.95117	1.39893	0.01324
6562.45106	1.39892	0.01329
6560.95095	1.39891	0.01334
6559.45084	1.39892	0.01337
6557.95073	1.39894	0.01336
6556.45061	1.39896	0.01332
6554.9505	1.39897	0.01327
6553.45039	1.39897	0.01322
6551.95028	1.39897	0.01317
6550.45017	1.39895	0.01314
6548.95006	1.39893	0.01314
6547.44994	1.3989	0.01313
6545.94983	1.39887	0.01313
6544.44972	1.39885	0.01312
6542.94961	1.39882	0.01309
6541.4495	1.39879	0.01308
6539.94938	1.39875	0.01306
6538.44927	1.39873	0.01307
6536.94916	1.39871	0.01311
6535.44905	1.3987	0.01314
6533.94894	1.3987	0.01318
6532.44883	1.3987	0.0132
6530.94871	1.3987	0.01321
6529.4486	1.39871	0.01319
6527.94849	1.39871	0.01316
6526.44838	1.39871	0.01313
6524.94827	1.39871	0.01311
6523.44816	1.39869	0.0131
6521.94804	1.39867	0.01309
6520.44793	1.39865	0.01308
6518.94782	1.39862	0.01308
6517.44771	1.39861	0.01308
6515.9476	1.39858	0.01308
6514.44748	1.39857	0.01308
6512.94737	1.39856	0.0131
6511.44726	1.39856	0.01312
6509.94715	1.39855	0.01314
6508.44704	1.39855	0.01314
6506.94693	1.39854	0.01314
6505.44681	1.39853	0.01311
6503.9467	1.39853	0.01309
6502.44659	1.39851	0.01307
6500.94648	1.39849	0.01305
6499.44637	1.39845	0.01306
6497.94625	1.39844	0.01309
6496.44614	1.39843	0.01312
6494.94603	1.39842	0.01315
6493.44592	1.39842	0.01319
6491.94581	1.39843	0.01322
6490.4457	1.39845	0.01323
6488.94558	1.39847	0.01323
6487.44547	1.3985	0.01323
6485.94536	1.39852	0.0132
6484.44525	1.39853	0.01317
6482.94514	1.39853	0.01312
6481.44502	1.39853	0.01309
6479.94491	1.39851	0.01306
6478.4448	1.39849	0.01303
6476.94469	1.39847	0.01302
6475.44458	1.39844	0.01303
6473.94447	1.39843	0.01304
6472.44435	1.39842	0.01305
6470.94424	1.39841	0.01306
6469.44413	1.39841	0.01308
6467.94402	1.39841	0.01308
6466.44391	1.39842	0.01307
6464.94379	1.39843	0.01306
6463.44368	1.39843	0.01303
6461.94357	1.39842	0.013
6460.44346	1.39841	0.01296
6458.94335	1.39838	0.01292
6457.44324	1.39835	0.01289
6455.94312	1.39832	0.01287
6454.44301	1.39829	0.01286
6452.9429	1.39825	0.01288
6451.44279	1.39823	0.01292
6449.94268	1.39821	0.01295
6448.44256	1.3982	0.01298
6446.94245	1.3982	0.01299
6445.44234	1.3982	0.01298
6443.94223	1.39819	0.01295
6442.44212	1.39816	0.01292
6440.94201	1.39815	0.01289
6439.44189	1.39813	0.01289
6437.94178	1.39811	0.01292
6436.44167	1.39809	0.01295
6434.94156	1.39808	0.013
6433.44145	1.39809	0.01303
6431.94133	1.3981	0.01306
6430.44122	1.3981	0.01305
6428.94111	1.39811	0.01302
6427.441	1.39811	0.01299
6425.94089	1.3981	0.01295
6424.44078	1.39808	0.01293
6422.94066	1.39807	0.01292
6421.44055	1.39804	0.01293
6419.94044	1.39802	0.01295
6418.44033	1.398	0.01299
6416.94022	1.398	0.01302
6415.4401	1.39801	0.01305
6413.93999	1.39801	0.01306
6412.43988	1.39803	0.01308
6410.93977	1.39805	0.01307
6409.43966	1.39807	0.01306
6407.93955	1.39808	0.01302
6406.43943	1.39808	0.01297
6404.93932	1.39806	0.01293
6403.43921	1.39805	0.01291
6401.9391	1.39802	0.0129
6400.43899	1.398	0.01289
6398.93887	1.39797	0.0129
6397.43876	1.39794	0.01292
6395.93865	1.39793	0.01293
6394.43854	1.39792	0.01296
6392.93843	1.39792	0.01297
6391.43832	1.39793	0.01299
6389.9382	1.39793	0.01301
6388.43809	1.39795	0.01301
6386.93798	1.39795	0.013
6385.43787	1.39796	0.01297
6383.93776	1.39796	0.01295
6382.43764	1.39795	0.01293
6380.93753	1.39795	0.01291
6379.43742	1.39794	0.0129
6377.93731	1.39793	0.01291
6376.4372	1.39793	0.01292
6374.93709	1.39792	0.01292
6373.43697	1.39792	0.01291
6371.93686	1.39791	0.01289
6370.43675	1.3979	0.01287
6368.93664	1.39789	0.01285
6367.43653	1.39787	0.01282
6365.93641	1.39786	0.01282
6364.4363	1.39783	0.01282
6362.93619	1.39782	0.01283
6361.43608	1.3978	0.01283
6359.93597	1.39777	0.01283
6358.43586	1.39776	0.01284
6356.93574	1.39776	0.01286
6355.43563	1.39776	0.01287
6353.93552	1.39777	0.0129
6352.43541	1.39777	0.01291
6350.9353	1.39779	0.01293
6349.43518	1.3978	0.01293
6347.93507	1.39782	0.01291
6346.43496	1.39784	0.01289
6344.93485	1.39785	0.01286
6343.43474	1.39785	0.01283
6341.93463	1.39785	0.0128
6340.43451	1.39785	0.01277
6338.9344	1.39784	0.01273
6337.43429	1.39781	0.0127
6335.93418	1.39779	0.01268
6334.43407	1.39776	0.01265
6332.93395	1.39774	0.01264
6331.43384	1.39772	0.01263
6329.93373	1.39769	0.01263
6328.43362	1.39767	0.01263
6326.93351	1.39764	0.01262
6325.4334	1.39761	0.01261
6323.93328	1.39758	0.01259
6322.43317	1.39755	0.01258
6320.93306	1.3975	0.01256
6319.43295	1.39747	0.01256
6317.93284	1.39743	0.01259
6316.43273	1.3974	0.01263
6314.93261	1.39739	0.01267
6313.4325	1.39738	0.01273
6311.93239	1.39738	0.01278
6310.43228	1.3974	0.01283
6308.93217	1.39742	0.01285
6307.43205	1.39745	0.01285
6305.93194	1.39747	0.01285
6304.43183	1.3975	0.01282
6302.93172	1.39751	0.01278
6301.43161	1.39752	0.01275
6299.9315	1.39752	0.01273
6298.43138	1.39752	0.01271
6296.93127	1.39751	0.01269
6295.43116	1.3975	0.01269
6293.93105	1.39749	0.01269
6292.43094	1.39747	0.01268
6290.93082	1.39747	0.01266
6289.43071	1.39745	0.01264
6287.9306	1.39745	0.01263
6286.43049	1.39744	0.01261
6284.93038	1.39743	0.01261
6283.43027	1.39742	0.01262
6281.93015	1.39742	0.01262
6280.43004	1.39741	0.01262
6278.92993	1.39741	0.0126
6277.42982	1.3974	0.01256
6275.92971	1.39738	0.01252
6274.42959	1.39735	0.01248
6272.92948	1.39732	0.01245
6271.42937	1.39728	0.01245
6269.92926	1.39724	0.01246
6268.42915	1.39721	0.01247
6266.92904	1.39717	0.01248
6265.42892	1.39714	0.01249
6263.92881	1.39712	0.0125
6262.4287	1.39709	0.01252
6260.92859	1.39708	0.01254
6259.42848	1.39706	0.01257
6257.92836	1.39706	0.0126
6256.42825	1.39706	0.01263
6254.92814	1.39706	0.01264
6253.42803	1.39706	0.01265
6251.92792	1.39707	0.01266
6250.42781	1.39707	0.01266
6248.92769	1.39709	0.01267
6247.42758	1.39709	0.01268
6245.92747	1.3971	0.01268
6244.42736	1.39711	0.01268
6242.92725	1.39712	0.01267
6241.42713	1.39713	0.01265
6239.92702	1.39713	0.01263
6238.42691	1.39711	0.0126
6236.9268	1.3971	0.01258
6235.42669	1.39709	0.01256
6233.92658	1.39708	0.01256
6232.42646	1.39706	0.01256
6230.92635	1.39705	0.01257
6229.42624	1.39704	0.0126
6227.92613	1.39704	0.01261
6226.42602	1.39705	0.01263
6224.9259	1.39707	0.01264
6223.42579	1.39708	0.01262
6221.92568	1.39708	0.0126
6220.42557	1.39708	0.01256
6218.92546	1.39707	0.01252
6217.42535	1.39707	0.01248
6215.92523	1.39704	0.01245
6214.42512	1.39701	0.01245
6212.92501	1.39699	0.01246
6211.4249	1.39697	0.01248
6209.92479	1.39697	0.01251
6208.42467	1.39698	0.01254
6206.92456	1.39698	0.01255
6205.42445	1.39699	0.01254
6203.92434	1.397	0.01251
6202.42423	1.397	0.01246
6200.92412	1.397	0.01242
6199.424	1.39697	0.01237
6197.92389	1.39695	0.01234
6196.42378	1.39693	0.01234
6194.92367	1.3969	0.01236
6193.42356	1.39689	0.01238
6191.92344	1.39687	0.0124
6190.42333	1.39687	0.01241
6188.92322	1.39686	0.0124
6187.42311	1.39686	0.01239
6185.923	1.39686	0.01236
6184.42289	1.39684	0.01233
6182.92277	1.39683	0.01231
6181.42266	1.39681	0.01229
6179.92255	1.3968	0.01228
6178.42244	1.39677	0.01228
6176.92233	1.39676	0.01228
6175.42221	1.39674	0.01229
6173.9221	1.39672	0.01229
6172.42199	1.3967	0.0123
6170.92188	1.3967	0.0123
6169.42177	1.39668	0.01228
6167.92166	1.39666	0.01225
6166.42154	1.39664	0.01224
6164.92143	1.39661	0.01224
6163.42132	1.39659	0.01225
6161.92121	1.39657	0.01227
6160.4211	1.39657	0.0123
6158.92098	1.39655	0.01232
6157.42087	1.39654	0.01233
6155.92076	1.39654	0.01232
6154.42065	1.39654	0.01231
6152.92054	1.39653	0.01231
6151.42043	1.39653	0.0123
6149.92031	1.39653	0.01231
6148.4202	1.39652	0.01232
6146.92009	1.39652	0.01233
6145.41998	1.39653	0.01235
6143.91987	1.39654	0.01235
6142.41975	1.39655	0.01234
6140.91964	1.39655	0.01232
6139.41953	1.39656	0.0123
6137.91942	1.39656	0.01226
6136.41931	1.39655	0.01223
6134.9192	1.39654	0.01221
6133.41908	1.39653	0.0122
6131.91897	1.39651	0.01218
6130.41886	1.39648	0.01217
6128.91875	1.39647	0.01217
6127.41864	1.39644	0.01216
6125.91853	1.39643	0.01215
6124.41841	1.39641	0.01214
6122.9183	1.3964	0.01214
6121.41819	1.39638	0.01214
6119.91808	1.39637	0.01214
6118.41797	1.39635	0.01214
6116.91785	1.39633	0.01214
6115.41774	1.39632	0.01212
6113.91763	1.3963	0.0121
6112.41752	1.39628	0.0121
6110.91741	1.39625	0.0121
6109.4173	1.39624	0.01211
6107.91718	1.39623	0.01214
6106.41707	1.39622	0.01216
6104.91696	1.39622	0.01218
6103.41685	1.39622	0.01219
6101.91674	1.39622	0.01218
6100.41662	1.39622	0.01216
6098.91651	1.39622	0.01214
6097.4164	1.39622	0.01212
6095.91629	1.39622	0.01212
6094.41618	1.39621	0.01211
6092.91607	1.3962	0.01211
6091.41595	1.39618	0.0121
6089.91584	1.39618	0.01208
6088.41573	1.39616	0.01207
6086.91562	1.39614	0.01205
6085.41551	1.39612	0.01205
6083.91539	1.3961	0.01205
6082.41528	1.39609	0.01206
6080.91517	1.39607	0.01208
6079.41506	1.39607	0.01209
6077.91495	1.39606	0.0121
6076.41484	1.39606	0.0121
6074.91472	1.39607	0.01212
6073.41461	1.39609	0.01214
6071.9145	1.3961	0.01214
6070.41439	1.39613	0.01214
6068.91428	1.39615	0.01212
6067.41416	1.39617	0.01209
6065.91405	1.39618	0.01204
6064.41394	1.39619	0.01199
6062.91383	1.39618	0.01194
6061.41372	1.39616	0.01189
6059.91361	1.39614	0.01182
6058.41349	1.39609	0.01177
6056.91338	1.39605	0.01173
6055.41327	1.39599	0.0117
6053.91316	1.39593	0.01169
6052.41305	1.39588	0.0117
6050.91293	1.39583	0.01173
6049.41282	1.3958	0.01176
6047.91271	1.39577	0.01179
6046.4126	1.39574	0.01181
6044.91249	1.39572	0.01182
6043.41238	1.3957	0.01183
6041.91226	1.39569	0.01184
6040.41215	1.39569	0.01186
6038.91204	1.39568	0.01188
6037.41193	1.39569	0.0119
6035.91182	1.39569	0.01193
6034.4117	1.39572	0.01194
6032.91159	1.39574	0.01194
6031.41148	1.39575	0.01193
6029.91137	1.39576	0.0119
6028.41126	1.39576	0.01186
6026.91115	1.39576	0.0118
6025.41103	1.39576	0.01176
6023.91092	1.39574	0.01172
6022.41081	1.3957	0.0117
6020.9107	1.39567	0.01169
6019.41059	1.39564	0.01168
6017.91047	1.39562	0.01168
6016.41036	1.3956	0.01168
6014.91025	1.39558	0.01168
6013.41014	1.39555	0.01167
6011.91003	1.39552	0.01166
6010.40992	1.39551	0.01165
6008.9098	1.3955	0.01164
6007.40969	1.39547	0.01162
6005.90958	1.39544	0.0116
6004.40947	1.3954	0.01159
6002.90936	1.39536	0.01158
6001.40924	1.39532	0.01158
5999.90913	1.39529	0.0116
5998.40902	1.39526	0.01162
5996.90891	1.39525	0.01165
5995.4088	1.39523	0.01168
5993.90869	1.39522	0.01171
5992.40857	1.39521	0.01174
5990.90846	1.39522	0.01175
5989.40835	1.39523	0.01174
5987.90824	1.39523	0.01172
5986.40813	1.39522	0.0117
5984.90801	1.39519	0.01167
5983.4079	1.39518	0.01167
5981.90779	1.39516	0.01167
5980.40768	1.39515	0.01168
5978.90757	1.39513	0.01169
5977.40746	1.39512	0.0117
5975.90734	1.3951	0.01172
5974.40723	1.3951	0.01173
5972.90712	1.3951	0.01174
5971.40701	1.39511	0.01174
5969.9069	1.39511	0.01173
5968.40678	1.39511	0.01173
5966.90667	1.39511	0.01172
5965.40656	1.39511	0.01171
5963.90645	1.39512	0.0117
5962.40634	1.39511	0.01168
5960.90623	1.39511	0.01166
5959.40611	1.39509	0.01163
5957.906	1.39507	0.0116
5956.40589	1.39504	0.01156
5954.90578	1.39501	0.01153
5953.40567	1.39497	0.01151
5951.90555	1.39494	0.01152
5950.40544	1.39489	0.01153
5948.90533	1.39486	0.01156
5947.40522	1.39483	0.01159
5945.90511	1.39481	0.01162
5944.405	1.3948	0.01164
5942.90488	1.39481	0.01166
5941.40477	1.39482	0.01169
5939.90466	1.39483	0.01171
5938.40455	1.39485	0.01173
5936.90444	1.39488	0.01174
5935.40433	1.3949	0.01172
5933.90421	1.39491	0.01168
5932.4041	1.39492	0.01163
5930.90399	1.39493	0.01159
5929.40388	1.39493	0.01154
5927.90377	1.39491	0.01151
5926.40365	1.3949	0.01149
5924.90354	1.39487	0.01146
5923.40343	1.39484	0.01143
5921.90332	1.3948	0.01139
5920.40321	1.39476	0.01134
5918.9031	1.3947	0.0113
5917.40298	1.39465	0.01128
5915.90287	1.3946	0.01129
5914.40276	1.39454	0.01131
5912.90265	1.3945	0.01134
5911.40254	1.39446	0.01138
5909.90242	1.39443	0.01142
5908.40231	1.39441	0.01146
5906.9022	1.3944	0.01148
5905.40209	1.3944	0.01151
5903.90198	1.39441	0.01154
5902.40187	1.39442	0.01155
5900.90175	1.39443	0.01155
5899.40164	1.39444	0.01155
5897.90153	1.39444	0.01152
5896.40142	1.39443	0.01148
5894.90131	1.39441	0.01145
5893.40119	1.3944	0.01144
5891.90108	1.39437	0.01143
5890.40097	1.39435	0.01144
5888.90086	1.39433	0.01146
5887.40075	1.39431	0.01148
5885.90064	1.39431	0.01149
5884.40052	1.3943	0.0115
5882.90041	1.3943	0.0115
5881.4003	1.3943	0.01151
5879.90019	1.3943	0.0115
5878.40008	1.3943	0.01149
5876.89996	1.39429	0.01147
5875.39985	1.39428	0.01145
5873.89974	1.39426	0.01143
5872.39963	1.39425	0.01142
5870.89952	1.39423	0.01142
5869.39941	1.39422	0.01142
5867.89929	1.39421	0.01144
5866.39918	1.39421	0.01145
5864.89907	1.39421	0.01145
5863.39896	1.39421	0.01144
5861.89885	1.3942	0.01142
5860.39873	1.39419	0.01139
5858.89862	1.39419	0.01138
5857.39851	1.39417	0.01135
5855.8984	1.39416	0.01131
5854.39829	1.39413	0.01129
5852.89818	1.3941	0.01127
5851.39806	1.39407	0.01125
5849.89795	1.39403	0.01125
5848.39784	1.39401	0.01125
5846.89773	1.39398	0.01127
5845.39762	1.39397	0.01128
5843.8975	1.39394	0.01129
5842.39739	1.39392	0.01129
5840.89728	1.3939	0.01128
5839.39717	1.39389	0.01127
5837.89706	1.39387	0.01126
5836.39695	1.39384	0.01125
5834.89683	1.39383	0.01127
5833.39672	1.39381	0.01129
5831.89661	1.39381	0.01131
5830.3965	1.39381	0.01133
5828.89639	1.39381	0.01134
5827.39627	1.39381	0.01133
5825.89616	1.39381	0.0113
5824.39605	1.39379	0.01126
5822.89594	1.39378	0.01121
5821.39583	1.39375	0.01118
5819.89572	1.39372	0.01115
5818.3956	1.39368	0.01115
5816.89549	1.39364	0.01116
5815.39538	1.3936	0.0112
5813.89527	1.39357	0.01122
5812.39516	1.39355	0.01124
5810.89504	1.39353	0.01124
5809.39493	1.3935	0.01124
5807.89482	1.39348	0.01124
5806.39471	1.39347	0.01125
5804.8946	1.39346	0.01126
5803.39449	1.39346	0.0113
5801.89437	1.39346	0.01135
5800.39426	1.39347	0.01139
5798.89415	1.39349	0.01142
5797.39404	1.39352	0.01141
5795.89393	1.39354	0.01139
5794.39381	1.39355	0.01134
5792.8937	1.39356	0.01127
5791.39359	1.39355	0.01122
5789.89348	1.39353	0.01119
5788.39337	1.39351	0.01116
5786.89326	1.39347	0.01115
5785.39314	1.39344	0.01115
5783.89303	1.39341	0.01115
5782.39292	1.39338	0.01115
5780.89281	1.39336	0.01115
5779.3927	1.39333	0.01114
5777.89258	1.39332	0.01114
5776.39247	1.3933	0.01113
5774.89236	1.39327	0.01113
5773.39225	1.39325	0.01113
5771.89214	1.39324	0.01113
5770.39203	1.39322	0.01113
5768.89191	1.3932	0.01113
5767.3918	1.39317	0.01112
5765.89169	1.39315	0.01112
5764.39158	1.39314	0.01112
5762.89147	1.39311	0.01114
5761.39135	1.39309	0.01114
5759.89124	1.39307	0.01116
5758.39113	1.39306	0.01116
5756.89102	1.39305	0.01118
5755.39091	1.39305	0.01118
5753.8908	1.39305	0.0112
5752.39068	1.39305	0.01123
5750.89057	1.39306	0.01123
5749.39046	1.39306	0.01123
5747.89035	1.39307	0.01121
5746.39024	1.39307	0.01118
5744.89013	1.39307	0.01115
5743.39001	1.39307	0.01113
5741.8899	1.39307	0.01112
5740.38979	1.39307	0.01112
5738.88968	1.39307	0.01112
5737.38957	1.39307	0.01111
5735.88945	1.39306	0.01107
5734.38934	1.39304	0.01101
5732.88923	1.393	0.01094
5731.38912	1.39297	0.01086
5729.88901	1.3929	0.01081
5728.3889	1.39283	0.01079
5726.88878	1.39277	0.0108
5725.38867	1.3927	0.01085
5723.88856	1.39266	0.01091
5722.38845	1.39263	0.01098
5720.88834	1.39262	0.01103
5719.38822	1.39262	0.01108
5717.88811	1.39263	0.01109
5716.388	1.39265	0.0111
5714.88789	1.39267	0.01109
5713.38778	1.39268	0.01106
5711.88767	1.39267	0.01103
5710.38755	1.39266	0.011
5708.88744	1.39264	0.01097
5707.38733	1.39262	0.01094
5705.88722	1.3926	0.01093
5704.38711	1.39257	0.01093
5702.88699	1.39255	0.01095
5701.38688	1.39252	0.01097
5699.88677	1.39252	0.01098
5698.38666	1.39251	0.01098
5696.88655	1.39251	0.01098
5695.38644	1.3925	0.01095
5693.88632	1.39249	0.01094
5692.38621	1.39247	0.01091
5690.8861	1.39246	0.0109
5689.38599	1.39243	0.01087
5687.88588	1.3924	0.01085
5686.38576	1.39237	0.01085
5684.88565	1.39234	0.01085
5683.38554	1.39231	0.01085
5681.88543	1.39228	0.01086
5680.38532	1.39226	0.01087
5678.88521	1.39224	0.01089
5677.38509	1.39222	0.01089
5675.88498	1.3922	0.0109
5674.38487	1.39218	0.0109
5672.88476	1.39217	0.01089
5671.38465	1.39214	0.01087
5669.88453	1.39212	0.01087
5668.38442	1.3921	0.01088
5666.88431	1.39209	0.01091
5665.3842	1.39208	0.01094
5663.88409	1.39208	0.01098
5662.38398	1.39209	0.01101
5660.88386	1.39211	0.01102
5659.38375	1.39212	0.01101
5657.88364	1.39213	0.01097
5656.38353	1.39213	0.01092
5654.88342	1.39211	0.01087
5653.3833	1.39211	0.01083
5651.88319	1.39208	0.01081
5650.38308	1.39206	0.01081
5648.88297	1.39203	0.01082
5647.38286	1.39201	0.01084
5645.88275	1.392	0.01085
5644.38263	1.39198	0.01083
5642.88252	1.39197	0.01079
5641.38241	1.39193	0.01076
5639.8823	1.3919	0.01071
5638.38219	1.39186	0.01069
5636.88207	1.39183	0.01069
5635.38196	1.3918	0.01072
5633.88185	1.39177	0.01076
5632.38174	1.39175	0.0108
5630.88163	1.39174	0.01083
5629.38152	1.39174	0.01085
5627.8814	1.39175	0.01085
5626.38129	1.39175	0.01085
5624.88118	1.39176	0.01083
5623.38107	1.39176	0.0108
5621.88096	1.39176	0.01076
5620.38084	1.39174	0.01072
5618.88073	1.39171	0.0107
5617.38062	1.39169	0.01067
5615.88051	1.39166	0.01067
5614.3804	1.39162	0.01067
5612.88029	1.3916	0.01068
5611.38017	1.39157	0.0107
5609.88006	1.39156	0.01071
5608.37995	1.39155	0.01072
5606.87984	1.39154	0.01072
5605.37973	1.39154	0.01072
5603.87961	1.39153	0.0107
5602.3795	1.39153	0.01068
5600.87939	1.39151	0.01066
5599.37928	1.39151	0.01063
5597.87917	1.39147	0.01059
5596.37906	1.39144	0.01056
5594.87894	1.3914	0.01054
5593.37883	1.39137	0.01054
5591.87872	1.39134	0.01055
5590.37861	1.39131	0.01057
5588.8785	1.39129	0.01059
5587.37838	1.39125	0.0106
5585.87827	1.39124	0.0106
5584.37816	1.39122	0.01059
5582.87805	1.39121	0.01058
5581.37794	1.39119	0.01056
5579.87783	1.39116	0.01055
5578.37771	1.39113	0.01056
5576.8776	1.39111	0.01057
5575.37749	1.3911	0.01058
5573.87738	1.39108	0.0106
5572.37727	1.39107	0.01061
5570.87715	1.39105	0.01061
5569.37704	1.39105	0.01061
5567.87693	1.39104	0.01061
5566.37682	1.39103	0.01059
5564.87671	1.39103	0.01058
5563.3766	1.39101	0.01056
5561.87648	1.39099	0.01055
5560.37637	1.39096	0.01053
5558.87626	1.39094	0.01053
5557.37615	1.39091	0.01052
5555.87604	1.39089	0.01052
5554.37592	1.39087	0.01052
5552.87581	1.39084	0.01053
5551.3757	1.39083	0.01053
5549.87559	1.39081	0.01055
5548.37548	1.3908	0.01055
5546.87537	1.39079	0.01055
5545.37525	1.39077	0.01055
5543.87514	1.39075	0.01053
5542.37503	1.39074	0.01052
5540.87492	1.39072	0.01051
5539.37481	1.39071	0.01052
5537.8747	1.3907	0.01052
5536.37458	1.39068	0.01054
5534.87447	1.39067	0.01054
5533.37436	1.39066	0.01053
5531.87425	1.39065	0.01051
5530.37414	1.39063	0.01049
5528.87402	1.39062	0.01047
5527.37391	1.3906	0.01047
5525.8738	1.39058	0.01047
5524.37369	1.39057	0.01047
5522.87358	1.39054	0.01047
5521.37347	1.39053	0.01046
5519.87335	1.3905	0.01045
5518.37324	1.39048	0.01045
5516.87313	1.39046	0.01044
5515.37302	1.39045	0.01045
5513.87291	1.39045	0.01048
5512.37279	1.39045	0.0105
5510.87268	1.39045	0.01052
5509.37257	1.39047	0.01052
5507.87246	1.39048	0.01051
5506.37235	1.39049	0.01047
5504.87224	1.39049	0.01042
5503.37212	1.39048	0.01036
5501.87201	1.39047	0.0103
5500.3719	1.39043	0.01025
5498.87179	1.39038	0.0102
5497.37168	1.39033	0.01017
5495.87156	1.39027	0.01014
5494.37145	1.39021	0.01013
5492.87134	1.39016	0.01015
5491.37123	1.3901	0.01018
5489.87112	1.39006	0.01022
5488.37101	1.39004	0.01026
5486.87089	1.39004	0.0103
5485.37078	1.39005	0.01034
5483.87067	1.39005	0.01035
5482.37056	1.39006	0.01034
5480.87045	1.39006	0.01033
5479.37033	1.39007	0.01029
5477.87022	1.39008	0.01024
5476.37011	1.39006	0.01018
5474.87	1.39003	0.01015
5473.36989	1.39001	0.01013
5471.86978	1.38998	0.01012
5470.36966	1.38996	0.01011
5468.86955	1.38992	0.01009
5467.36944	1.38986	0.01006
5465.86933	1.38981	0.01002
5464.36922	1.38975	0.00997
5462.8691	1.38969	0.00995
5461.36899	1.38964	0.00997
5459.86888	1.38959	0.01001
5458.36877	1.38955	0.01009
5456.86866	1.38953	0.01016
5455.36855	1.38951	0.01021
5453.86843	1.38951	0.01022
5452.36832	1.3895	0.01021
5450.86821	1.3895	0.01018
5449.3681	1.38949	0.01014
5447.86799	1.38948	0.01013
5446.36787	1.38946	0.01014
5444.86776	1.38945	0.01018
5443.36765	1.38944	0.01021
5441.86754	1.38944	0.01024
5440.36743	1.38944	0.01025
5438.86732	1.38945	0.01022
5437.3672	1.38945	0.01018
5435.86709	1.38942	0.01011
5434.36698	1.38939	0.01006
5432.86687	1.38936	0.01004
5431.36676	1.38933	0.01004
5429.86664	1.3893	0.01005
5428.36653	1.38927	0.01008
5426.86642	1.38924	0.01013
5425.36631	1.38925	0.01017
5423.8662	1.38926	0.0102
5422.36609	1.38928	0.01019
5420.86597	1.38929	0.01017
5419.36586	1.38929	0.01012
5417.86575	1.38928	0.01005
5416.36564	1.38926	0.00996
5414.86553	1.38921	0.00988
5413.36541	1.38915	0.00984
5411.8653	1.38909	0.00983
5410.36519	1.38903	0.00986
5408.86508	1.38898	0.00991
5407.36497	1.38897	0.00998
5405.86486	1.38895	0.01004
5404.36474	1.38896	0.01008
5402.86463	1.38897	0.01008
5401.36452	1.38898	0.01005
5399.86441	1.38898	0.00999
5398.3643	1.38899	0.00994
5396.86418	1.38899	0.00988
5395.36407	1.38896	0.00983
5393.86396	1.38892	0.00981
5392.36385	1.38886	0.00978
5390.86374	1.38882	0.00976
5389.36363	1.38878	0.00974
5387.86351	1.38875	0.00972
5386.3634	1.38869	0.00972
5384.86329	1.38864	0.00973
5383.36318	1.38859	0.00974
5381.86307	1.38857	0.00977
5380.36295	1.38855	0.00977
5378.86284	1.38852	0.00976
5377.36273	1.38847	0.00973
5375.86262	1.38842	0.00971
5374.36251	1.38839	0.0097
5372.8624	1.38835	0.00971
5371.36228	1.38831	0.00974
5369.86217	1.38827	0.00978
5368.36206	1.38823	0.00981
5366.86195	1.38821	0.00982
5365.36184	1.38821	0.00985
5363.86172	1.3882	0.00987
5362.36161	1.3882	0.00989
5360.8615	1.38819	0.00992
5359.36139	1.38819	0.00992
5357.86128	1.38821	0.00992
5356.36117	1.38822	0.0099
5354.86105	1.38823	0.00988
5353.36094	1.38822	0.00985
5351.86083	1.38819	0.00982
5350.36072	1.38819	0.00979
5348.86061	1.38819	0.00978
5347.3605	1.38817	0.00975
5345.86038	1.38813	0.0097
5344.36027	1.38808	0.00967
5342.86016	1.38805	0.00966
5341.36005	1.38803	0.00965
5339.85994	1.38802	0.00964
5338.35982	1.38799	0.00963
5336.85971	1.38793	0.00962
5335.3596	1.38789	0.00961
5333.85949	1.38785	0.00958
5332.35938	1.38781	0.00954
5330.85927	1.38777	0.00952
5329.35915	1.38771	0.00952
5327.85904	1.38766	0.00953
5326.35893	1.38762	0.00956
5324.85882	1.38759	0.0096
5323.35871	1.38757	0.00964
5321.85859	1.38756	0.00966
5320.35848	1.38755	0.00968
5318.85837	1.38755	0.00967
5317.35826	1.38754	0.00965
5315.85815	1.38754	0.00962
5314.35804	1.38752	0.00959
5312.85792	1.38749	0.00955
5311.35781	1.38746	0.00952
5309.8577	1.38742	0.00948
5308.35759	1.38736	0.00945
5306.85748	1.3873	0.00944
5305.35736	1.38724	0.00944
5303.85725	1.38719	0.00946
5302.35714	1.38715	0.00949
5300.85703	1.38712	0.00952
5299.35692	1.38709	0.00955
5297.85681	1.38706	0.00957
5296.35669	1.38704	0.00958
5294.85658	1.38703	0.00958
5293.35647	1.38701	0.00956
5291.85636	1.38698	0.00953
5290.35625	1.38694	0.00951
5288.85613	1.3869	0.0095
5287.35602	1.38685	0.0095
5285.85591	1.38681	0.00952
5284.3558	1.38677	0.00953
5282.85569	1.38673	0.00956
5281.35558	1.3867	0.00959
5279.85546	1.38666	0.00962
5278.35535	1.38665	0.00966
5276.85524	1.38666	0.0097
5275.35513	1.38667	0.00972
5273.85502	1.38668	0.00974
5272.3549	1.38668	0.00973
5270.85479	1.38666	0.0097
5269.35468	1.38664	0.00964
5267.85457	1.38662	0.00958
5266.35446	1.38659	0.00954
5264.85435	1.38654	0.00953
5263.35423	1.3865	0.00955
5261.85412	1.38644	0.00958
5260.35401	1.3864	0.00963
5258.8539	1.3864	0.00967
5257.35379	1.38638	0.00968
5255.85367	1.38637	0.00966
5254.35356	1.38633	0.00964
5252.85345	1.3863	0.00961
5251.35334	1.38627	0.00961
5249.85323	1.38624	0.00961
5248.35312	1.38621	0.00962
5246.853	1.38618	0.00964
5245.35289	1.38614	0.00967
5243.85278	1.38611	0.00969
5242.35267	1.3861	0.00972
5240.85256	1.3861	0.00975
5239.35244	1.3861	0.00976
5237.85233	1.38609	0.00976
5236.35222	1.38608	0.00975
5234.85211	1.38608	0.00973
5233.352	1.38606	0.00971
5231.85189	1.38604	0.00968
5230.35177	1.386	0.00967
5228.85166	1.38596	0.00965
5227.35155	1.38592	0.00965
5225.85144	1.38588	0.00965
5224.35133	1.38584	0.00967
5222.85121	1.38581	0.0097
5221.3511	1.3858	0.00974
5219.85099	1.38579	0.00979
5218.35088	1.38579	0.00983
5216.85077	1.38579	0.00985
5215.35066	1.38578	0.00984
5213.85054	1.38577	0.00979
5212.35043	1.38575	0.00974
5210.85032	1.38572	0.00969
5209.35021	1.38568	0.00967
5207.8501	1.38564	0.00968
5206.34998	1.3856	0.00973
5204.84987	1.38557	0.00981
5203.34976	1.38557	0.00988
5201.84965	1.38559	0.00995
5200.34954	1.38561	0.00997
5198.84943	1.38565	0.00997
5197.34931	1.38566	0.00993
5195.8492	1.38568	0.00988
5194.34909	1.38568	0.0098
5192.84898	1.38566	0.00973
5191.34887	1.38562	0.00967
5189.84875	1.38558	0.00964
5188.34864	1.38552	0.00965
5186.84853	1.38548	0.00966
5185.34842	1.38544	0.00971
5183.84831	1.38542	0.00976
5182.3482	1.3854	0.00979
5180.84808	1.3854	0.00982
5179.34797	1.38541	0.00982
5177.84786	1.38541	0.00982
5176.34775	1.38543	0.0098
5174.84764	1.38543	0.00977
5173.34752	1.38543	0.00976
5171.84741	1.38542	0.00972
5170.3473	1.38541	0.00967
5168.84719	1.38538	0.00963
5167.34708	1.38534	0.00959
5165.84697	1.38529	0.00955
5164.34685	1.38523	0.00954
5162.84674	1.38519	0.00954
5161.34663	1.38515	0.00957
5159.84652	1.38513	0.00962
5158.34641	1.38511	0.00968
5156.8463	1.38511	0.00973
5155.34618	1.38511	0.00975
5153.84607	1.38512	0.00975
5152.34596	1.38514	0.00972
5150.84585	1.38515	0.00966
5149.34574	1.38514	0.0096
5147.84562	1.38512	0.00955
5146.34551	1.3851	0.00953
5144.8454	1.38507	0.00952
5143.34529	1.38504	0.00951
5141.84518	1.385	0.00951
5140.34507	1.38497	0.00951
5138.84495	1.38494	0.0095
5137.34484	1.38491	0.00948
5135.84473	1.38489	0.00948
5134.34462	1.38487	0.00949
5132.84451	1.38487	0.0095
5131.34439	1.38487	0.00952
5129.84428	1.38488	0.00952
5128.34417	1.38488	0.00951
5126.84406	1.38487	0.00949
5125.34395	1.38487	0.00943
5123.84384	1.38485	0.00935
5122.34372	1.38481	0.00926
5120.84361	1.38475	0.0092
5119.3435	1.38469	0.00915
5117.84339	1.38461	0.00913
5116.34328	1.38455	0.00915
5114.84316	1.38448	0.0092
5113.34305	1.38444	0.00925
5111.84294	1.3844	0.0093
5110.34283	1.38438	0.00934
5108.84272	1.38437	0.00936
5107.34261	1.38437	0.00936
5105.84249	1.38437	0.00935
5104.34238	1.38437	0.00934
5102.84227	1.38437	0.00933
5101.34216	1.38437	0.00932
5099.84205	1.38436	0.00931
5098.34193	1.38435	0.00929
5096.84182	1.38433	0.00926
5095.34171	1.38431	0.00923
5093.8416	1.38428	0.00919
5092.34149	1.38425	0.00916
5090.84138	1.38421	0.00913
5089.34126	1.38417	0.00912
5087.84115	1.38413	0.00912
5086.34104	1.3841	0.00913
5084.84093	1.38408	0.00915
5083.34082	1.38406	0.00916
5081.8407	1.38404	0.00916
5080.34059	1.38402	0.00916
5078.84048	1.38401	0.00915
5077.34037	1.38399	0.00912
5075.84026	1.38398	0.0091
5074.34015	1.38396	0.00907
5072.84003	1.38393	0.00906
5071.33992	1.38392	0.00905
5069.83981	1.38391	0.00905
5068.3397	1.38391	0.00905
5066.83959	1.38389	0.00903
5065.33947	1.38388	0.009
5063.83936	1.38385	0.00896
5062.33925	1.38382	0.00888
5060.83914	1.38377	0.00881
5059.33903	1.38371	0.00873
5057.83892	1.38364	0.0087
5056.3388	1.38357	0.0087
5054.83869	1.38352	0.00874
5053.33858	1.38347	0.0088
5051.83847	1.38344	0.00886
5050.33836	1.38341	0.00889
5048.83824	1.3834	0.00889
5047.33813	1.38338	0.00885
5045.83802	1.38336	0.00881
5044.33791	1.38334	0.00877
5042.8378	1.3833	0.00873
5041.33769	1.38327	0.00871
5039.83757	1.38323	0.00871
5038.33746	1.38318	0.00871
5036.83735	1.38314	0.00873
5035.33724	1.3831	0.00874
5033.83713	1.38306	0.00874
5032.33701	1.38304	0.00874
5030.8369	1.38301	0.00873
5029.33679	1.38298	0.00871
5027.83668	1.38294	0.00871
5026.33657	1.38291	0.0087
5024.83646	1.38288	0.0087
5023.33634	1.38284	0.0087
5021.83623	1.3828	0.00871
5020.33612	1.38276	0.00872
5018.83601	1.38273	0.00875
5017.3359	1.38272	0.00876
5015.83578	1.38271	0.00879
5014.33567	1.3827	0.0088
5012.83556	1.38271	0.00883
5011.33545	1.38271	0.00884
5009.83534	1.38273	0.00883
5008.33523	1.38274	0.00881
5006.83511	1.38276	0.00878
5005.335	1.38277	0.00873
5003.83489	1.38276	0.00867
5002.33478	1.38275	0.00861
5000.83467	1.38273	0.00856
4999.33455	1.38269	0.00849
4997.83444	1.38264	0.00844
4996.33433	1.38259	0.0084
4994.83422	1.38253	0.00836
4993.33411	1.38246	0.00834
4991.834	1.38241	0.00834
4990.33388	1.38236	0.00834
4988.83377	1.38232	0.00835
4987.33366	1.38228	0.00836
4985.83355	1.38225	0.00837
4984.33344	1.38223	0.00836
4982.83332	1.38219	0.00835
4981.33321	1.38216	0.00832
4979.8331	1.38213	0.00828
4978.33299	1.38209	0.00825
4976.83288	1.38204	0.00821
4975.33277	1.38199	0.00819
4973.83265	1.38194	0.00819
4972.33254	1.3819	0.00821
4970.83243	1.38185	0.00824
4969.33232	1.38182	0.00826
4967.83221	1.38181	0.00827
4966.3321	1.38179	0.00828
4964.83198	1.38179	0.00827
4963.33187	1.38177	0.00824
4961.83176	1.38175	0.00821
4960.33165	1.38174	0.00818
4958.83154	1.38172	0.00814
4957.33142	1.38168	0.00808
4955.83131	1.38163	0.00804
4954.3312	1.38158	0.00799
4952.83109	1.38151	0.00797
4951.33098	1.38145	0.00795
4949.83087	1.3814	0.00796
4948.33075	1.38134	0.00798
4946.83064	1.3813	0.008
4945.33053	1.38127	0.00802
4943.83042	1.38125	0.00803
4942.33031	1.38122	0.00803
4940.83019	1.38121	0.00801
4939.33008	1.38118	0.00798
4937.82997	1.38115	0.00795
4936.32986	1.38111	0.00789
4934.82975	1.38105	0.00785
4933.32964	1.38099	0.00782
4931.82952	1.38093	0.0078
4930.32941	1.38087	0.00781
4928.8293	1.38081	0.00784
4927.32919	1.38076	0.00787
4925.82908	1.38073	0.00791
4924.32896	1.38073	0.00794
4922.82885	1.38072	0.00797
4921.32874	1.38071	0.00797
4919.82863	1.38071	0.00796
4918.32852	1.38071	0.00793
4916.82841	1.38072	0.00788
4915.32829	1.3807	0.00782
4913.82818	1.38067	0.00774
4912.32807	1.38061	0.00766
4910.82796	1.38054	0.0076
4909.32785	1.38048	0.00757
4907.82773	1.38041	0.00756
4906.32762	1.38034	0.00756
4904.82751	1.38027	0.00757
4903.3274	1.38021	0.00759
4901.82729	1.38016	0.00762
4900.32718	1.38014	0.00763
4898.82706	1.38011	0.00764
4897.32695	1.38008	0.00764
4895.82684	1.38005	0.00762
4894.32673	1.38002	0.00758
4892.82662	1.37999	0.00754
4891.3265	1.37994	0.00749
4889.82639	1.37988	0.00746
4888.32628	1.37982	0.00744
4886.82617	1.37975	0.00743
4885.32606	1.37969	0.00743
4883.82595	1.37964	0.00744
4882.32583	1.37959	0.00746
4880.82572	1.37953	0.00747
4879.32561	1.37949	0.00747
4877.8255	1.37945	0.00748
4876.32539	1.37941	0.00748
4874.82527	1.37937	0.00748
4873.32516	1.37934	0.00747
4871.82505	1.3793	0.00747
4870.32494	1.37927	0.00747
4868.82483	1.37923	0.00746
4867.32472	1.3792	0.00746
4865.8246	1.37917	0.00745
4864.32449	1.37913	0.00744
4862.82438	1.37909	0.00743
4861.32427	1.37905	0.0074
4859.82416	1.37901	0.00739
4858.32404	1.37896	0.00737
4856.82393	1.37892	0.00735
4855.32382	1.37886	0.00734
4853.82371	1.37881	0.00733
4852.3236	1.37876	0.00733
4850.82349	1.3787	0.00733
4849.32337	1.37865	0.00733
4847.82326	1.3786	0.00735
4846.32315	1.37856	0.00735
4844.82304	1.37852	0.00737
4843.32293	1.37848	0.00737
4841.82281	1.37845	0.00739
4840.3227	1.37843	0.00741
4838.82259	1.37841	0.00741
4837.32248	1.3784	0.00742
4835.82237	1.37839	0.00742
4834.32226	1.37837	0.0074
4832.82214	1.37836	0.00737
4831.32203	1.37833	0.00734
4829.82192	1.37831	0.00729
4828.32181	1.37826	0.00723
4826.8217	1.37821	0.00717
4825.32158	1.37814	0.00713
4823.82147	1.37807	0.0071
4822.32136	1.37801	0.00709
4820.82125	1.37795	0.00711
4819.32114	1.37788	0.00713
4817.82103	1.37783	0.00716
4816.32091	1.37778	0.00716
4814.8208	1.37774	0.00716
4813.32069	1.3777	0.00714
4811.82058	1.37766	0.00712
4810.32047	1.37762	0.0071
4808.82035	1.37757	0.00709
4807.32024	1.37752	0.0071
4805.82013	1.37748	0.00711
4804.32002	1.37745	0.00712
4802.81991	1.37742	0.00712
4801.3198	1.37739	0.00711
4799.81968	1.37735	0.00709
4798.31957	1.3773	0.00706
4796.81946	1.37726	0.00702
4795.31935	1.37721	0.00698
4793.81924	1.37716	0.00694
4792.31912	1.37708	0.00692
4790.81901	1.377	0.0069
4789.3189	1.37692	0.00688
4787.81879	1.37685	0.00688
4786.31868	1.37677	0.00689
4784.81857	1.37669	0.0069
4783.31845	1.37661	0.00693
4781.81834	1.37654	0.00696
4780.31823	1.37648	0.007
4778.81812	1.37643	0.00704
4777.31801	1.37639	0.00709
4775.81789	1.37636	0.00714
4774.31778	1.37633	0.00717
4772.81767	1.3763	0.0072
4771.31756	1.37628	0.00721
4769.81745	1.37626	0.0072
4768.31734	1.37623	0.0072
4766.81722	1.3762	0.0072
4765.31711	1.37617	0.0072
4763.817	1.37614	0.00723
4762.31689	1.37612	0.00726
4760.81678	1.3761	0.00729
4759.31667	1.37608	0.00731
4757.81655	1.37607	0.00733
4756.31644	1.37607	0.00733
4754.81633	1.37606	0.00733
4753.31622	1.37605	0.00732
4751.81611	1.37605	0.00731
4750.31599	1.37604	0.00729
4748.81588	1.37603	0.00729
4747.31577	1.37603	0.00727
4745.81566	1.37601	0.00726
4744.31555	1.376	0.00725
4742.81544	1.376	0.00724
4741.31532	1.376	0.00722
4739.81521	1.37599	0.00719
4738.3151	1.37599	0.00715
4736.81499	1.37597	0.00712
4735.31488	1.37597	0.00707
4733.81476	1.37597	0.00704
4732.31465	1.37595	0.00699
4730.81454	1.37594	0.00694
4729.31443	1.37592	0.00688
4727.81432	1.37587	0.0068
4726.31421	1.37583	0.00672
4724.81409	1.37577	0.00662
4723.31398	1.3757	0.00654
4721.81387	1.37562	0.00647
4720.31376	1.37554	0.00643
4718.81365	1.37546	0.00642
4717.31353	1.37538	0.00642
4715.81342	1.37531	0.00642
4714.31331	1.37524	0.00641
4712.8132	1.37517	0.00637
4711.31309	1.3751	0.00634
4709.81298	1.37502	0.00628
4708.31286	1.37494	0.00625
4706.81275	1.37486	0.00623
4705.31264	1.37477	0.00623
4703.81253	1.37469	0.00624
4702.31242	1.37461	0.00628
4700.8123	1.37455	0.00631
4699.31219	1.37449	0.00634
4697.81208	1.37445	0.00637
4696.31197	1.37442	0.00639
4694.81186	1.3744	0.00641
4693.31175	1.37438	0.0064
4691.81163	1.37436	0.00638
4690.31152	1.37433	0.00635
4688.81141	1.3743	0.00631
4687.3113	1.37425	0.00626
4685.81119	1.3742	0.00623
4684.31107	1.37416	0.00622
4682.81096	1.37411	0.00621
4681.31085	1.37406	0.0062
4679.81074	1.37401	0.00619
4678.31063	1.37396	0.00617
4676.81052	1.37392	0.00615
4675.3104	1.37388	0.00612
4673.81029	1.37383	0.00609
4672.31018	1.37378	0.00606
4670.81007	1.37373	0.00603
4669.30996	1.37368	0.006
4667.80984	1.37362	0.00598
4666.30973	1.37358	0.00595
4664.80962	1.37352	0.00593
4663.30951	1.37346	0.00592
4661.8094	1.37341	0.0059
4660.30929	1.37336	0.00588
4658.80917	1.37331	0.00584
4657.30906	1.37325	0.00579
4655.80895	1.37318	0.00573
4654.30884	1.3731	0.00568
4652.80873	1.37301	0.00563
4651.30861	1.37293	0.0056
4649.8085	1.37284	0.0056
4648.30839	1.37274	0.0056
4646.80828	1.37265	0.00561
4645.30817	1.37258	0.00563
4643.80806	1.37251	0.00564
4642.30794	1.37245	0.00565
4640.80783	1.37238	0.00566
4639.30772	1.37233	0.00566
4637.80761	1.37229	0.00567
4636.3075	1.37225	0.00567
4634.80738	1.37221	0.00566
4633.30727	1.37216	0.00565
4631.80716	1.37211	0.00562
4630.30705	1.37208	0.00559
4628.80694	1.37203	0.00555
4627.30683	1.37197	0.00551
4625.80671	1.37192	0.00548
4624.3066	1.37185	0.00544
4622.80649	1.37177	0.0054
4621.30638	1.37169	0.00536
4619.80627	1.3716	0.00531
4618.30615	1.37151	0.00527
4616.80604	1.37141	0.00524
4615.30593	1.37129	0.00521
4613.80582	1.37118	0.0052
4612.30571	1.37107	0.00521
4610.8056	1.37097	0.00523
4609.30548	1.37089	0.00528
4607.80537	1.37079	0.00531
4606.30526	1.37071	0.00536
4604.80515	1.37064	0.00539
4603.30504	1.37059	0.00541
4601.80492	1.37053	0.00541
4600.30481	1.37047	0.00542
4598.8047	1.37042	0.00542
4597.30459	1.37035	0.00543
4595.80448	1.3703	0.00544
4594.30437	1.37025	0.00546
4592.80425	1.37019	0.00547
4591.30414	1.37014	0.00549
4589.80403	1.37009	0.00549
4588.30392	1.37004	0.00549
4586.80381	1.37	0.00548
4585.30369	1.36996	0.00547
4583.80358	1.3699	0.00546
4582.30347	1.36984	0.00545
4580.80336	1.36979	0.00543
4579.30325	1.36972	0.00542
4577.80314	1.36965	0.00539
4576.30302	1.36959	0.00538
4574.80291	1.36951	0.00536
4573.3028	1.36943	0.00535
4571.80269	1.36935	0.00535
4570.30258	1.36928	0.00537
4568.80247	1.36921	0.00539
4567.30235	1.36915	0.00541
4565.80224	1.36909	0.00542
4564.30213	1.36902	0.00544
4562.80202	1.36898	0.00544
4561.30191	1.36892	0.00543
4559.80179	1.36887	0.00542
4558.30168	1.3688	0.00541
4556.80157	1.36875	0.0054
4555.30146	1.36869	0.0054
4553.80135	1.36862	0.00539
4552.30124	1.36855	0.00538
4550.80112	1.36847	0.00538
4549.30101	1.3684	0.00538
4547.8009	1.36833	0.00539
4546.30079	1.36826	0.0054
4544.80068	1.36819	0.00542
4543.30056	1.36813	0.00544
4541.80045	1.36808	0.00546
4540.30034	1.36803	0.00548
4538.80023	1.36798	0.00549
4537.30012	1.36793	0.0055
4535.80001	1.36789	0.0055
4534.29989	1.36785	0.00551
4532.79978	1.3678	0.0055
4531.29967	1.36776	0.0055
4529.79956	1.36771	0.00549
4528.29945	1.36766	0.00549
4526.79933	1.36763	0.00547
4525.29922	1.36758	0.00546
4523.79911	1.36752	0.00544
4522.299	1.36747	0.00543
4520.79889	1.36742	0.00541
4519.29878	1.36737	0.00539
4517.79866	1.36731	0.00538
4516.29855	1.36725	0.00536
4514.79844	1.36718	0.00535
4513.29833	1.36712	0.00531
4511.79822	1.36706	0.00529
4510.2981	1.36698	0.00527
4508.79799	1.36691	0.00526
4507.29788	1.36683	0.00525
4505.79777	1.36676	0.00526
4504.29766	1.3667	0.00527
4502.79755	1.36664	0.00528
4501.29743	1.36658	0.00528
4499.79732	1.36653	0.00528
4498.29721	1.36647	0.00528
4496.7971	1.36642	0.00527
4495.29699	1.36638	0.00525
4493.79687	1.36633	0.00522
4492.29676	1.36627	0.00519
4490.79665	1.36619	0.00516
4489.29654	1.36613	0.00513
4487.79643	1.36607	0.00509
4486.29632	1.36599	0.00507
4484.7962	1.36591	0.00506
4483.29609	1.36582	0.00504
4481.79598	1.36575	0.00502
4480.29587	1.36567	0.00502
4478.79576	1.36559	0.005
4477.29564	1.36551	0.00499
4475.79553	1.36543	0.00497
4474.29542	1.36534	0.00496
4472.79531	1.36525	0.00495
4471.2952	1.36517	0.00495
4469.79509	1.36509	0.00496
4468.29497	1.36502	0.00497
4466.79486	1.36495	0.00499
4465.29475	1.36488	0.005
4463.79464	1.36481	0.005
4462.29453	1.36474	0.00498
4460.79441	1.36468	0.00496
4459.2943	1.36461	0.00494
4457.79419	1.36453	0.00493
4456.29408	1.36446	0.00492
4454.79397	1.36439	0.00492
4453.29386	1.36432	0.00493
4451.79374	1.36424	0.00493
4450.29363	1.36416	0.0049
4448.79352	1.36409	0.00488
4447.29341	1.364	0.00484
4445.7933	1.36391	0.00482
4444.29318	1.36382	0.00482
4442.79307	1.36371	0.00482
4441.29296	1.36362	0.00483
4439.79285	1.36353	0.00485
4438.29274	1.36345	0.00487
4436.79263	1.36336	0.00488
4435.29251	1.36328	0.00491
4433.7924	1.36321	0.00493
4432.29229	1.36314	0.00496
4430.79218	1.36309	0.00497
4429.29207	1.36302	0.00498
4427.79195	1.36296	0.00498
4426.29184	1.3629	0.00498
4424.79173	1.36285	0.00499
4423.29162	1.3628	0.005
4421.79151	1.36275	0.005
4420.2914	1.36269	0.00499
4418.79128	1.36262	0.00496
4417.29117	1.36255	0.00492
4415.79106	1.36246	0.00487
4414.29095	1.36238	0.00484
4412.79084	1.36229	0.00482
4411.29072	1.36219	0.00484
4409.79061	1.3621	0.00486
4408.2905	1.36201	0.00489
4406.79039	1.36194	0.00493
4405.29028	1.36188	0.00495
4403.79017	1.36181	0.00495
4402.29005	1.36175	0.00496
4400.78994	1.3617	0.00496
4399.28983	1.36166	0.00496
4397.78972	1.3616	0.00494
4396.28961	1.36153	0.00493
4394.78949	1.36146	0.0049
4393.28938	1.36139	0.00486
4391.78927	1.36132	0.00483
4390.28916	1.36123	0.00481
4388.78905	1.36115	0.0048
4387.28894	1.36106	0.00481
4385.78882	1.36098	0.00482
4384.28871	1.3609	0.00482
4382.7886	1.36082	0.00482
4381.28849	1.36074	0.0048
4379.78838	1.36067	0.00479
4378.28827	1.36059	0.00477
4376.78815	1.36051	0.00476
4375.28804	1.36042	0.00476
4373.78793	1.36035	0.00475
4372.28782	1.36026	0.00475
4370.78771	1.36016	0.00473
4369.28759	1.36007	0.00473
4367.78748	1.35999	0.00473
4366.28737	1.3599	0.00473
4364.78726	1.35982	0.00474
4363.28715	1.35973	0.00475
4361.78704	1.35965	0.00478
4360.28692	1.35959	0.00479
4358.78681	1.35953	0.0048
4357.2867	1.35945	0.0048
4355.78659	1.35939	0.00479
4354.28648	1.35932	0.00477
4352.78636	1.35926	0.00474
4351.28625	1.35918	0.00471
4349.78614	1.3591	0.00469
4348.28603	1.359	0.00467
4346.78592	1.35891	0.00464
4345.28581	1.35882	0.00464
4343.78569	1.35873	0.00463
4342.28558	1.35864	0.00463
4340.78547	1.35854	0.00464
4339.28536	1.35844	0.00464
4337.78525	1.35836	0.00464
4336.28513	1.35827	0.00464
4334.78502	1.35817	0.00462
4333.28491	1.35808	0.00461
4331.7848	1.35799	0.00461
4330.28469	1.35789	0.00462
4328.78458	1.3578	0.00463
4327.28446	1.35772	0.00465
4325.78435	1.35762	0.00466
4324.28424	1.35754	0.00468
4322.78413	1.35746	0.00468
4321.28402	1.35738	0.00469
4319.7839	1.3573	0.00469
4318.28379	1.35723	0.00469
4316.78368	1.35715	0.0047
4315.28357	1.35707	0.0047
4313.78346	1.35698	0.0047
4312.28335	1.35691	0.00469
4310.78323	1.35682	0.00468
4309.28312	1.35674	0.00467
4307.78301	1.35665	0.00467
4306.2829	1.35657	0.00467
4304.78279	1.35649	0.00469
4303.28267	1.35641	0.00471
4301.78256	1.35633	0.00471
4300.28245	1.35626	0.00471
4298.78234	1.35618	0.00471
4297.28223	1.35611	0.00469
4295.78212	1.35603	0.00468
4294.282	1.35596	0.00466
4292.78189	1.35587	0.00464
4291.28178	1.3558	0.00463
4289.78167	1.35571	0.00462
4288.28156	1.35562	0.00461
4286.78144	1.35552	0.00459
4285.28133	1.35543	0.00458
4283.78122	1.35534	0.00456
4282.28111	1.35524	0.00456
4280.781	1.35515	0.00455
4279.28089	1.35506	0.00455
4277.78077	1.35496	0.00455
4276.28066	1.35488	0.00456
4274.78055	1.35479	0.00456
4273.28044	1.35471	0.00456
4271.78033	1.35463	0.00456
4270.28021	1.35455	0.00454
4268.7801	1.35445	0.00451
4267.27999	1.35436	0.00448
4265.77988	1.35426	0.00445
4264.27977	1.35416	0.00443
4262.77966	1.35405	0.00441
4261.27954	1.35395	0.00441
4259.77943	1.35384	0.00443
4258.27932	1.35374	0.00445
4256.77921	1.35366	0.00447
4255.2791	1.35358	0.00448
4253.77898	1.35349	0.00447
4252.27887	1.35341	0.00446
4250.77876	1.35332	0.00443
4249.27865	1.35323	0.00439
4247.77854	1.35314	0.00434
4246.27843	1.35303	0.0043
4244.77831	1.3529	0.00427
4243.2782	1.35278	0.00425
4241.77809	1.35265	0.00425
4240.27798	1.35252	0.00426
4238.77787	1.35241	0.00428
4237.27775	1.35229	0.00429
4235.77764	1.35218	0.00431
4234.27753	1.35208	0.00432
4232.77742	1.35197	0.00432
4231.27731	1.35186	0.00432
4229.7772	1.35175	0.00431
4228.27708	1.35165	0.00431
4226.77697	1.35154	0.00432
4225.27686	1.35144	0.00434
4223.77675	1.35133	0.00436
4222.27664	1.35123	0.00438
4220.77652	1.35114	0.00439
4219.27641	1.35104	0.0044
4217.7763	1.35095	0.0044
4216.27619	1.35087	0.0044
4214.77608	1.35077	0.0044
4213.27597	1.35068	0.00439
4211.77585	1.35058	0.00439
4210.27574	1.35048	0.00437
4208.77563	1.35038	0.00436
4207.27552	1.35027	0.00435
4205.77541	1.35017	0.00433
4204.27529	1.35006	0.00432
4202.77518	1.34995	0.00434
4201.27507	1.34985	0.00435
4199.77496	1.34975	0.00437
4198.27485	1.34966	0.00437
4196.77474	1.34956	0.00437
4195.27462	1.34946	0.00435
4193.77451	1.34936	0.00432
4192.2744	1.34925	0.00428
4190.77429	1.34913	0.00425
4189.27418	1.34901	0.00423
4187.77407	1.34887	0.00422
4186.27395	1.34874	0.00421
4184.77384	1.34861	0.00421
4183.27373	1.34847	0.00424
4181.77362	1.34835	0.00427
4180.27351	1.34824	0.00431
4178.77339	1.34814	0.00435
4177.27328	1.34805	0.00439
4175.77317	1.34797	0.00441
4174.27306	1.34788	0.00441
4172.77295	1.3478	0.00439
4171.27284	1.34771	0.00435
4169.77272	1.3476	0.00431
4168.27261	1.3475	0.00428
4166.7725	1.34739	0.00426
4165.27239	1.34729	0.00425
4163.77228	1.34717	0.00425
4162.27216	1.34705	0.00425
4160.77205	1.34694	0.00424
4159.27194	1.34682	0.00421
4157.77183	1.34669	0.00417
4156.27172	1.34656	0.00413
4154.77161	1.34642	0.0041
4153.27149	1.34627	0.00407
4151.77138	1.34612	0.00406
4150.27127	1.34597	0.00406
4148.77116	1.34581	0.00408
4147.27105	1.34566	0.0041
4145.77093	1.34553	0.00413
4144.27082	1.34539	0.00416
4142.77071	1.34526	0.00417
4141.2706	1.34513	0.0042
4139.77049	1.345	0.0042
4138.27038	1.34488	0.00422
4136.77026	1.34476	0.00423
4135.27015	1.34464	0.00425
4133.77004	1.34451	0.00426
4132.26993	1.34439	0.00428
4130.76982	1.34426	0.00429
4129.2697	1.34414	0.0043
4127.76959	1.34402	0.00432
4126.26948	1.3439	0.00432
4124.76937	1.34379	0.00434
4123.26926	1.34366	0.00434
4121.76915	1.34354	0.00435
4120.26903	1.3434	0.00435
4118.76892	1.34328	0.00434
4117.26881	1.34314	0.00434
4115.7687	1.34301	0.00434
4114.26859	1.34288	0.00436
4112.76847	1.34274	0.0044
4111.26836	1.34263	0.00444
4109.76825	1.3425	0.00447
4108.26814	1.34239	0.00449
4106.76803	1.34226	0.0045
4105.26792	1.34215	0.0045
4103.7678	1.34202	0.00448
4102.26769	1.3419	0.00448
4100.76758	1.34177	0.00448
4099.26747	1.34163	0.00449
4097.76736	1.3415	0.00451
4096.26724	1.34137	0.00453
4094.76713	1.34125	0.00456
4093.26702	1.34112	0.00459
4091.76691	1.341	0.00461
4090.2668	1.34089	0.00464
4088.76669	1.34077	0.00464
4087.26657	1.34066	0.00464
4085.76646	1.34054	0.00464
4084.26635	1.34042	0.00462
4082.76624	1.34029	0.00461
4081.26613	1.34016	0.00461
4079.76601	1.34002	0.00461
4078.2659	1.33989	0.00463
4076.76579	1.33975	0.00465
4075.26568	1.33962	0.00467
4073.76557	1.33949	0.00468
4072.26546	1.33936	0.00468
4070.76534	1.33923	0.00469
4069.26523	1.3391	0.0047
4067.76512	1.33897	0.0047
4066.26501	1.33883	0.00471
4064.7649	1.3387	0.00473
4063.26478	1.33857	0.00474
4061.76467	1.33844	0.00475
4060.26456	1.3383	0.00476
4058.76445	1.33817	0.00476
4057.26434	1.33804	0.00478
4055.76423	1.33791	0.00479
4054.26411	1.33778	0.0048
4052.764	1.33765	0.00481
4051.26389	1.33752	0.00483
4049.76378	1.33739	0.00484
4048.26367	1.33727	0.00485
4046.76355	1.33714	0.00486
4045.26344	1.33702	0.00487
4043.76333	1.3369	0.00488
4042.26322	1.33678	0.00488
4040.76311	1.33666	0.00487
4039.263	1.33653	0.00485
4037.76288	1.3364	0.00483
4036.26277	1.33627	0.00481
4034.76266	1.33613	0.00479
4033.26255	1.33599	0.00478
4031.76244	1.33585	0.00478
4030.26232	1.3357	0.00478
4028.76221	1.33555	0.00477
4027.2621	1.3354	0.00475
4025.76199	1.33524	0.00473
4024.26188	1.33509	0.0047
4022.76177	1.33492	0.00468
4021.26165	1.33476	0.00468
4019.76154	1.3346	0.00468
4018.26143	1.33443	0.00469
4016.76132	1.33427	0.00471
4015.26121	1.33411	0.00472
4013.76109	1.33395	0.00472
4012.26098	1.33378	0.00471
4010.76087	1.33362	0.0047
4009.26076	1.33346	0.00469
4007.76065	1.33328	0.00469
4006.26054	1.3331	0.0047
4004.76042	1.33292	0.00471
4003.26031	1.33275	0.00474
4001.7602	1.33257	0.00475
4000.26009	1.3324	0.00478
3998.75998	1.33223	0.0048
3997.25986	1.33206	0.00483
3995.75975	1.3319	0.00487
3994.25964	1.33176	0.00491
3992.75953	1.33161	0.00496
3991.25942	1.33147	0.005
3989.75931	1.33133	0.00503
3988.25919	1.3312	0.00504
3986.75908	1.33107	0.00503
3985.25897	1.33093	0.00502
3983.75886	1.33078	0.005
3982.25875	1.33062	0.00498
3980.75864	1.33046	0.00497
3979.25852	1.3303	0.00496
3977.75841	1.33013	0.00496
3976.2583	1.32996	0.00496
3974.75819	1.32979	0.00497
3973.25808	1.32963	0.00498
3971.75796	1.32946	0.00499
3970.25785	1.32929	0.005
3968.75774	1.32913	0.005
3967.25763	1.32897	0.00499
3965.75752	1.3288	0.00498
3964.25741	1.32863	0.00496
3962.75729	1.32846	0.00495
3961.25718	1.32828	0.00494
3959.75707	1.3281	0.00494
3958.25696	1.32791	0.00493
3956.75685	1.32771	0.00491
3955.25673	1.32751	0.00489
3953.75662	1.32731	0.00488
3952.25651	1.32709	0.00488
3950.7564	1.32687	0.00488
3949.25629	1.32667	0.00492
3947.75618	1.32647	0.00497
3946.25606	1.3263	0.00504
3944.75595	1.32613	0.0051
3943.25584	1.32594	0.00515
3941.75573	1.32578	0.00518
3940.25562	1.32562	0.00519
3938.7555	1.32546	0.00516
3937.25539	1.3253	0.00513
3935.75528	1.32512	0.0051
3934.25517	1.32492	0.00509
3932.75506	1.32473	0.00509
3931.25495	1.32453	0.00511
3929.75483	1.32434	0.00514
3928.25472	1.32415	0.00516
3926.75461	1.32395	0.00516
3925.2545	1.32373	0.00515
3923.75439	1.32355	0.00515
3922.25427	1.32336	0.00516
3920.75416	1.32319	0.00518
3919.25405	1.32303	0.00523
3917.75394	1.32287	0.00528
3916.25383	1.32271	0.0053
3914.75372	1.32255	0.00527
3913.2536	1.32237	0.00518
3911.75349	1.32213	0.00502
3910.25338	1.32187	0.00484
3908.75327	1.32155	0.00468
3907.25316	1.32122	0.00459
3905.75304	1.32087	0.0046
3904.25293	1.32053	0.00472
3902.75282	1.32022	0.00493
3901.25271	1.31995	0.00517
3899.7526	1.31973	0.00539
3898.25249	1.31956	0.00556
3896.75237	1.31942	0.00565
3895.25226	1.31928	0.00566
3893.75215	1.31914	0.00562
3892.25204	1.31898	0.00557
3890.75193	1.3188	0.00552
3889.25181	1.3186	0.00549
3887.7517	1.31838	0.00548
3886.25159	1.31815	0.00549
3884.75148	1.31793	0.00554
3883.25137	1.3177	0.0056
3881.75126	1.31748	0.00564
3880.25114	1.31726	0.00567
3878.75103	1.31706	0.00567
3877.25092	1.31683	0.00565
3875.75081	1.3166	0.00561
3874.2507	1.31636	0.00559
3872.75058	1.3161	0.00559
3871.25047	1.31585	0.00561
3869.75036	1.3156	0.00567
3868.25025	1.31538	0.00574
3866.75014	1.31516	0.0058
3865.25003	1.31493	0.00584
3863.74991	1.31468	0.00586
3862.2498	1.31442	0.00584
3860.74969	1.31416	0.00579
3859.24958	1.3139	0.00576
3857.74947	1.31363	0.00575
3856.24935	1.31337	0.00582
3854.74924	1.3131	0.00594
3853.24913	1.31286	0.00611
3851.74902	1.31266	0.00629
3850.24891	1.3125	0.0064
3848.7488	1.31233	0.00642
3847.24868	1.31214	0.00634
3845.74857	1.31192	0.00622
3844.24846	1.31167	0.0061
3842.74835	1.31141	0.006
3841.24824	1.31113	0.00598
3839.74812	1.31084	0.00603
3838.24801	1.31055	0.00614
3836.7479	1.31027	0.00626
3835.24779	1.31002	0.00636
3833.74768	1.30979	0.00643
3832.24757	1.30957	0.00645
3830.74745	1.30934	0.00642
3829.24734	1.30909	0.00634
3827.74723	1.30882	0.00626
3826.24712	1.30852	0.00619
3824.74701	1.3082	0.00617
3823.24689	1.30787	0.00619
3821.74678	1.30755	0.00628
3820.24667	1.30726	0.00641
3818.74656	1.30701	0.00656
3817.24645	1.30677	0.00667
3815.74634	1.30653	0.00674
3814.24622	1.30631	0.00675
3812.74611	1.30609	0.00671
3811.246	1.30584	0.00661
3809.74589	1.30556	0.00651
3808.24578	1.30524	0.00642
3806.74566	1.30489	0.00636
3805.24555	1.30454	0.00636
3803.74544	1.30419	0.00641
3802.24533	1.30383	0.0065
3800.74522	1.3035	0.00661
3799.24511	1.30319	0.00673
3797.74499	1.30291	0.00684
3796.24488	1.30266	0.00692
3794.74477	1.30242	0.00697
3793.24466	1.30217	0.00698
3791.74455	1.30192	0.00695
3790.24444	1.30165	0.00689
3788.74432	1.30136	0.00681
3787.24421	1.30104	0.00675
3785.7441	1.30071	0.00669
3784.24399	1.30037	0.00667
3782.74388	1.30003	0.00667
3781.24376	1.29969	0.00669
3779.74365	1.29933	0.00671
3778.24354	1.29897	0.00671
3776.74343	1.29861	0.00668
3775.24332	1.29825	0.00662
3773.74321	1.29787	0.00655
3772.24309	1.29747	0.00649
3770.74298	1.29705	0.00646
3769.24287	1.29663	0.00646
3767.74276	1.2962	0.00649
3766.24265	1.29578	0.00652
3764.74253	1.29536	0.00657
3763.24242	1.29494	0.00659
3761.74231	1.2945	0.00659
3760.2422	1.29405	0.00659
3758.74209	1.29358	0.00658
3757.24198	1.29312	0.00657
3755.74186	1.29265	0.00658
3754.24175	1.29215	0.00661
3752.74164	1.29163	0.00668
3751.24153	1.29112	0.00679
3749.74142	1.29065	0.00695
3748.2413	1.29021	0.00712
3746.74119	1.28977	0.00728
3745.24108	1.28932	0.00741
3743.74097	1.28888	0.00752
3742.24086	1.28846	0.00759
3740.74075	1.28805	0.00764
3739.24063	1.28764	0.00769
3737.74052	1.2872	0.00776
3736.24041	1.28675	0.00786
3734.7403	1.2863	0.00798
3733.24019	1.28587	0.00809
3731.74007	1.28544	0.00818
3730.23996	1.28499	0.00824
3728.73985	1.28453	0.00827
3727.23974	1.28405	0.00827
3725.73963	1.28358	0.00829
3724.23952	1.28308	0.00834
3722.7394	1.28258	0.00843
3721.23929	1.28207	0.00852
3719.73918	1.28156	0.00861
3718.23907	1.28103	0.00869
3716.73896	1.28051	0.00874
3715.23884	1.27998	0.00879
3713.73873	1.27944	0.00883
3712.23862	1.2789	0.00889
3710.73851	1.27834	0.00898
3709.2384	1.27777	0.00907
3707.73829	1.2772	0.00915
3706.23817	1.27662	0.00922
3704.73806	1.27603	0.00927
3703.23795	1.27541	0.00931
3701.73784	1.27478	0.00935
3700.23773	1.27412	0.0094
3698.73761	1.27344	0.00947
3697.2375	1.27273	0.00953
3695.73739	1.272	0.0096
3694.23728	1.27125	0.00969
3692.73717	1.27048	0.00981
3691.23706	1.26971	0.00997
3689.73694	1.26893	0.01017
3688.23683	1.26815	0.0104
3686.73672	1.26737	0.01065
3685.23661	1.26657	0.01087
3683.7365	1.26575	0.01106
3682.23638	1.26491	0.01123
3680.73627	1.26404	0.01143
3679.23616	1.26315	0.01166
3677.73605	1.26225	0.01195
3676.23594	1.26134	0.01232
3674.73583	1.26043	0.01278
3673.23571	1.25956	0.0133
3671.7356	1.25873	0.01384
3670.23549	1.25792	0.01438
3668.73538	1.25714	0.01494
3667.23527	1.2564	0.01545
3665.73515	1.25567	0.0159
3664.23504	1.25492	0.01631
3662.73493	1.25415	0.01668
3661.23482	1.25334	0.01706
3659.73471	1.25248	0.01743
3658.2346	1.25158	0.01783
3656.73448	1.25063	0.01828
3655.23437	1.24967	0.0188
3653.73426	1.24869	0.01941
3652.23415	1.24774	0.02009
3650.73404	1.2468	0.02084
3649.23392	1.24589	0.02168
3647.73381	1.24503	0.02256
3646.2337	1.24425	0.02346
3644.73359	1.2435	0.02434
3643.23348	1.24278	0.02517
3641.73337	1.24206	0.02595
3640.23325	1.24136	0.0267
3638.73314	1.24063	0.02742
3637.23303	1.23989	0.02814
3635.73292	1.23913	0.02889
3634.23281	1.23836	0.0297
3632.73269	1.23759	0.03058
3631.23258	1.23682	0.03151
3629.73247	1.23607	0.0325
3628.23236	1.23535	0.03353
3626.73225	1.23467	0.03458
3625.23214	1.23403	0.03561
3623.73202	1.23341	0.03663
3622.23191	1.23281	0.03763
3620.7318	1.23221	0.03864
3619.23169	1.23163	0.03967
3617.73158	1.23108	0.04072
3616.23146	1.23055	0.0418
3614.73135	1.23003	0.0429
3613.23124	1.22952	0.04402
3611.73113	1.22905	0.04515
3610.23102	1.22861	0.04629
3608.73091	1.22821	0.04743
3607.23079	1.22783	0.04858
3605.73068	1.22749	0.0497
3604.23057	1.22715	0.05081
3602.73046	1.22683	0.05188
3601.23035	1.22651	0.05295
3599.73024	1.2262	0.05401
3598.23012	1.22588	0.05508
3596.73001	1.22557	0.05616
3595.2299	1.22524	0.05724
3593.72979	1.22494	0.05834
3592.22968	1.22466	0.05947
3590.72956	1.22439	0.06063
3589.22945	1.22414	0.06181
3587.72934	1.22392	0.06303
3586.22923	1.22376	0.06426
3584.72912	1.22363	0.06548
3583.22901	1.22352	0.06665
3581.72889	1.22343	0.0678
3580.22878	1.22336	0.06892
3578.72867	1.22329	0.07002
3577.22856	1.22323	0.0711
3575.72845	1.22317	0.07218
3574.22833	1.2231	0.07325
3572.72822	1.22303	0.07433
3571.22811	1.22295	0.07542
3569.728	1.2229	0.07653
3568.22789	1.22285	0.07768
3566.72778	1.22284	0.07885
3565.22766	1.22285	0.08005
3563.72755	1.2229	0.08124
3562.22744	1.22297	0.08241
3560.72733	1.22307	0.08356
3559.22722	1.22318	0.08467
3557.7271	1.2233	0.08574
3556.22699	1.22342	0.08678
3554.72688	1.22353	0.08781
3553.22677	1.22364	0.08885
3551.72666	1.22375	0.0899
3550.22655	1.22388	0.09097
3548.72643	1.224	0.09208
3547.22632	1.22414	0.0932
3545.72621	1.22431	0.09434
3544.2261	1.22451	0.09548
3542.72599	1.22474	0.09659
3541.22587	1.22499	0.09767
3539.72576	1.22525	0.09872
3538.22565	1.22551	0.09975
3536.72554	1.22576	0.10075
3535.22543	1.22603	0.10175
3533.72532	1.22628	0.10275
3532.2252	1.22653	0.10374
3530.72509	1.22679	0.10475
3529.22498	1.22704	0.10576
3527.72487	1.22732	0.1068
3526.22476	1.22761	0.10786
3524.72464	1.22792	0.10894
3523.22453	1.22827	0.11001
3521.72442	1.22862	0.11107
3520.22431	1.22901	0.1121
3518.7242	1.2294	0.11309
3517.22409	1.2298	0.11407
3515.72397	1.23021	0.11503
3514.22386	1.23062	0.11598
3512.72375	1.23103	0.11693
3511.22364	1.23144	0.11787
3509.72353	1.23185	0.1188
3508.22341	1.23225	0.11973
3506.7233	1.23266	0.12066
3505.22319	1.23308	0.12159
3503.72308	1.23351	0.12254
3502.22297	1.23395	0.12351
3500.72286	1.23442	0.12448
3499.22274	1.23489	0.12545
3497.72263	1.23538	0.12641
3496.22252	1.23589	0.12736
3494.72241	1.23641	0.12828
3493.2223	1.23695	0.12918
3491.72218	1.23751	0.13007
3490.22207	1.23805	0.13096
3488.72196	1.23861	0.13183
3487.22185	1.23917	0.13271
3485.72174	1.23974	0.13357
3484.22163	1.24031	0.13442
3482.72151	1.24088	0.13527
3481.2214	1.24146	0.13611
3479.72129	1.24205	0.13694
3478.22118	1.24265	0.13778
3476.72107	1.24326	0.13862
3475.22095	1.24388	0.13946
3473.72084	1.24451	0.1403
3472.22073	1.24517	0.14114
3470.72062	1.24583	0.14195
3469.22051	1.24651	0.14275
3467.7204	1.24719	0.14353
3466.22028	1.24788	0.14428
3464.72017	1.24858	0.14503
3463.22006	1.24927	0.14575
3461.71995	1.24997	0.14646
3460.21984	1.25067	0.14718
3458.71972	1.25137	0.14789
3457.21961	1.25208	0.1486
3455.7195	1.25278	0.1493
3454.21939	1.2535	0.15
3452.71928	1.25422	0.15069
3451.21917	1.25496	0.15137
3449.71905	1.25571	0.15205
3448.21894	1.25646	0.15272
3446.71883	1.25722	0.15339
3445.21872	1.258	0.15405
3443.71861	1.25878	0.15469
3442.21849	1.25957	0.15531
3440.71838	1.26038	0.15591
3439.21827	1.26118	0.15649
3437.71816	1.26198	0.15706
3436.21805	1.26279	0.15762
3434.71794	1.2636	0.15818
3433.21782	1.26442	0.15872
3431.71771	1.26523	0.15925
3430.2176	1.26605	0.15977
3428.71749	1.26688	0.16028
3427.21738	1.2677	0.16077
3425.71726	1.26853	0.16125
3424.21715	1.26937	0.16173
3422.71704	1.2702	0.16219
3421.21693	1.27104	0.16263
3419.71682	1.27188	0.16307
3418.21671	1.27272	0.1635
3416.71659	1.27357	0.16392
3415.21648	1.27443	0.16433
3413.71637	1.27528	0.16473
3412.21626	1.27615	0.16511
3410.71615	1.277	0.16547
3409.21604	1.27787	0.1658
3407.71592	1.27873	0.16612
3406.21581	1.27957	0.16642
3404.7157	1.28043	0.16673
3403.21559	1.28127	0.16701
3401.71548	1.28212	0.1673
3400.21536	1.28297	0.16758
3398.71525	1.28381	0.16785
3397.21514	1.28466	0.1681
3395.71503	1.28551	0.16832
3394.21492	1.28635	0.16855
3392.71481	1.28719	0.16876
3391.21469	1.28802	0.16895
3389.71458	1.28886	0.16913
3388.21447	1.28968	0.1693
3386.71436	1.29051	0.16946
3385.21425	1.29133	0.16962
3383.71413	1.29214	0.16975
3382.21402	1.29295	0.16988
3380.71391	1.29376	0.17
3379.2138	1.29456	0.17011
3377.71369	1.29536	0.17021
3376.21358	1.29617	0.17031
3374.71346	1.29696	0.17039
3373.21335	1.29775	0.17049
3371.71324	1.29855	0.17055
3370.21313	1.29934	0.17061
3368.71302	1.30014	0.17064
3367.2129	1.3009	0.17065
3365.71279	1.30167	0.17063
3364.21268	1.30242	0.17061
3362.71257	1.30316	0.17058
3361.21246	1.30389	0.17054
3359.71235	1.30461	0.17051
3358.21223	1.30532	0.17049
3356.71212	1.30603	0.17046
3355.21201	1.30673	0.17042
3353.7119	1.30742	0.17037
3352.21179	1.30811	0.17032
3350.71167	1.30879	0.17024
3349.21156	1.30947	0.17016
3347.71145	1.31013	0.17006
3346.21134	1.31078	0.16996
3344.71123	1.31142	0.16986
3343.21112	1.31204	0.16976
3341.711	1.31266	0.16965
3340.21089	1.31328	0.16955
3338.71078	1.31388	0.16945
3337.21067	1.31449	0.16934
3335.71056	1.31508	0.16921
3334.21044	1.31565	0.16909
3332.71033	1.31623	0.16895
3331.21022	1.31679	0.16882
3329.71011	1.31735	0.16869
3328.21	1.3179	0.16855
3326.70989	1.31844	0.16843
3325.20977	1.31897	0.1683
3323.70966	1.31951	0.16817
3322.20955	1.32003	0.16802
3320.70944	1.32054	0.16786
3319.20933	1.32104	0.16771
3317.70921	1.32152	0.16754
3316.2091	1.32201	0.1674
3314.70899	1.32249	0.16725
3313.20888	1.32296	0.16713
3311.70877	1.32343	0.167
3310.20866	1.3239	0.16687
3308.70854	1.32436	0.16674
3307.20843	1.32481	0.16659
3305.70832	1.32526	0.16644
3304.20821	1.32571	0.16627
3302.7081	1.32615	0.16611
3301.20798	1.32658	0.16595
3299.70787	1.327	0.16581
3298.20776	1.32742	0.16566
3296.70765	1.32782	0.16553
3295.20754	1.32822	0.16538
3293.70743	1.32863	0.16523
3292.20731	1.32902	0.16508
3290.7072	1.3294	0.16492
3289.20709	1.32979	0.16477
3287.70698	1.33015	0.16462
3286.20687	1.33052	0.16448
3284.70675	1.33087	0.16435
3283.20664	1.33122	0.16423
3281.70653	1.33158	0.1641
3280.20642	1.33193	0.16399
3278.70631	1.33228	0.16388
3277.2062	1.33264	0.16378
3275.70608	1.33301	0.16368
3274.20597	1.33337	0.16358
3272.70586	1.33374	0.16348
3271.20575	1.3341	0.16336
3269.70564	1.33447	0.16324
3268.20552	1.33483	0.1631
3266.70541	1.33518	0.16297
3265.2053	1.33552	0.16283
3263.70519	1.33587	0.1627
3262.20508	1.3362	0.16257
3260.70497	1.33653	0.16245
3259.20485	1.33686	0.16233
3257.70474	1.33718	0.16221
3256.20463	1.33751	0.1621
3254.70452	1.33784	0.16198
3253.20441	1.33816	0.16188
3251.70429	1.33849	0.16178
3250.20418	1.33883	0.16167
3248.70407	1.33915	0.16156
3247.20396	1.33949	0.16144
3245.70385	1.33982	0.16133
3244.20374	1.34014	0.1612
3242.70362	1.34048	0.16109
3241.20351	1.34082	0.16096
3239.7034	1.34114	0.16083
3238.20329	1.34147	0.1607
3236.70318	1.34179	0.16056
3235.20306	1.34211	0.16041
3233.70295	1.34242	0.16026
3232.20284	1.34273	0.1601
3230.70273	1.34303	0.15994
3229.20262	1.34333	0.15979
3227.70251	1.34361	0.15964
3226.20239	1.34391	0.1595
3224.70228	1.34419	0.15935
3223.20217	1.34447	0.15921
3221.70206	1.34475	0.15906
3220.20195	1.34502	0.15891
3218.70183	1.3453	0.15876
3217.20172	1.34558	0.15862
3215.70161	1.34586	0.15848
3214.2015	1.34613	0.15834
3212.70139	1.34641	0.15819
3211.20128	1.34668	0.15804
3209.70116	1.34694	0.15787
3208.20105	1.3472	0.15769
3206.70094	1.34745	0.1575
3205.20083	1.34769	0.15731
3203.70072	1.34792	0.15713
3202.20061	1.34815	0.15696
3200.70049	1.34836	0.15681
3199.20038	1.34858	0.15666
3197.70027	1.34879	0.15652
3196.20016	1.34901	0.15638
3194.70005	1.34922	0.15622
3193.19993	1.34943	0.15607
3191.69982	1.34964	0.1559
3190.19971	1.34985	0.15575
3188.6996	1.35005	0.1556
3187.19949	1.35025	0.15546
3185.69938	1.35044	0.15531
3184.19926	1.35065	0.15517
3182.69915	1.35084	0.15503
3181.19904	1.35104	0.15489
3179.69893	1.35123	0.15474
3178.19882	1.35142	0.15459
3176.6987	1.35161	0.15444
3175.19859	1.35179	0.15428
3173.69848	1.35197	0.15412
3172.19837	1.35214	0.15396
3170.69826	1.3523	0.15379
3169.19815	1.35245	0.15364
3167.69803	1.35259	0.15348
3166.19792	1.35273	0.15333
3164.69781	1.35287	0.15319
3163.1977	1.353	0.15307
3161.69759	1.35314	0.15295
3160.19747	1.35328	0.15284
3158.69736	1.35342	0.15273
3157.19725	1.35356	0.15261
3155.69714	1.3537	0.15251
3154.19703	1.35384	0.15238
3152.69692	1.35398	0.15225
3151.1968	1.35411	0.15211
3149.69669	1.35423	0.15197
3148.19658	1.35434	0.15185
3146.69647	1.35447	0.15174
3145.19636	1.35458	0.15165
3143.69624	1.3547	0.15156
3142.19613	1.35481	0.15148
3140.69602	1.35493	0.15138
3139.19591	1.35505	0.15128
3137.6958	1.35516	0.15117
3136.19569	1.35528	0.15106
3134.69557	1.35539	0.15097
3133.19546	1.3555	0.15088
3131.69535	1.35561	0.15079
3130.19524	1.35572	0.15071
3128.69513	1.35582	0.15063
3127.19501	1.35593	0.15055
3125.6949	1.35604	0.15047
3124.19479	1.35615	0.15038
3122.69468	1.35626	0.1503
3121.19457	1.35636	0.15022
3119.69446	1.35647	0.15013
3118.19434	1.35657	0.15005
3116.69423	1.35666	0.14996
3115.19412	1.35675	0.14988
3113.69401	1.35683	0.14981
3112.1939	1.35692	0.14973
3110.69378	1.357	0.14966
3109.19367	1.35708	0.14959
3107.69356	1.35715	0.14954
3106.19345	1.35724	0.14949
3104.69334	1.35732	0.14945
3103.19323	1.35741	0.14941
3101.69311	1.3575	0.14937
3100.193	1.35759	0.14933
3098.69289	1.35767	0.14929
3097.19278	1.35777	0.14925
3095.69267	1.35786	0.14921
3094.19255	1.35795	0.14917
3092.69244	1.35803	0.14912
3091.19233	1.35813	0.14909
3089.69222	1.35822	0.14905
3088.19211	1.35831	0.14902
3086.692	1.3584	0.14901
3085.19188	1.3585	0.14898
3083.69177	1.3586	0.14896
3082.19166	1.35869	0.14894
3080.69155	1.35878	0.1489
3079.19144	1.35888	0.14886
3077.69132	1.35897	0.14882
3076.19121	1.35906	0.14877
3074.6911	1.35915	0.14875
3073.19099	1.35923	0.14872
3071.69088	1.35931	0.14871
3070.19077	1.3594	0.14869
3068.69065	1.35948	0.14868
3067.19054	1.35956	0.14865
3065.69043	1.35962	0.14863
3064.19032	1.3597	0.1486
3062.69021	1.35978	0.1486
3061.19009	1.35986	0.1486
3059.68998	1.35994	0.14862
3058.18987	1.36002	0.14864
3056.68976	1.36011	0.14867
3055.18965	1.3602	0.14867
3053.68954	1.3603	0.14868
3052.18942	1.3604	0.14868
3050.68931	1.3605	0.14869
3049.1892	1.3606	0.14869
3047.68909	1.3607	0.1487
3046.18898	1.36079	0.14871
3044.68886	1.36088	0.14873
3043.18875	1.36099	0.14874
3041.68864	1.36109	0.14874
3040.18853	1.36118	0.14876
3038.68842	1.36128	0.14877
3037.18831	1.36138	0.14879
3035.68819	1.36148	0.14881
3034.18808	1.36158	0.14883
3032.68797	1.36168	0.14884
3031.18786	1.36176	0.14886
3029.68775	1.36186	0.14889
3028.18763	1.36195	0.14891
3026.68752	1.36205	0.14894
3025.18741	1.36216	0.14899
3023.6873	1.36227	0.14904
3022.18719	1.36239	0.14911
3020.68708	1.36252	0.14918
3019.18696	1.36265	0.14924
3017.68685	1.36279	0.14928
3016.18674	1.36294	0.14932
3014.68663	1.36309	0.14933
3013.18652	1.36323	0.14934
3011.68641	1.36335	0.14934
3010.18629	1.36348	0.14934
3008.68618	1.3636	0.14935
3007.18607	1.36372	0.14937
3005.68596	1.36384	0.14941
3004.18585	1.36397	0.14947
3002.68573	1.3641	0.14953
3001.18562	1.36424	0.14959
2999.68551	1.36439	0.14964
2998.1854	1.36455	0.14969
2996.68529	1.36471	0.14972
2995.18518	1.36487	0.14973
2993.68506	1.36503	0.14974
2992.18495	1.36517	0.14975
2990.68484	1.36532	0.14975
2989.18473	1.36546	0.14976
2987.68462	1.3656	0.14977
2986.1845	1.36574	0.14979
2984.68439	1.36586	0.14983
2983.18428	1.36601	0.14987
2981.68417	1.36616	0.1499
2980.18406	1.36631	0.14995
2978.68395	1.36647	0.14999
2977.18383	1.36663	0.15002
2975.68372	1.36679	0.15005
2974.18361	1.36695	0.15007
2972.6835	1.36712	0.1501
2971.18339	1.36728	0.15011
2969.68327	1.36745	0.15013
2968.18316	1.36761	0.15015
2966.68305	1.36778	0.15017
2965.18294	1.36794	0.15019
2963.68283	1.3681	0.1502
2962.18272	1.36826	0.1502
2960.6826	1.36841	0.15021
2959.18249	1.36856	0.15022
2957.68238	1.36871	0.15024
2956.18227	1.36886	0.15027
2954.68216	1.36902	0.15031
2953.18204	1.3692	0.15037
2951.68193	1.36937	0.15042
2950.18182	1.36955	0.15048
2948.68171	1.36973	0.15053
2947.1816	1.36993	0.15057
2945.68149	1.37013	0.1506
2944.18137	1.37033	0.15061
2942.68126	1.37052	0.15062
2941.18115	1.37071	0.15063
2939.68104	1.37092	0.15066
2938.18093	1.37113	0.15071
2936.68081	1.37136	0.15078
2935.1807	1.37161	0.15086
2933.68059	1.37187	0.15094
2932.18048	1.37216	0.15099
2930.68037	1.37247	0.15101
2929.18026	1.37278	0.15098
2927.68014	1.3731	0.15092
2926.18003	1.37341	0.15084
2924.67992	1.37373	0.15073
2923.17981	1.37402	0.15061
2921.6797	1.37429	0.15047
2920.17958	1.37454	0.1503
2918.67947	1.37475	0.15009
2917.17936	1.37493	0.14985
2915.67925	1.37506	0.1496
2914.17914	1.37516	0.14936
2912.67903	1.37523	0.14916
2911.17891	1.37529	0.14902
2909.6788	1.37533	0.14895
2908.17869	1.37537	0.14892
2906.67858	1.37544	0.14893
2905.17847	1.37552	0.14896
2903.67835	1.37562	0.14897
2902.17824	1.37575	0.14898
2900.67813	1.37589	0.14896
2899.17802	1.37603	0.14893
2897.67791	1.37617	0.1489
2896.1778	1.37632	0.14887
2894.67768	1.37646	0.14883
2893.17757	1.3766	0.1488
2891.67746	1.37674	0.14877
2890.17735	1.37687	0.14875
2888.67724	1.37702	0.14874
2887.17712	1.37716	0.14874
2885.67701	1.37733	0.14874
2884.1769	1.37749	0.14875
2882.67679	1.37766	0.14875
2881.17668	1.37785	0.14876
2879.67657	1.37805	0.14876
2878.17645	1.37825	0.14874
2876.67634	1.37846	0.14872
2875.17623	1.37866	0.14868
2873.67612	1.37888	0.14863
2872.17601	1.37908	0.14857
2870.67589	1.37928	0.14851
2869.17578	1.37948	0.14845
2867.67567	1.37968	0.14839
2866.17556	1.37989	0.14834
2864.67545	1.38009	0.1483
2863.17534	1.3803	0.14825
2861.67522	1.38053	0.1482
2860.17511	1.38077	0.14815
2858.675	1.38102	0.14809
2857.17489	1.38128	0.14801
2855.67478	1.38155	0.14791
2854.17466	1.38179	0.14778
2852.67455	1.38203	0.1476
2851.17444	1.38224	0.14739
2849.67433	1.38242	0.14713
2848.17422	1.38257	0.14686
2846.67411	1.38269	0.14662
2845.17399	1.38277	0.14641
2843.67388	1.38284	0.14625
2842.17377	1.38291	0.14613
2840.67366	1.38298	0.14605
2839.17355	1.38305	0.14598
2837.67343	1.38313	0.1459
2836.17332	1.38321	0.14583
2834.67321	1.38331	0.14576
2833.1731	1.38342	0.14569
2831.67299	1.38354	0.14563
2830.17288	1.38367	0.14557
2828.67276	1.3838	0.14554
2827.17265	1.38395	0.14549
2825.67254	1.3841	0.14544
2824.17243	1.38426	0.14539
2822.67232	1.38445	0.14533
2821.17221	1.38463	0.14526
2819.67209	1.38481	0.14517
2818.17198	1.385	0.14508
2816.67187	1.3852	0.14498
2815.17176	1.38539	0.14488
2813.67165	1.38559	0.14476
2812.17153	1.38578	0.14464
2810.67142	1.38596	0.14449
2809.17131	1.38615	0.14434
2807.6712	1.38632	0.14417
2806.17109	1.38648	0.144
2804.67098	1.38665	0.14383
2803.17086	1.3868	0.14366
2801.67075	1.38694	0.1435
2800.17064	1.38709	0.14334
2798.67053	1.38723	0.14319
2797.17042	1.38738	0.14301
2795.6703	1.38751	0.14284
2794.17019	1.38765	0.14266
2792.67008	1.38778	0.14248
2791.16997	1.3879	0.14229
2789.66986	1.38802	0.1421
2788.16975	1.38813	0.14191
2786.66963	1.38823	0.14172
2785.16952	1.38833	0.14154
2783.66941	1.38843	0.14136
2782.1693	1.38854	0.14119
2780.66919	1.38864	0.14102
2779.16907	1.38874	0.14084
2777.66896	1.38884	0.14066
2776.16885	1.38893	0.14046
2774.66874	1.38903	0.14024
2773.16863	1.3891	0.14004
2771.66852	1.38917	0.13982
2770.1684	1.38922	0.1396
2768.66829	1.38928	0.1394
2767.16818	1.38933	0.13919
2765.66807	1.38936	0.13901
2764.16796	1.3894	0.13883
2762.66784	1.38943	0.13864
2761.16773	1.38947	0.13847
2759.66762	1.38951	0.13829
2758.16751	1.38954	0.1381
2756.6674	1.38958	0.13793
2755.16729	1.38962	0.13775
2753.66717	1.38965	0.13757
2752.16706	1.38968	0.13739
2750.66695	1.38971	0.1372
2749.16684	1.38973	0.137
2747.66673	1.38974	0.13679
2746.16661	1.38974	0.13658
2744.6665	1.38973	0.13638
2743.16639	1.38971	0.13619
2741.66628	1.38969	0.136
2740.16617	1.38966	0.13582
2738.66606	1.38963	0.13565
2737.16594	1.38959	0.1355
2735.66583	1.38956	0.13534
2734.16572	1.38953	0.1352
2732.66561	1.3895	0.13506
2731.1655	1.38947	0.13492
2729.66538	1.38943	0.13478
2728.16527	1.3894	0.13464
2726.66516	1.38937	0.1345
2725.16505	1.38934	0.13435
2723.66494	1.38931	0.1342
2722.16483	1.38926	0.13405
2720.66471	1.38922	0.1339
2719.1646	1.38917	0.13376
2717.66449	1.38911	0.13363
2716.16438	1.38906	0.1335
2714.66427	1.389	0.13338
2713.16415	1.38894	0.13327
2711.66404	1.38888	0.13316
2710.16393	1.38883	0.13306
2708.66382	1.38877	0.13296
2707.16371	1.38872	0.13286
2705.6636	1.38867	0.13277
2704.16348	1.38862	0.13268
2702.66337	1.38858	0.13258
2701.16326	1.38853	0.13249
2699.66315	1.38847	0.1324
2698.16304	1.38843	0.1323
2696.66292	1.38838	0.13221
2695.16281	1.38832	0.13212
2693.6627	1.38828	0.13202
2692.16259	1.38823	0.13195
2690.66248	1.38818	0.13187
2689.16237	1.38814	0.13181
2687.66225	1.38809	0.13175
2686.16214	1.38806	0.13169
2684.66203	1.38804	0.13162
2683.16192	1.38802	0.13155
2681.66181	1.38799	0.13146
2680.16169	1.38797	0.13136
2678.66158	1.38794	0.13126
2677.16147	1.38791	0.13116
2675.66136	1.38787	0.13105
2674.16125	1.38782	0.13095
2672.66114	1.38776	0.13085
2671.16102	1.3877	0.13075
2669.66091	1.38764	0.13066
2668.1608	1.38758	0.13056
2666.66069	1.38751	0.13047
2665.16058	1.38744	0.1304
2663.66046	1.38737	0.13032
2662.16035	1.3873	0.13025
2660.66024	1.38724	0.13019
2659.16013	1.38716	0.13012
2657.66002	1.3871	0.13006
2656.15991	1.38704	0.12999
2654.65979	1.38697	0.12993
2653.15968	1.38689	0.12985
2651.65957	1.38683	0.12978
2650.15946	1.38675	0.12972
2648.65935	1.38667	0.12966
2647.15923	1.3866	0.1296
2645.65912	1.38652	0.12955
2644.15901	1.38645	0.12951
2642.6589	1.38637	0.12947
2641.15879	1.3863	0.12943
2639.65868	1.38622	0.12939
2638.15856	1.38614	0.12934
2636.65845	1.38607	0.12928
2635.15834	1.38599	0.12924
2633.65823	1.38591	0.12919
2632.15812	1.38582	0.12915
2630.658	1.38574	0.12913
2629.15789	1.38566	0.1291
2627.65778	1.38558	0.12908
2626.15767	1.38549	0.12907
2624.65756	1.38541	0.12904
2623.15745	1.38533	0.12903
2621.65733	1.38525	0.129
2620.15722	1.38516	0.12899
2618.65711	1.38508	0.12898
2617.157	1.385	0.12898
2615.65689	1.38492	0.12899
2614.15678	1.38484	0.12901
2612.65666	1.38477	0.12903
2611.15655	1.3847	0.12905
2609.65644	1.38464	0.12906
2608.15633	1.38458	0.12907
2606.65622	1.38451	0.12908
2605.1561	1.38446	0.12911
2603.65599	1.38441	0.12913
2602.15588	1.38435	0.12915
2600.65577	1.3843	0.12918
2599.15566	1.38426	0.12921
2597.65555	1.38422	0.12924
2596.15543	1.38418	0.12929
2594.65532	1.38416	0.12933
2593.15521	1.38414	0.12936
2591.6551	1.38412	0.1294
2590.15499	1.38412	0.12942
2588.65487	1.38411	0.12945
2587.15476	1.3841	0.12946
2585.65465	1.3841	0.12946
2584.15454	1.3841	0.12947
2582.65443	1.3841	0.12947
2581.15432	1.38409	0.12948
2579.6542	1.38409	0.12948
2578.15409	1.38409	0.12949
2576.65398	1.38409	0.12949
2575.15387	1.38409	0.12948
2573.65376	1.38409	0.12946
2572.15364	1.38409	0.12945
2570.65353	1.38409	0.12943
2569.15342	1.38409	0.12941
2567.65331	1.38408	0.12939
2566.1532	1.38407	0.12937
2564.65309	1.38406	0.12935
2563.15297	1.38405	0.12932
2561.65286	1.38404	0.12929
2560.15275	1.38402	0.12927
2558.65264	1.38401	0.12924
2557.15253	1.38399	0.12921
2555.65241	1.38397	0.12917
2554.1523	1.38395	0.12915
2552.65219	1.38393	0.12912
2551.15208	1.3839	0.12908
2549.65197	1.38388	0.12905
2548.15186	1.38385	0.12901
2546.65174	1.38382	0.12898
2545.15163	1.38379	0.12894
2543.65152	1.38375	0.12891
2542.15141	1.38371	0.12888
2540.6513	1.38367	0.12885
2539.15118	1.38363	0.12882
2537.65107	1.38359	0.12879
2536.15096	1.38354	0.12876
2534.65085	1.3835	0.12873
2533.15074	1.38345	0.12869
2531.65063	1.38339	0.12866
2530.15051	1.38335	0.12863
2528.6504	1.38329	0.1286
2527.15029	1.38323	0.12858
2525.65018	1.38317	0.12857
2524.15007	1.38311	0.12855
2522.64995	1.38304	0.12852
2521.14984	1.38298	0.1285
2519.64973	1.3829	0.12847
2518.14962	1.38283	0.12846
2516.64951	1.38275	0.12845
2515.1494	1.38266	0.12845
2513.64928	1.38259	0.12846
2512.14917	1.38251	0.12847
2510.64906	1.38244	0.1285
2509.14895	1.38237	0.12852
2507.64884	1.38231	0.12855
2506.14872	1.38224	0.12858
2504.64861	1.38219	0.12863
2503.1485	1.38215	0.12866
2501.64839	1.3821	0.12871
2500.14828	1.38206	0.12874
2498.64817	1.38203	0.12876
2497.14805	1.38199	0.12878
2495.64794	1.38195	0.12878
2494.14783	1.38191	0.1288
2492.64772	1.38187	0.12882
2491.14761	1.38182	0.12884
2489.64749	1.38179	0.12888
2488.14738	1.38174	0.12893
2486.64727	1.38172	0.12899
2485.14716	1.38171	0.12903
2483.64705	1.38169	0.12908
2482.14694	1.38169	0.12912
2480.64682	1.38169	0.12915
2479.14671	1.38169	0.12918
2477.6466	1.3817	0.12919
2476.14649	1.38171	0.12921
2474.64638	1.38171	0.12921
2473.14626	1.38172	0.1292
2471.64615	1.38172	0.1292
2470.14604	1.38171	0.12918
2468.64593	1.38171	0.12917
2467.14582	1.3817	0.12917
2465.64571	1.3817	0.12916
2464.14559	1.3817	0.12916
2462.64548	1.38169	0.12915
2461.14537	1.38169	0.12914
2459.64526	1.38168	0.12912
2458.14515	1.38168	0.1291
2456.64503	1.38168	0.12908
2455.14492	1.38168	0.12905
2453.64481	1.38167	0.12902
2452.1447	1.38166	0.12897
2450.64459	1.38165	0.12892
2449.14448	1.38163	0.12888
2447.64436	1.38161	0.12883
2446.14425	1.38159	0.12878
2444.64414	1.38156	0.12874
2443.14403	1.38153	0.12869
2441.64392	1.38149	0.12864
2440.1438	1.38146	0.12859
2438.64369	1.38142	0.12852
2437.14358	1.38137	0.12846
2435.64347	1.38133	0.1284
2434.14336	1.38127	0.12834
2432.64325	1.38122	0.12829
2431.14313	1.38115	0.12822
2429.64302	1.38109	0.12816
2428.14291	1.38101	0.12808
2426.6428	1.38092	0.12801
2425.14269	1.38083	0.12794
2423.64258	1.38074	0.12787
2422.14246	1.38063	0.12782
2420.64235	1.38052	0.12777
2419.14224	1.38041	0.12773
2417.64213	1.38029	0.1277
2416.14202	1.38017	0.12766
2414.6419	1.38005	0.12763
2413.14179	1.37993	0.1276
2411.64168	1.37981	0.12758
2410.14157	1.37968	0.12756
2408.64146	1.37955	0.12755
2407.14135	1.37942	0.12754
2405.64123	1.3793	0.12755
2404.14112	1.37918	0.12755
2402.64101	1.37906	0.12757
2401.1409	1.37894	0.12757
2399.64079	1.37882	0.12759
2398.14067	1.37871	0.1276
2396.64056	1.37859	0.1276
2395.14045	1.37848	0.12761
2393.64034	1.37835	0.12761
2392.14023	1.37823	0.12762
2390.64012	1.37811	0.12762
2389.14	1.37797	0.12763
2387.63989	1.37783	0.12763
2386.13978	1.37768	0.12763
2384.63967	1.37752	0.12765
2383.13956	1.37737	0.12767
2381.63944	1.37721	0.12771
2380.13933	1.37705	0.12778
2378.63922	1.3769	0.12785
2377.13911	1.37676	0.12795
2375.639	1.37663	0.12805
2374.13889	1.37651	0.12815
2372.63877	1.37639	0.12825
2371.13866	1.37629	0.12834
2369.63855	1.3762	0.12842
2368.13844	1.3761	0.12851
2366.63833	1.37601	0.12859
2365.13821	1.37593	0.12865
2363.6381	1.37584	0.12873
2362.13799	1.37576	0.1288
2360.63788	1.37567	0.12887
2359.13777	1.37558	0.12894
2357.63766	1.37551	0.12901
2356.13754	1.37542	0.12908
2354.63743	1.37533	0.12915
2353.13732	1.37525	0.12922
2351.63721	1.37517	0.12928
2350.1371	1.37509	0.12936
2348.63698	1.375	0.12942
2347.13687	1.37492	0.12949
2345.63676	1.37483	0.12955
2344.13665	1.37475	0.12963
2342.63654	1.37467	0.1297
2341.13643	1.37458	0.12976
2339.63631	1.37449	0.12983
2338.1362	1.37442	0.1299
2336.63609	1.37433	0.12997
2335.13598	1.37424	0.13004
2333.63587	1.37416	0.13011
2332.13575	1.37407	0.13019
2330.63564	1.37399	0.13026
2329.13553	1.3739	0.13033
2327.63542	1.37381	0.13041
2326.13531	1.37372	0.13048
2324.6352	1.37364	0.13055
2323.13508	1.37355	0.13063
2321.63497	1.37346	0.13071
2320.13486	1.37337	0.13079
2318.63475	1.37328	0.13088
2317.13464	1.37319	0.13096
2315.63452	1.3731	0.13104
2314.13441	1.373	0.13113
2312.6343	1.37291	0.13122
2311.13419	1.37283	0.13131
2309.63408	1.37273	0.13142
2308.13397	1.37264	0.13152
2306.63385	1.37256	0.13163
2305.13374	1.37247	0.13174
2303.63363	1.3724	0.13185
2302.13352	1.37232	0.13197
2300.63341	1.37225	0.13209
2299.13329	1.37218	0.13221
2297.63318	1.37211	0.13233
2296.13307	1.37205	0.13245
2294.63296	1.37199	0.13257
2293.13285	1.37194	0.13268
2291.63274	1.37189	0.13279
2290.13262	1.37183	0.1329
2288.63251	1.37177	0.13302
2287.1324	1.37173	0.13314
2285.63229	1.37168	0.13327
2284.13218	1.37164	0.1334
2282.63206	1.37161	0.13354
2281.13195	1.37158	0.13367
2279.63184	1.37156	0.1338
2278.13173	1.37154	0.13392
2276.63162	1.37153	0.13403
2275.13151	1.37152	0.13413
2273.63139	1.37151	0.13423
2272.13128	1.37149	0.13432
2270.63117	1.37147	0.1344
2269.13106	1.37145	0.13449
2267.63095	1.37142	0.13458
2266.13083	1.3714	0.13468
2264.63072	1.37138	0.13479
2263.13061	1.37135	0.1349
2261.6305	1.37134	0.13503
2260.13039	1.37134	0.13515
2258.63028	1.37134	0.13527
2257.13016	1.37135	0.13538
2255.63005	1.37137	0.13549
2254.12994	1.3714	0.13559
2252.62983	1.37142	0.13568
2251.12972	1.37145	0.13577
2249.6296	1.37148	0.13584
2248.12949	1.3715	0.1359
2246.62938	1.37154	0.13597
2245.12927	1.37156	0.13602
2243.62916	1.37158	0.13609
2242.12905	1.37161	0.13615
2240.62893	1.37164	0.13621
2239.12882	1.37167	0.13627
2237.62871	1.3717	0.13632
2236.1286	1.37173	0.13637
2234.62849	1.37178	0.13642
2233.12838	1.37181	0.13645
2231.62826	1.37185	0.13646
2230.12815	1.37188	0.13647
2228.62804	1.3719	0.13647
2227.12793	1.37193	0.13648
2225.62782	1.37196	0.13648
2224.1277	1.37198	0.13648
2222.62759	1.372	0.13648
2221.12748	1.37202	0.13647
2219.62737	1.37203	0.13644
2218.12726	1.37204	0.13641
2216.62715	1.37204	0.13637
2215.12703	1.37204	0.13632
2213.62692	1.37202	0.13627
2212.12681	1.372	0.13622
2210.6267	1.37197	0.13618
2209.12659	1.37193	0.13614
2207.62647	1.37188	0.13609
2206.12636	1.37184	0.13605
2204.62625	1.37178	0.13601
2203.12614	1.37172	0.13596
2201.62603	1.37166	0.13592
2200.12592	1.37159	0.13586
2198.6258	1.3715	0.13581
2197.12569	1.37142	0.13577
2195.62558	1.37133	0.13573
2194.12547	1.37123	0.13569
2192.62536	1.37113	0.13566
2191.12524	1.37102	0.13565
2189.62513	1.37092	0.13563
2188.12502	1.37082	0.13563
2186.62491	1.37072	0.13561
2185.1248	1.37061	0.1356
2183.62469	1.3705	0.13559
2182.12457	1.37039	0.13557
2180.62446	1.37028	0.13556
2179.12435	1.37016	0.13555
2177.62424	1.37005	0.13555
2176.12413	1.36994	0.13556
2174.62401	1.36982	0.13557
2173.1239	1.36971	0.13558
2171.62379	1.3696	0.13559
2170.12368	1.36948	0.13559
2168.62357	1.36937	0.1356
2167.12346	1.36926	0.1356
2165.62334	1.36913	0.1356
2164.12323	1.36902	0.13561
2162.62312	1.3689	0.13562
2161.12301	1.36878	0.13562
2159.6229	1.36866	0.13564
2158.12278	1.36853	0.13566
2156.62267	1.36841	0.13567
2155.12256	1.36828	0.13569
2153.62245	1.36816	0.13571
2152.12234	1.36804	0.13575
2150.62223	1.36793	0.13577
2149.12211	1.36782	0.1358
2147.622	1.36772	0.13583
2146.12189	1.36762	0.13584
2144.62178	1.36751	0.13585
2143.12167	1.3674	0.13585
2141.62155	1.36729	0.13584
2140.12144	1.36718	0.13583
2138.62133	1.36705	0.13582
2137.12122	1.36693	0.13582
2135.62111	1.36681	0.13581
2134.121	1.36668	0.13582
2132.62088	1.36656	0.13582
2131.12077	1.36643	0.13581
2129.62066	1.36631	0.1358
2128.12055	1.36617	0.13578
2126.62044	1.36604	0.13576
2125.12032	1.3659	0.13573
2123.62021	1.36575	0.1357
2122.1201	1.3656	0.13567
2120.61999	1.36544	0.13565
2119.11988	1.36528	0.13562
2117.61977	1.36511	0.13559
2116.11965	1.36494	0.13556
2114.61954	1.36476	0.13552
2113.11943	1.36458	0.13551
2111.61932	1.36439	0.13547
2110.11921	1.3642	0.13544
2108.61909	1.364	0.1354
2107.11898	1.36379	0.13537
2105.61887	1.36358	0.13534
2104.11876	1.36337	0.13531
2102.61865	1.36314	0.13529
2101.11854	1.3629	0.13526
2099.61842	1.36267	0.13525
2098.11831	1.36243	0.13522
2096.6182	1.36217	0.13521
2095.11809	1.36192	0.13519
2093.61798	1.36166	0.13517
2092.11786	1.36138	0.13517
2090.61775	1.3611	0.13516
2089.11764	1.36082	0.13515
2087.61753	1.36052	0.13516
2086.11742	1.36023	0.13516
2084.61731	1.35992	0.13518
2083.11719	1.35961	0.13521
2081.61708	1.35929	0.13526
2080.11697	1.35898	0.13531
2078.61686	1.35867	0.13537
2077.11675	1.35836	0.13544
2075.61663	1.35804	0.13552
2074.11652	1.35772	0.13559
2072.61641	1.35741	0.13567
2071.1163	1.3571	0.13575
2069.61619	1.35679	0.13584
2068.11608	1.35648	0.13593
2066.61596	1.35616	0.13603
2065.11585	1.35585	0.13613
2063.61574	1.35554	0.13624
2062.11563	1.35521	0.13635
2060.61552	1.3549	0.13646
2059.1154	1.35459	0.13657
2057.61529	1.35427	0.13669
2056.11518	1.35395	0.1368
2054.61507	1.35363	0.13693
2053.11496	1.35331	0.13706
2051.61485	1.353	0.1372
2050.11473	1.35267	0.13735
2048.61462	1.35234	0.13749
2047.11451	1.35202	0.13763
2045.6144	1.35169	0.13778
2044.11429	1.35137	0.13793
2042.61418	1.35105	0.13808
2041.11406	1.35072	0.13826
2039.61395	1.3504	0.13843
2038.11384	1.35009	0.13863
2036.61373	1.34978	0.13882
2035.11362	1.34948	0.13901
2033.6135	1.34918	0.1392
2032.11339	1.34888	0.13937
2030.61328	1.34859	0.13953
2029.11317	1.34829	0.13969
2027.61306	1.34798	0.13984
2026.11295	1.34766	0.13999
2024.61283	1.34732	0.14013
2023.11272	1.34699	0.14029
2021.61261	1.34665	0.14046
2020.1125	1.34632	0.14064
2018.61239	1.34597	0.14084
2017.11227	1.34563	0.14105
2015.61216	1.34529	0.14126
2014.11205	1.34496	0.14147
2012.61194	1.34463	0.14166
2011.11183	1.34428	0.14185
2009.61172	1.34394	0.14203
2008.1116	1.3436	0.1422
2006.61149	1.34324	0.14238
2005.11138	1.34287	0.14257
2003.61127	1.3425	0.14277
2002.11116	1.34211	0.14297
2000.61104	1.34172	0.14318
1999.11093	1.34131	0.14339
1997.61082	1.34091	0.1436
1996.11071	1.3405	0.14382
1994.6106	1.34008	0.14406
1993.11049	1.33966	0.14432
1991.61037	1.33924	0.14459
1990.11026	1.33883	0.14488
1988.61015	1.33841	0.14518
1987.11004	1.338	0.14547
1985.60993	1.33759	0.14576
1984.10981	1.33718	0.14606
1982.6097	1.33676	0.14634
1981.10959	1.33634	0.14663
1979.60948	1.33591	0.14692
1978.10937	1.33547	0.14722
1976.60926	1.33501	0.14753
1975.10914	1.33456	0.14786
1973.60903	1.33408	0.14819
1972.10892	1.33361	0.14855
1970.60881	1.33314	0.14893
1969.1087	1.33268	0.14933
1967.60858	1.33222	0.14976
1966.10847	1.33177	0.1502
1964.60836	1.33132	0.15065
1963.10825	1.3309	0.1511
1961.60814	1.33047	0.15155
1960.10803	1.33005	0.152
1958.60791	1.32962	0.15244
1957.1078	1.3292	0.1529
1955.60769	1.32878	0.15336
1954.10758	1.32835	0.15382
1952.60747	1.32792	0.1543
1951.10735	1.32747	0.15478
1949.60724	1.32703	0.15526
1948.10713	1.32659	0.15575
1946.60702	1.32615	0.15627
1945.10691	1.3257	0.15682
1943.6068	1.32526	0.15738
1942.10668	1.32485	0.15798
1940.60657	1.32443	0.15859
1939.10646	1.32404	0.15922
1937.60635	1.32365	0.15985
1936.10624	1.32329	0.16046
1934.60612	1.32292	0.16108
1933.10601	1.32256	0.16168
1931.6059	1.32221	0.16229
1930.10579	1.32185	0.16289
1928.60568	1.32149	0.1635
1927.10557	1.32112	0.16412
1925.60545	1.32076	0.16475
1924.10534	1.32039	0.1654
1922.60523	1.32003	0.16607
1921.10512	1.31967	0.16678
1919.60501	1.31933	0.16749
1918.10489	1.319	0.16821
1916.60478	1.31868	0.16896
1915.10467	1.31838	0.16969
1913.60456	1.31808	0.17043
1912.10445	1.31781	0.17117
1910.60434	1.31753	0.17192
1909.10422	1.31727	0.17267
1907.60411	1.31702	0.17344
1906.104	1.31679	0.1742
1904.60389	1.31656	0.17497
1903.10378	1.31634	0.17572
1901.60366	1.31612	0.17648
1900.10355	1.31589	0.17722
1898.60344	1.31566	0.17796
1897.10333	1.31544	0.17871
1895.60322	1.31521	0.17945
1894.10311	1.31498	0.18023
1892.60299	1.31475	0.18103
1891.10288	1.31454	0.18185
1889.60277	1.31433	0.18269
1888.10266	1.31414	0.18356
1886.60255	1.31397	0.18443
1885.10243	1.31381	0.18529
1883.60232	1.31367	0.18616
1882.10221	1.31354	0.18702
1880.6021	1.31342	0.18786
1879.10199	1.31328	0.1887
1877.60188	1.31314	0.18953
1876.10176	1.313	0.19036
1874.60165	1.31285	0.19119
1873.10154	1.3127	0.19204
1871.60143	1.31255	0.19293
1870.10132	1.31241	0.19385
1868.6012	1.31229	0.19485
1867.10109	1.3122	0.19589
1865.60098	1.31214	0.19694
1864.10087	1.31213	0.19799
1862.60076	1.31213	0.19902
1861.10065	1.31217	0.20003
1859.60053	1.31223	0.20101
1858.10042	1.3123	0.20197
1856.60031	1.31238	0.20291
1855.1002	1.31244	0.20384
1853.60009	1.31249	0.20476
1852.09997	1.31252	0.20567
1850.59986	1.31256	0.20659
1849.09975	1.31259	0.20754
1847.59964	1.31263	0.20853
1846.09953	1.31269	0.20959
1844.59942	1.31278	0.21071
1843.0993	1.3129	0.21187
1841.59919	1.31309	0.21304
1840.09908	1.3133	0.21418
1838.59897	1.31353	0.21527
1837.09886	1.31378	0.21631
1835.59875	1.31403	0.2173
1834.09863	1.31428	0.21828
1832.59852	1.31453	0.21925
1831.09841	1.31478	0.22025
1829.5983	1.31502	0.22131
1828.09819	1.31529	0.22243
1826.59807	1.31559	0.22359
1825.09796	1.31593	0.22479
1823.59785	1.31633	0.226
1822.09774	1.31677	0.22719
1820.59763	1.31724	0.22834
1819.09752	1.31775	0.22943
1817.5974	1.31828	0.23049
1816.09729	1.31881	0.23151
1814.59718	1.31937	0.23251
1813.09707	1.31992	0.2335
1811.59696	1.32047	0.2345
1810.09684	1.32102	0.23549
1808.59673	1.32158	0.23649
1807.09662	1.32215	0.23748
1805.59651	1.32274	0.23846
1804.0964	1.32331	0.23944
1802.59629	1.32389	0.24042
1801.09617	1.32447	0.24142
1799.59606	1.32508	0.24242
1798.09595	1.32572	0.24343
1796.59584	1.32637	0.24446
1795.09573	1.32706	0.24551
1793.59561	1.32775	0.24657
1792.0955	1.3285	0.24765
1790.59539	1.32929	0.24874
1789.09528	1.33012	0.24981
1787.59517	1.331	0.25082
1786.09506	1.33188	0.2518
1784.59494	1.33278	0.25274
1783.09483	1.33369	0.25365
1781.59472	1.33461	0.25452
1780.09461	1.33553	0.25538
1778.5945	1.33643	0.25623
1777.09438	1.33735	0.25707
1775.59427	1.33827	0.25792
1774.09416	1.33921	0.25879
1772.59405	1.34017	0.25971
1771.09394	1.34116	0.26066
1769.59383	1.34221	0.26164
1768.09371	1.34331	0.2626
1766.5936	1.34444	0.26353
1765.09349	1.34562	0.2644
1763.59338	1.34682	0.26521
1762.09327	1.34806	0.26598
1760.59315	1.3493	0.26673
1759.09304	1.35056	0.26743
1757.59293	1.35181	0.2681
1756.09282	1.35307	0.26873
1754.59271	1.35433	0.26934
1753.0926	1.3556	0.26994
1751.59248	1.35688	0.27054
1750.09237	1.35817	0.27119
1748.59226	1.35951	0.27186
1747.09215	1.36091	0.27255
1745.59204	1.36236	0.27322
1744.09192	1.36382	0.27384
1742.59181	1.36529	0.27438
1741.0917	1.3668	0.27479
1739.59159	1.36831	0.27516
1738.09148	1.36985	0.27547
1736.59137	1.37141	0.27578
1735.09125	1.37297	0.27612
1733.59114	1.37456	0.27652
1732.09103	1.37623	0.27695
1730.59092	1.37796	0.27736
1729.09081	1.37973	0.27766
1727.59069	1.38153	0.27783
1726.09058	1.3833	0.2778
1724.59047	1.38504	0.27758
1723.09036	1.38676	0.27724
1721.59025	1.38843	0.27684
1720.09014	1.39006	0.27646
1718.59002	1.39164	0.27616
1717.08991	1.39323	0.27597
1715.5898	1.39483	0.27583
1714.08969	1.39648	0.27567
1712.58958	1.39815	0.27539
1711.08946	1.39981	0.27496
1709.58935	1.40143	0.27435
1708.08924	1.40299	0.27355
1706.58913	1.40448	0.27264
1705.08902	1.40589	0.27173
1703.58891	1.40723	0.27086
1702.08879	1.40852	0.27005
1700.58868	1.40977	0.26936
1699.08857	1.41103	0.26879
1697.58846	1.41233	0.26827
1696.08835	1.41367	0.26769
1694.58823	1.41502	0.26704
1693.08812	1.41635	0.26622
1691.58801	1.41763	0.26519
1690.0879	1.41885	0.26401
1688.58779	1.42002	0.26277
1687.08768	1.4211	0.26155
1685.58756	1.4221	0.26041
1684.08745	1.42303	0.2594
1682.58734	1.42395	0.2585
1681.08723	1.42487	0.25762
1679.58712	1.42578	0.25668
1678.087	1.42666	0.25565
1676.58689	1.42749	0.25453
1675.08678	1.42832	0.25336
1673.58667	1.42913	0.25221
1672.08656	1.42992	0.2511
1670.58645	1.43067	0.25004
1669.08633	1.4314	0.24905
1667.58622	1.43214	0.24808
1666.08611	1.43292	0.24706
1664.586	1.43366	0.24598
1663.08589	1.43434	0.24479
1661.58577	1.43496	0.24354
1660.08566	1.43554	0.24218
1658.58555	1.43606	0.24079
1657.08544	1.4365	0.2394
1655.58533	1.43682	0.2381
1654.08522	1.43708	0.2369
1652.5851	1.43738	0.23589
1651.08499	1.43776	0.23503
1649.58488	1.43821	0.23423
1648.08477	1.43868	0.23345
1646.58466	1.4392	0.23264
1645.08455	1.43976	0.23172
1643.58443	1.44037	0.2306
1642.08432	1.441	0.22933
1640.58421	1.44159	0.22796
1639.0841	1.44212	0.22656
1637.58399	1.44259	0.22515
1636.08387	1.44301	0.22378
1634.58376	1.44344	0.22248
1633.08365	1.44384	0.22117
1631.58354	1.44421	0.21977
1630.08343	1.44452	0.21827
1628.58332	1.4448	0.21668
1627.0832	1.445	0.21502
1625.58309	1.44515	0.21331
1624.08298	1.44521	0.21159
1622.58287	1.44521	0.2099
1621.08276	1.44513	0.20823
1619.58264	1.44498	0.20658
1618.08253	1.44476	0.20491
1616.58242	1.44447	0.20326
1615.08231	1.44414	0.20163
1613.5822	1.44377	0.20001
1612.08209	1.44335	0.19836
1610.58197	1.44285	0.19671
1609.08186	1.44228	0.19509
1607.58175	1.44164	0.19346
1606.08164	1.44095	0.19185
1604.58153	1.44021	0.19027
1603.08141	1.43938	0.18874
1601.5813	1.43849	0.18725
1600.08119	1.43756	0.18579
1598.58108	1.43657	0.18438
1597.08097	1.43554	0.18302
1595.58086	1.43448	0.18171
1594.08074	1.43337	0.18046
1592.58063	1.43224	0.17927
1591.08052	1.43109	0.17813
1589.58041	1.42993	0.17703
1588.0803	1.42873	0.17596
1586.58018	1.42751	0.1749
1585.08007	1.42625	0.17387
1583.57996	1.42494	0.17285
1582.07985	1.42362	0.17187
1580.57974	1.42227	0.17094
1579.07963	1.42088	0.1701
1577.57951	1.41945	0.16931
1576.0794	1.41804	0.16862
1574.57929	1.41663	0.16803
1573.07918	1.41527	0.16752
1571.57907	1.41392	0.16701
1570.07895	1.41255	0.16654
1568.57884	1.41117	0.16608
1567.07873	1.40976	0.16556
1565.57862	1.40834	0.16499
1564.07851	1.40692	0.16446
1562.5784	1.40546	0.164
1561.07828	1.40397	0.16365
1559.57817	1.40248	0.16345
1558.07806	1.40104	0.16345
1556.57795	1.39972	0.16358
1555.07784	1.39847	0.16372
1553.57772	1.39725	0.1638
1552.07761	1.39607	0.16379
1550.5775	1.39487	0.16365
1549.07739	1.39366	0.16342
1547.57728	1.39245	0.16314
1546.07717	1.39121	0.16291
1544.57705	1.3899	0.16278
1543.07694	1.38856	0.16279
1541.57683	1.38724	0.16292
1540.07672	1.38596	0.16314
1538.57661	1.38476	0.16345
1537.07649	1.38361	0.16376
1535.57638	1.38251	0.16401
1534.07627	1.38142	0.16418
1532.57616	1.38035	0.1643
1531.07605	1.37927	0.16438
1529.57594	1.37819	0.16441
1528.07582	1.37706	0.16443
1526.57571	1.37588	0.16452
1525.0756	1.37468	0.16466
1523.57549	1.37348	0.16487
1522.07538	1.37231	0.16516
1520.57526	1.37117	0.16554
1519.07515	1.37005	0.16599
1517.57504	1.36896	0.16643
1516.07493	1.36788	0.16683
1514.57482	1.36682	0.16719
1513.07471	1.3658	0.1675
1511.57459	1.36479	0.1678
1510.07448	1.3638	0.16816
1508.57437	1.36281	0.16861
1507.07426	1.36183	0.16916
1505.57415	1.36094	0.16977
1504.07403	1.36011	0.17036
1502.57392	1.35932	0.17088
1501.07381	1.35854	0.17129
1499.5737	1.35772	0.1716
1498.07359	1.35688	0.17183
1496.57348	1.35604	0.17201
1495.07336	1.35518	0.17224
1493.57325	1.35429	0.17251
1492.07314	1.35336	0.17286
1490.57303	1.35242	0.17329
1489.07292	1.35151	0.17378
1487.5728	1.35066	0.17431
1486.07269	1.34984	0.17481
1484.57258	1.34903	0.17525
1483.07247	1.34821	0.17563
1481.57236	1.34736	0.17592
1480.07225	1.34649	0.17616
1478.57213	1.34562	0.1764
1477.07202	1.34472	0.1767
1475.57191	1.34379	0.17707
1474.0718	1.34285	0.17753
1472.57169	1.34193	0.17805
1471.07157	1.34106	0.17859
1469.57146	1.34021	0.17912
1468.07135	1.33936	0.17959
1466.57124	1.33848	0.17997
1465.07113	1.33757	0.18029
1463.57102	1.33665	0.18058
1462.0709	1.3357	0.18088
1460.57079	1.33473	0.18124
1459.07068	1.33372	0.18169
1457.57057	1.33269	0.18225
1456.07046	1.3317	0.1829
1454.57035	1.33076	0.1836
1453.07023	1.32988	0.18429
1451.57012	1.32903	0.18494
1450.07001	1.3282	0.18557
1448.5699	1.32738	0.18613
1447.06979	1.32657	0.18665
1445.56967	1.32575	0.18714
1444.06956	1.32491	0.18759
1442.56945	1.32403	0.18801
1441.06934	1.3231	0.18843
1439.56923	1.32215	0.18886
1438.06912	1.32117	0.18934
1436.569	1.32019	0.18989
1435.06889	1.31921	0.19052
1433.56878	1.31826	0.19119
1432.06867	1.31731	0.19186
1430.56856	1.31636	0.1925
1429.06844	1.3154	0.19312
1427.56833	1.31444	0.1937
1426.06822	1.31347	0.19424
1424.56811	1.31248	0.19479
1423.068	1.31148	0.19537
1421.56789	1.31046	0.19601
1420.06777	1.30943	0.19671
1418.56766	1.30842	0.19747
1417.06755	1.30742	0.19828
1415.56744	1.30647	0.1991
1414.06733	1.30552	0.19989
1412.56721	1.3046	0.20065
1411.0671	1.30366	0.20136
1409.56699	1.30273	0.20203
1408.06688	1.30177	0.20268
1406.56677	1.30079	0.2033
1405.06666	1.29976	0.20394
1403.56654	1.29868	0.20459
1402.06643	1.29758	0.20526
1400.56632	1.29646	0.20596
1399.06621	1.29531	0.20672
1397.5661	1.29416	0.20754
1396.06598	1.293	0.20842
1394.56587	1.29184	0.20933
1393.06576	1.29071	0.21027
1391.56565	1.28959	0.21122
1390.06554	1.28847	0.21216
1388.56543	1.28735	0.21311
1387.06531	1.28623	0.21406
1385.5652	1.28511	0.21504
1384.06509	1.28399	0.21602
1382.56498	1.28285	0.217
1381.06487	1.28169	0.21797
1379.56475	1.2805	0.21896
1378.06464	1.2793	0.21997
1376.56453	1.27811	0.22103
1375.06442	1.27689	0.22213
1373.56431	1.27568	0.2233
1372.0642	1.27445	0.22453
1370.56408	1.27323	0.22576
1369.06397	1.27201	0.22701
1367.56386	1.2708	0.22826
1366.06375	1.26959	0.22954
1364.56364	1.26837	0.23085
1363.06352	1.26716	0.23222
1361.56341	1.26597	0.23366
1360.0633	1.26481	0.23516
1358.56319	1.26366	0.23671
1357.06308	1.26255	0.23828
1355.56297	1.26146	0.23987
1354.06285	1.2604	0.24146
1352.56274	1.25937	0.24307
1351.06263	1.25838	0.24468
1349.56252	1.25738	0.24629
1348.06241	1.25639	0.24792
1346.56229	1.25542	0.24955
1345.06218	1.25446	0.2512
1343.56207	1.25351	0.25287
1342.06196	1.25259	0.25459
1340.56185	1.2517	0.25635
1339.06174	1.25084	0.25818
1337.56162	1.25004	0.26005
1336.06151	1.24929	0.26195
1334.5614	1.2486	0.26384
1333.06129	1.24796	0.26571
1331.56118	1.24737	0.26754
1330.06106	1.24681	0.26932
1328.56095	1.24629	0.27106
1327.06084	1.24579	0.27277
1325.56073	1.24531	0.27445
1324.06062	1.24484	0.27608
1322.56051	1.24437	0.27768
1321.06039	1.2439	0.27925
1319.56028	1.24343	0.28078
1318.06017	1.24296	0.28228
1316.56006	1.24249	0.28376
1315.05995	1.24199	0.2852
1313.55983	1.2415	0.2866
1312.05972	1.24098	0.28797
1310.55961	1.24043	0.28928
1309.0595	1.23985	0.29054
1307.55939	1.23923	0.29176
1306.05928	1.23855	0.29292
1304.55916	1.23781	0.29404
1303.05905	1.23701	0.29512
1301.55894	1.23612	0.29616
1300.05883	1.23515	0.29719
1298.55872	1.23408	0.2982
1297.0586	1.23292	0.2992
1295.55849	1.23165	0.30021
1294.05838	1.23027	0.30123
1292.55827	1.22878	0.30227
1291.05816	1.22717	0.30333
1289.55805	1.22544	0.30443
1288.05793	1.22359	0.30559
1286.55782	1.22161	0.30682
1285.05771	1.21952	0.30815
1283.5576	1.21731	0.30958
1282.05749	1.21498	0.31113
1280.55737	1.21254	0.31279
1279.05726	1.21	0.31459
1277.55715	1.20735	0.31653
1276.05704	1.20462	0.31863
1274.55693	1.20179	0.32091
1273.05682	1.1989	0.32338
1271.5567	1.19594	0.32606
1270.05659	1.19292	0.32897
1268.55648	1.18987	0.33211
1267.05637	1.1868	0.33548
1265.55626	1.18372	0.33912
1264.05615	1.18064	0.343
1262.55603	1.17761	0.34715
1261.05592	1.17463	0.35159
1259.55581	1.17171	0.3563
1258.0557	1.1689	0.36131
1256.55559	1.16622	0.3666
1255.05547	1.16368	0.37217
1253.55536	1.16131	0.37803
1252.05525	1.15914	0.38414
1250.55514	1.15718	0.3905
1249.05503	1.15547	0.39709
1247.55492	1.15401	0.4039
1246.0548	1.15283	0.4109
1244.55469	1.15194	0.41806
1243.05458	1.15135	0.42537
1241.55447	1.15107	0.4328
1240.05436	1.15111	0.44034
1238.55424	1.15149	0.44792
1237.05413	1.15219	0.45556
1235.55402	1.15323	0.46321
1234.05391	1.15459	0.47083
1232.5538	1.15627	0.47842
1231.05369	1.15828	0.48594
1229.55357	1.16058	0.49337
1228.05346	1.16318	0.50068
1226.55335	1.16606	0.50787
1225.05324	1.1692	0.5149
1223.55313	1.17259	0.52177
1222.05301	1.17619	0.52845
1220.5529	1.18001	0.53493
1219.05279	1.184	0.54121
1217.55268	1.18814	0.54729
1216.05257	1.19242	0.55316
1214.55246	1.19682	0.55883
1213.05234	1.20131	0.56432
1211.55223	1.20588	0.56964
1210.05212	1.21052	0.5748
1208.55201	1.21522	0.5798
1207.0519	1.21996	0.58467
1205.55178	1.22476	0.58943
1204.05167	1.22959	0.59409
1202.55156	1.23447	0.59866
1201.05145	1.2394	0.60316
1199.55134	1.24438	0.6076
1198.05123	1.24941	0.612
1196.55111	1.25453	0.61635
1195.051	1.25973	0.62067
1193.55089	1.26503	0.62497
1192.05078	1.27044	0.62925
1190.55067	1.27598	0.63351
1189.05055	1.28168	0.63774
1187.55044	1.28754	0.64194
1186.05033	1.29359	0.6461
1184.55022	1.29984	0.6502
1183.05011	1.30631	0.65421
1181.55	1.313	0.65811
1180.04988	1.31995	0.66188
1178.54977	1.32713	0.66548
1177.04966	1.33455	0.66886
1175.54955	1.3422	0.67201
1174.04944	1.35007	0.67489
1172.54932	1.35817	0.67744
1171.04921	1.36644	0.67966
1169.5491	1.37488	0.68149
1168.04899	1.38346	0.68292
1166.54888	1.39213	0.68392
1165.04877	1.40087	0.68448
1163.54865	1.40964	0.68459
1162.04854	1.41839	0.68422
1160.54843	1.42709	0.6834
1159.04832	1.43569	0.68211
1157.54821	1.44416	0.68033
1156.04809	1.45244	0.67812
1154.54798	1.4605	0.67548
1153.04787	1.46832	0.67242
1151.54776	1.47585	0.66896
1150.04765	1.48304	0.66515
1148.54754	1.4899	0.66102
1147.04742	1.49637	0.65661
1145.54731	1.50243	0.65194
1144.0472	1.5081	0.64706
1142.54709	1.51335	0.64203
1141.04698	1.51818	0.63689
1139.54686	1.52258	0.63168
1138.04675	1.52657	0.62644
1136.54664	1.53016	0.62121
1135.04653	1.53336	0.61602
1133.54642	1.53619	0.61089
1132.04631	1.53866	0.60586
1130.54619	1.54079	0.60094
1129.04608	1.54261	0.59617
1127.54597	1.54414	0.59154
1126.04586	1.5454	0.5871
1124.54575	1.5464	0.58283
1123.04563	1.54719	0.57878
1121.54552	1.54778	0.57491
1120.04541	1.54818	0.57124
1118.5453	1.54842	0.56778
1117.04519	1.54852	0.56451
1115.54508	1.54849	0.56142
1114.04496	1.54835	0.55852
1112.54485	1.5481	0.55579
1111.04474	1.54774	0.55323
1109.54463	1.54729	0.55084
1108.04452	1.54677	0.54862
1106.5444	1.54616	0.54656
1105.04429	1.54547	0.54467
1103.54418	1.54471	0.54292
1102.04407	1.54387	0.54133
1100.54396	1.54295	0.53988
1099.04385	1.54195	0.53857
1097.54373	1.54086	0.53741
1096.04362	1.53967	0.5364
1094.54351	1.53838	0.53555
1093.0434	1.53697	0.53489
1091.54329	1.53545	0.5344
1090.04317	1.53382	0.53415
1088.54306	1.53205	0.53413
1087.04295	1.53018	0.53439
1085.54284	1.52819	0.53496
1084.04273	1.52611	0.53588
1082.54262	1.52397	0.53721
1081.0425	1.52179	0.539
1079.54239	1.51963	0.54129
1078.04228	1.51756	0.54416
1076.54217	1.51564	0.54765
1075.04206	1.51397	0.55179
1073.54194	1.51265	0.55661
1072.04183	1.51178	0.56212
1070.54172	1.51147	0.56829
1069.04161	1.51184	0.57507
1067.5415	1.51297	0.58239
1066.04139	1.51499	0.59014
1064.54127	1.51794	0.59821
1063.04116	1.52189	0.60643
1061.54105	1.52687	0.61464
1060.04094	1.53289	0.62269
1058.54083	1.53992	0.63039
1057.04072	1.54793	0.63759
1055.5406	1.55685	0.64412
1054.04049	1.56658	0.64987
1052.54038	1.57701	0.65472
1051.04027	1.58804	0.65857
1049.54016	1.59954	0.66135
1048.04004	1.61135	0.663
1046.53993	1.62334	0.66349
1045.03982	1.63536	0.66283
1043.53971	1.64729	0.66105
1042.0396	1.659	0.65821
1040.53949	1.67038	0.65439
1039.03937	1.68134	0.64968
1037.53926	1.6918	0.64415
1036.03915	1.70168	0.63793
1034.53904	1.71097	0.63107
1033.03893	1.71959	0.62367
1031.53881	1.72754	0.61583
1030.0387	1.73481	0.60764
1028.53859	1.74139	0.59919
1027.03848	1.7473	0.59053
1025.53837	1.75254	0.58176
1024.03826	1.75714	0.57293
1022.53814	1.76112	0.5641
1021.03803	1.76452	0.55531
1019.53792	1.76736	0.54661
1018.03781	1.76968	0.53804
1016.5377	1.77153	0.52964
1015.03758	1.77294	0.52142
1013.53747	1.77394	0.5134
1012.03736	1.77456	0.5056
1010.53725	1.77483	0.49799
1009.03714	1.77476	0.49059
1007.53703	1.77439	0.48337
1006.03691	1.77369	0.47634
1004.5368	1.7727	0.4695
1003.03669	1.77141	0.46289
1001.53658	1.76985	0.45653
1000.03647	1.76805	0.45048
998.53635	1.76602	0.44475
997.03624	1.76382	0.4394
995.53613	1.7615	0.43443
994.03602	1.75911	0.42988
992.53591	1.75672	0.42573
991.0358	1.75439	0.42196
989.53568	1.75214	0.41853
988.03557	1.75002	0.41538
986.53546	1.74807	0.41242
985.03535	1.74628	0.40959
983.53524	1.74462	0.40681
982.03512	1.7431	0.40402
980.53501	1.74166	0.40117
979.0349	1.74028	0.39826
977.53479	1.73892	0.39527
976.03468	1.73753	0.39224
974.53457	1.7361	0.38913
973.03445	1.73458	0.38601
971.53434	1.73296	0.38286
970.03423	1.73125	0.37971
968.53412	1.7294	0.37657
967.03401	1.72741	0.37346
965.53389	1.72529	0.37041
964.03378	1.72302	0.36742
962.53367	1.72061	0.36452
961.03356	1.71807	0.36172
959.53345	1.71538	0.35903
958.03334	1.71256	0.35648
956.53322	1.7096	0.35409
955.03311	1.70654	0.35187
953.533	1.70336	0.34981
952.03289	1.70008	0.34793
950.53278	1.69671	0.34626
949.03266	1.69325	0.34477
947.53255	1.68972	0.34349
946.03244	1.68611	0.34244
944.53233	1.68246	0.34162
943.03222	1.67877	0.34103
941.53211	1.67504	0.34071
940.03199	1.6713	0.34064
938.53188	1.66755	0.34085
937.03177	1.66382	0.34133
935.53166	1.66013	0.34212
934.03155	1.65649	0.3432
932.53143	1.65294	0.3446
931.03132	1.64948	0.34631
929.53121	1.64617	0.34835
928.0311	1.64302	0.35074
926.53099	1.64008	0.35347
925.03088	1.63738	0.35654
923.53076	1.63496	0.35996
922.03065	1.63288	0.3637
920.53054	1.63116	0.36775
919.03043	1.62986	0.37207
917.53032	1.62901	0.37665
916.0302	1.62866	0.38144
914.53009	1.62884	0.3864
913.02998	1.62959	0.39148
911.52987	1.63093	0.39662
910.02976	1.63288	0.40173
908.52965	1.63544	0.40676
907.02953	1.63861	0.41159
905.52942	1.64237	0.41615
904.02931	1.64668	0.42034
902.5292	1.65151	0.42411
901.02909	1.65682	0.42736
899.52897	1.66252	0.43005
898.02886	1.66857	0.43213
896.52875	1.67487	0.43352
895.02864	1.68135	0.43423
893.52853	1.68791	0.43421
892.02842	1.69448	0.43345
890.5283	1.70095	0.43196
889.02819	1.70726	0.42976
887.52808	1.71329	0.4269
886.02797	1.719	0.42341
884.52786	1.72431	0.41938
883.02774	1.72919	0.41489
881.52763	1.73358	0.40999
880.02752	1.73748	0.4048
878.52741	1.74087	0.39939
877.0273	1.74376	0.39383
875.52719	1.74617	0.38819
874.02707	1.74809	0.38252
872.52696	1.74956	0.37684
871.02685	1.75062	0.37122
869.52674	1.75127	0.36565
868.02663	1.75155	0.36018
866.52652	1.75147	0.35484
865.0264	1.75107	0.34964
863.52629	1.75037	0.34461
862.02618	1.74941	0.33977
860.52607	1.7482	0.33512
859.02596	1.74677	0.33068
857.52584	1.74515	0.32643
856.02573	1.74336	0.3224
854.52562	1.74144	0.31858
853.02551	1.73941	0.31498
851.5254	1.73728	0.31159
850.02529	1.73508	0.3084
848.52517	1.73282	0.30539
847.02506	1.73052	0.30256
845.52495	1.72819	0.29988
844.02484	1.72582	0.29734
842.52473	1.72345	0.29494
841.02461	1.72105	0.29264
839.5245	1.71862	0.29044
838.02439	1.71616	0.28835
836.52428	1.71365	0.28635
835.02417	1.7111	0.28444
833.52406	1.7085	0.28265
832.02394	1.70586	0.28096
830.52383	1.70319	0.27943
829.02372	1.7005	0.27808
827.52361	1.69784	0.27693
826.0235	1.69522	0.27598
824.52338	1.69267	0.27524
823.02327	1.69021	0.27466
821.52316	1.68785	0.27417
820.02305	1.68559	0.27374
818.52294	1.68342	0.27331
817.02283	1.68132	0.27287
815.52271	1.67927	0.27238
814.0226	1.67724	0.27188
812.52249	1.67522	0.27138
811.02238	1.67321	0.27091
809.52227	1.67117	0.27047
808.02215	1.66913	0.27008
806.52204	1.66707	0.26975
805.02193	1.66501	0.26949
803.52182	1.66294	0.26929
802.02171	1.6609	0.26917
800.5216	1.65886	0.26912
799.02148	1.65685	0.26915
797.52137	1.65489	0.26924
796.02126	1.65295	0.2694
794.52115	1.65105	0.26961
793.02104	1.64919	0.26986
791.52092	1.64737	0.27016
790.02081	1.64558	0.27049
788.5207	1.64384	0.27084
787.02059	1.64212	0.27122
785.52048	1.64044	0.27164
784.02037	1.63879	0.27208
782.52025	1.63717	0.27257
781.02014	1.63558	0.27309
779.52003	1.63403	0.27367
778.01992	1.63251	0.27426
776.51981	1.63104	0.27488
775.01969	1.62959	0.27552
773.51958	1.6282	0.27619
772.01947	1.62683	0.27688
770.51936	1.62552	0.2776
769.01925	1.62425	0.27834
767.51914	1.62302	0.27911
766.01902	1.62185	0.2799
764.51891	1.62072	0.28068
763.0188	1.61963	0.28146
761.51869	1.61858	0.28223
760.01858	1.61757	0.28298
758.51846	1.6166	0.28373
757.01835	1.61566	0.28446
755.51824	1.61475	0.28518
754.01813	1.61386	0.2859
752.51802	1.61299	0.28658
751.01791	1.61213	0.28724
749.51779	1.61129	0.28787
748.01768	1.61045	0.28848
746.51757	1.60961	0.28906
745.01746	1.60877	0.28963
743.51735	1.60792	0.2902
742.01723	1.60708	0.29077
740.51712	1.60623	0.29132
739.01701	1.60537	0.29186
737.5169	1.60451	0.2924
736.01679	1.60364	0.29292
734.51668	1.60276	0.29342
733.01656	1.60187	0.29392
731.51645	1.60095	0.29441
730.01634	1.60001	0.2949
728.51623	1.59905	0.29537
727.01612	1.59807	0.29584
725.516	1.59706	0.29632
724.01589	1.59603	0.29681
722.51578	1.59496	0.29729
721.01567	1.59385	0.29779
719.51556	1.59273	0.2983
718.01545	1.59157	0.29884
716.51533	1.59038	0.29939
715.01522	1.58916	0.29996
713.51511	1.58791	0.30056
712.015	1.58663	0.30118
710.51489	1.58532	0.30183
709.01477	1.58399	0.30251
707.51466	1.58262	0.30323
706.01455	1.58123	0.30399
704.51444	1.57982	0.30479
703.01433	1.57839	0.30563
701.51422	1.57694	0.30652
700.0141	1.57547	0.30745
698.51399	1.57396	0.30839
697.01388	1.57243	0.30938
695.51377	1.57087	0.31039
694.01366	1.56928	0.31144
692.51354	1.56767	0.31255
691.01343	1.56602	0.31373
689.51332	1.56437	0.31502
688.01321	1.56272	0.31639
686.5131	1.56107	0.31785
685.01299	1.55945	0.31938
683.51287	1.55784	0.32096
682.01276	1.55623	0.32256
680.51265	1.55463	0.32418
679.01254	1.55302	0.32579
677.51243	1.55139	0.32742
676.01232	1.5497	0.32904
674.5122	1.54795	0.33068
673.01209	1.54615	0.33238
671.51198	1.54429	0.33416
670.01187	1.54237	0.33603
668.51176	1.5404	0.33803
667.01164	1.53839	0.34019
665.51153	1.53636	0.3425
664.01142	1.53433	0.34493
662.51131	1.53229	0.34747
661.0112	1.53023	0.35012
659.51109	1.52817	0.35289
658.01097	1.52612	0.35577
656.51086	1.52407	0.35877
655.01075	1.52203	0.36194
653.51064	1.52	0.36526
652.01053	1.51798	0.36874
650.51041	1.51598	0.37238
649.0103	1.51402	0.37619
647.51019	1.5121	0.38016
646.01008	1.51021	0.3843
644.50997	1.50838	0.38862
643.00986	1.50659	0.39313
641.50974	1.50487	0.39782
640.00963	1.50323	0.40271
638.50952	1.50166	0.4078
637.00941	1.50016	0.41311
635.5093	1.49878	0.41865
634.00918	1.4975	0.42444
632.50907	1.49636	0.4305
631.00896	1.49536	0.43683
629.50885	1.49455	0.44344
628.00874	1.49393	0.45037
626.50863	1.49357	0.4576
625.00851	1.49349	0.46517
623.5084	1.49375	0.47309
622.00829	1.49438	0.48134
620.50818	1.49543	0.48992
619.00807	1.49694	0.4988
617.50795	1.49896	0.50795
616.00784	1.50153	0.5173
614.50773	1.50468	0.52682
613.00762	1.50845	0.53647
611.50751	1.51285	0.54621
610.0074	1.51791	0.55599
608.50728	1.52368	0.56581
607.00717	1.53016	0.57558
605.50706	1.53738	0.58527
604.00695	1.54534	0.59477
602.50684	1.55404	0.60403
601.00672	1.56349	0.61297
599.50661	1.5737	0.62154
598.0065	1.58469	0.62967
596.50639	1.59646	0.63735
595.00628	1.60904	0.64455
593.50617	1.62243	0.65119
592.00605	1.63667	0.65721
590.50594	1.65178	0.66248
589.00583	1.66773	0.66679
587.50572	1.68445	0.66993
586.00561	1.70184	0.67165
584.50549	1.71973	0.6717
583.00538	1.73789	0.66984
581.50527	1.75604	0.66585
580.00516	1.77381	0.65958
578.50505	1.79082	0.65095
577.00494	1.80668	0.64
575.50482	1.82104	0.62695
574.00471	1.83359	0.61213
572.5046	1.8441	0.59602
571.00449	1.85244	0.57914
569.50438	1.85861	0.5621
568.00426	1.86268	0.5454
566.50415	1.86484	0.52946
565.00404	1.86533	0.51456
563.50393	1.86441	0.5009
562.00382	1.86237	0.48852
560.50371	1.85946	0.47742
559.00359	1.85596	0.46753
557.50348	1.85204	0.45877
556.00337	1.84789	0.45103
554.50326	1.84362	0.4442
553.00315	1.83933	0.43821
551.50303	1.83509	0.43293
550.00292	1.83097	0.42831
548.50281	1.82701	0.42425
547.0027	1.82321	0.42068
545.50259	1.8196	0.41754
544.00248	1.81619	0.41474
542.50236	1.81297	0.41226
541.00225	1.80995	0.41002
539.50214	1.80711	0.408
538.00203	1.80443	0.40617
536.50192	1.80189	0.40449
535.0018	1.79948	0.40293
533.50169	1.79721	0.40147
532.00158	1.79502	0.40009
530.50147	1.79295	0.39881
529.00136	1.79094	0.39764
527.50125	1.789	0.39658
526.00113	1.78714	0.39561
524.50102	1.78534	0.39474
523.00091	1.78362	0.39393
521.5008	1.78196	0.39315
520.00069	1.78034	0.39242
518.50057	1.77876	0.39173
517.00046	1.77722	0.39111
515.50035	1.77571	0.39055
514.00024	1.77423	0.39004
512.50013	1.77276	0.38956
511.00002	1.77127	0.38909
509.4999	1.76975	0.38863
507.99979	1.76821	0.3882
506.49968	1.76666	0.38784
504.99957	1.76508	0.38757
503.49946	1.76349	0.38745
501.99934	1.76188	0.38748
500.49923	1.76028	0.38768
498.99912	1.75873	0.38799
497.49901	1.75723	0.38842
495.9989	1.75577	0.38894
494.49879	1.75434	0.38954
492.99867	1.75296	0.39021
491.49856	1.75163	0.39096
489.99845	1.75037	0.3918
488.49834	1.74917	0.39273
486.99823	1.74801	0.39376
485.49812	1.74691	0.39491
483.998	1.74585	0.39614
482.49789	1.74486	0.39745
480.99778	1.74392	0.39882
479.49767	1.74303	0.40021
477.99756	1.74218	0.40166
476.49744	1.74138	0.40322
474.99733	1.74064	0.4049
473.49722	1.73997	0.40676
471.99711	1.73943	0.40884
470.497	1.73902	0.41112
468.99689	1.73877	0.41354
467.49677	1.73866	0.41607
465.99666	1.73874	0.41866
464.49655	1.73905	0.42132
462.99644	1.73963	0.42409
461.49633	1.74048	0.427
459.99621	1.74164	0.43005
458.4961	1.74313	0.43324
456.99599	1.74502	0.43649
455.49588	1.7473	0.4397
453.99577	1.74996	0.44267
452.49566	1.75294	0.44535
450.99554	1.75626	0.44768
449.49543	1.75988	0.44963
447.99532	1.76376	0.4512
446.49521	1.7678	0.45238
444.9951	1.77196	0.4532
443.49498	1.77616	0.45357
441.99487	1.78034	0.4534
440.49476	1.7844	0.45263
438.99465	1.78822	0.45119
437.49454	1.79167	0.44918
435.99443	1.79471	0.44671
434.49431	1.79735	0.44397
432.9942	1.79957	0.44115
431.49409	1.80136	0.43845
429.99398	1.80273	0.43596
428.49387	1.8038	0.43372
426.99375	1.80465	0.43169
425.49364	1.80542	0.42984
423.99353	1.80608	0.42811
422.49342	1.80664	0.42645
420.99331	1.8071	0.42483
419.4932	1.80751	0.42326
417.99308	1.80787	0.42168
416.49297	1.80815	0.42004
414.99286	1.80827	0.41835
413.49275	1.8082	0.41663
411.99264	1.80796	0.41495
410.49252	1.80761	0.41335
408.99241	1.80714	0.41189
407.4923	1.80656	0.41063
405.99219	1.80586	0.40958
404.49208	1.80507	0.40868
402.99197	1.80425	0.40793
401.49185	1.8034	0.40728
399.99174	1.80251	0.4067
